%OpenBCI Raw EEG Data
%
%Sample Rate = 250.0 Hz
%First Column = SampleIndex
%Other Columns = EEG data in microvolts followed by Accel Data (in G) interleaved with Aux Data
0, 0.00, 0.00, 0.00, 0.00, 0.00, 0.00, 0.00, 0.00, -13212.09, 34090.28, -2645.51, -12659.80, 0.00, 0.00, 0.00, 0.00, 0.03, 0.40, 0.92
1, 5248.57, 57293.06, 4394.73, 26802.62, -14947.84, -606.20, 11558.60, -46633.25, -13212.09, 34090.28, -2645.51, -12659.80, 0.00, 0.00, 0.00, 0.00, 0.00, 0.00, 0.00
2, 5248.57, 57293.06, 4394.73, 26802.62, -14947.84, -606.20, 11558.60, -46633.25, -13069.40, 34237.44, -1433.17, -12357.99, 0.00, 0.00, 0.00, 0.00, 0.00, 0.00, 0.00
3, 5256.44, 57306.74, 4401.75, 26818.11, -14933.89, -593.15, 11576.68, -46614.09, -13069.40, 34237.44, -1433.17, -12357.99, 0.00, 0.00, 0.00, 0.00, 0.00, 0.00, 0.00
4, 5256.44, 57306.74, 4401.75, 26818.11, -14933.89, -593.15, 11576.68, -46614.09, -13072.60, 34225.77, -1436.57, -12345.72, 0.00, 0.00, 0.00, 0.00, 0.00, 0.00, 0.00
5, 5239.74, 57279.09, 4388.16, 26801.13, -14937.98, -600.77, 11580.48, -46610.43, -13072.60, 34225.77, -1436.57, -12345.72, 0.00, 0.00, 0.00, 0.00, 0.00, 0.00, 0.00
6, 5239.74, 57279.09, 4388.16, 26801.13, -14937.98, -600.77, 11580.48, -46610.43, -13063.57, 34241.73, -1434.42, -12343.17, 0.00, 0.00, 0.00, 0.00, 0.04, 0.40, 0.94
7, 5256.73, 57314.34, 4405.26, 26819.32, -14932.33, -585.95, 11603.51, -46593.89, -13063.57, 34241.73, -1434.42, -12343.17, 0.00, 0.00, 0.00, 0.00, 0.00, 0.00, 0.00
8, 5256.73, 57314.34, 4405.26, 26819.32, -14932.33, -585.95, 11603.51, -46593.89, -13062.34, 34240.01, -1426.69, -12341.47, 0.00, 0.00, 0.00, 0.00, 0.00, 0.00, 0.00
9, 5248.19, 57294.80, 4394.80, 26800.81, -14935.79, -600.26, 11590.65, -46604.61, -13062.34, 34240.01, -1426.69, -12341.47, 0.00, 0.00, 0.00, 0.00, 0.00, 0.00, 0.00
10, 5248.19, 57294.80, 4394.80, 26800.81, -14935.79, -600.26, 11590.65, -46604.61, -13047.25, 34246.65, -1420.52, -12335.55, 0.00, 0.00, 0.00, 0.00, 0.00, 0.00, 0.00
11, 5263.43, 57315.01, 4413.26, 26824.80, -14914.18, -579.54, 11622.95, -46572.65, -13047.25, 34246.65, -1420.52, -12335.55, 0.00, 0.00, 0.00, 0.00, 0.00, 0.00, 0.00
12, 5263.43, 57315.01, 4413.26, 26824.80, -14914.18, -579.54, 11622.95, -46572.65, -13052.95, 34250.14, -1422.93, -12344.94, 0.00, 0.00, 0.00, 0.00, 0.00, 0.00, 0.00
13, 5248.26, 57295.43, 4391.69, 26797.60, -14941.43, -599.27, 11595.91, -46598.38, -13052.95, 34250.14, -1422.93, -12344.94, 0.00, 0.00, 0.00, 0.00, 0.00, 0.00, 0.00
14, 5248.26, 57295.43, 4391.69, 26797.60, -14941.43, -599.27, 11595.91, -46598.38, -13053.06, 34237.37, -1428.92, -12331.59, 0.00, 0.00, 0.00, 0.00, 0.00, 0.00, 0.00
15, 5262.83, 57321.02, 4410.96, 26819.92, -14925.80, -583.58, 11625.46, -46574.06, -13053.06, 34237.37, -1428.92, -12331.59, 0.00, 0.00, 0.00, 0.00, 0.00, 0.00, 0.00
16, 5262.83, 57321.02, 4410.96, 26819.92, -14925.80, -583.58, 11625.46, -46574.06, -13048.46, 34251.10, -1416.25, -12348.78, 0.00, 0.00, 0.00, 0.00, 0.04, 0.40, 0.94
17, 5259.23, 57316.71, 4407.43, 26806.09, -14922.54, -592.10, 11614.55, -46582.31, -13048.46, 34251.10, -1416.25, -12348.78, 0.00, 0.00, 0.00, 0.00, 0.00, 0.00, 0.00
18, 5259.23, 57316.71, 4407.43, 26806.09, -14922.54, -592.10, 11614.55, -46582.31, -13041.19, 34240.88, -1417.03, -12326.16, 0.00, 0.00, 0.00, 0.00, 0.00, 0.00, 0.00
19, 5279.82, 57341.97, 4429.22, 26829.00, -14906.58, -577.26, 11638.73, -46560.49, -13041.19, 34240.88, -1417.03, -12326.16, 0.00, 0.00, 0.00, 0.00, 0.00, 0.00, 0.00
20, 5279.82, 57341.97, 4429.22, 26829.00, -14906.58, -577.26, 11638.73, -46560.49, -13032.90, 34265.47, -1390.86, -12342.36, 0.00, 0.00, 0.00, 0.00, 0.00, 0.00, 0.00
21, 5265.18, 57319.55, 4416.15, 26815.43, -14914.07, -586.22, 11627.94, -46570.44, -13032.90, 34265.47, -1390.86, -12342.36, 0.00, 0.00, 0.00, 0.00, 0.00, 0.00, 0.00
22, 5265.18, 57319.55, 4416.15, 26815.43, -14914.07, -586.22, 11627.94, -46570.44, -13039.11, 34237.13, -1414.35, -12318.81, 0.00, 0.00, 0.00, 0.00, 0.00, 0.00, 0.00
23, 5282.14, 57335.22, 4430.72, 26836.98, -14906.65, -568.16, 11649.82, -46552.94, -13039.11, 34237.13, -1414.35, -12318.81, 0.00, 0.00, 0.00, 0.00, 0.00, 0.00, 0.00
24, 5282.14, 57335.22, 4430.72, 26836.98, -14906.65, -568.16, 11649.82, -46552.94, -13035.98, 34262.92, -1395.15, -12344.58, 0.00, 0.00, 0.00, 0.00, 0.00, 0.00, 0.00
25, 5261.76, 57322.95, 4417.78, 26818.90, -14911.97, -583.29, 11635.16, -46572.12, -13035.98, 34262.92, -1395.15, -12344.58, 0.00, 0.00, 0.00, 0.00, 0.00, 0.00, 0.00
26, 5261.76, 57322.95, 4417.78, 26818.90, -14911.97, -583.29, 11635.16, -46572.12, -13035.80, 34233.08, -1404.92, -12316.19, 0.00, 0.00, 0.00, 0.00, 0.04, 0.40, 0.94
27, 5278.43, 57335.31, 4436.66, 26843.55, -14889.01, -562.66, 11664.62, -46541.36, -13035.80, 34233.08, -1404.92, -12316.19, 0.00, 0.00, 0.00, 0.00, 0.00, 0.00, 0.00
28, 5278.43, 57335.31, 4436.66, 26843.55, -14889.01, -562.66, 11664.62, -46541.36, -13026.89, 34269.52, -1387.73, -12348.24, 0.00, 0.00, 0.00, 0.00, 0.00, 0.00, 0.00
29, 5264.48, 57311.61, 4417.58, 26829.07, -14907.79, -573.50, 11647.40, -46559.98, -13026.89, 34269.52, -1387.73, -12348.24, 0.00, 0.00, 0.00, 0.00, 0.00, 0.00, 0.00
30, 5264.48, 57311.61, 4417.58, 26829.07, -14907.79, -573.50, 11647.40, -46559.98, -13040.75, 34233.17, -1427.16, -12307.92, 0.00, 0.00, 0.00, 0.00, 0.00, 0.00, 0.00
31, 5255.99, 57309.56, 4405.48, 26821.78, -14920.86, -581.08, 11641.06, -46566.39, -13040.75, 34233.17, -1427.16, -12307.92, 0.00, 0.00, 0.00, 0.00, 0.00, 0.00, 0.00
32, 5255.99, 57309.56, 4405.48, 26821.78, -14920.86, -581.08, 11641.06, -46566.39, -13042.29, 34253.89, -1412.00, -12355.40, 0.00, 0.00, 0.00, 0.00, 0.00, 0.00, 0.00
33, 5248.59, 57298.96, 4399.36, 26818.22, -14919.54, -585.95, 11636.59, -46568.56, -13042.29, 34253.89, -1412.00, -12355.40, 0.00, 0.00, 0.00, 0.00, 0.00, 0.00, 0.00
34, 5248.59, 57298.96, 4399.36, 26818.22, -14919.54, -585.95, 11636.59, -46568.56, -13040.97, 34223.56, -1437.33, -12330.23, 0.00, 0.00, 0.00, 0.00, 0.00, 0.00, 0.00
35, 5238.09, 57279.63, 4388.12, 26807.99, -14932.75, -594.15, 11627.49, -46581.10, -13040.97, 34223.56, -1437.33, -12330.23, 0.00, 0.00, 0.00, 0.00, 0.00, 0.00, 0.00
36, 5238.09, 57279.63, 4388.12, 26807.99, -14932.75, -594.15, 11627.49, -46581.10, -13044.68, 34240.68, -1423.98, -12367.89, 0.00, 0.00, 0.00, 0.00, 0.04, 0.40, 0.94
37, 5244.64, 57288.28, 4392.05, 26814.22, -14926.18, -587.07, 11642.44, -46570.21, -13044.68, 34240.68, -1423.98, -12367.89, 0.00, 0.00, 0.00, 0.00, 0.00, 0.00, 0.00
38, 5244.64, 57288.28, 4392.05, 26814.22, -14926.18, -587.07, 11642.44, -46570.21, -13049.93, 34214.39, -1442.63, -12329.42, 0.00, 0.00, 0.00, 0.00, 0.00, 0.00, 0.00
39, 5236.77, 57281.33, 4381.79, 26803.05, -14939.53, -594.18, 11630.10, -46584.27, -13049.93, 34214.39, -1442.63, -12329.42, 0.00, 0.00, 0.00, 0.00, 0.00, 0.00, 0.00
40, 5236.77, 57281.33, 4381.79, 26803.05, -14939.53, -594.18, 11630.10, -46584.27, -13037.84, 34244.14, -1422.17, -12360.80, 0.00, 0.00, 0.00, 0.00, 0.00, 0.00, 0.00
41, 5250.89, 57303.05, 4399.67, 26822.49, -14916.41, -579.51, 11648.92, -46562.13, -13037.84, 34244.14, -1422.17, -12360.80, 0.00, 0.00, 0.00, 0.00, 0.00, 0.00, 0.00
42, 5250.89, 57303.05, 4399.67, 26822.49, -14916.41, -579.51, 11648.92, -46562.13, -13033.21, 34224.21, -1428.70, -12332.55, 0.00, 0.00, 0.00, 0.00, 0.00, 0.00, 0.00
43, 5246.45, 57300.15, 4387.83, 26802.54, -14936.33, -599.07, 11628.92, -46584.45, -13033.21, 34224.21, -1428.70, -12332.55, 0.00, 0.00, 0.00, 0.00, 0.00, 0.00, 0.00
44, 5246.45, 57300.15, 4387.83, 26802.54, -14936.33, -599.07, 11628.92, -46584.45, -13044.95, 34232.03, -1418.96, -12363.31, 0.00, 0.00, 0.00, 0.00, 0.00, 0.00, 0.00
45, 5248.12, 57294.79, 4392.45, 26816.37, -14931.79, -586.40, 11642.08, -46577.39, -13044.95, 34232.03, -1418.96, -12363.31, 0.00, 0.00, 0.00, 0.00, 0.03, 0.40, 0.93
46, 5248.12, 57294.79, 4392.45, 26816.37, -14931.79, -586.40, 11642.08, -46577.39, -13053.53, 34207.45, -1435.74, -12342.57, 0.00, 0.00, 0.00, 0.00, 0.00, 0.00, 0.00
47, 5241.22, 57288.10, 4383.11, 26799.96, -14940.38, -600.17, 11629.05, -46587.54, -13053.53, 34207.45, -1435.74, -12342.57, 0.00, 0.00, 0.00, 0.00, 0.00, 0.00, 0.00
48, 5241.22, 57288.10, 4383.11, 26799.96, -14940.38, -600.17, 11629.05, -46587.54, -13038.93, 34226.78, -1426.60, -12355.91, 0.00, 0.00, 0.00, 0.00, 0.00, 0.00, 0.00
49, 5248.52, 57296.39, 4394.91, 26819.63, -14931.05, -583.18, 11647.31, -46576.86, -13038.93, 34226.78, -1426.60, -12355.91, 0.00, 0.00, 0.00, 0.00, 0.00, 0.00, 0.00
50, 5248.52, 57296.39, 4394.91, 26819.63, -14931.05, -583.18, 11647.31, -46576.86, -13045.17, 34211.98, -1435.41, -12344.04, 0.00, 0.00, 0.00, 0.00, 0.00, 0.00, 0.00
51, 5235.09, 57276.16, 4383.71, 26803.74, -14936.69, -596.01, 11636.54, -46586.96, -13045.17, 34211.98, -1435.41, -12344.04, 0.00, 0.00, 0.00, 0.00, 0.00, 0.00, 0.00
52, 5235.09, 57276.16, 4383.71, 26803.74, -14936.69, -596.01, 11636.54, -46586.96, -13041.79, 34221.79, -1431.54, -12358.57, 0.00, 0.00, 0.00, 0.00, 0.00, 0.00, 0.00
53, 5246.76, 57295.99, 4394.69, 26822.18, -14926.23, -584.63, 11653.30, -46575.42, -13041.79, 34221.79, -1431.54, -12358.57, 0.00, 0.00, 0.00, 0.00, 0.00, 0.00, 0.00
54, 5246.76, 57295.99, 4394.69, 26822.18, -14926.23, -584.63, 11653.30, -46575.42, -13050.92, 34207.13, -1433.46, -12356.40, 0.00, 0.00, 0.00, 0.00, 0.00, 0.00, 0.00
55, 5235.54, 57270.15, 4381.52, 26807.77, -14940.46, -595.72, 11635.60, -46598.00, -13050.92, 34207.13, -1433.46, -12356.40, 0.00, 0.00, 0.00, 0.00, 0.03, 0.40, 0.93
56, 5235.54, 57270.15, 4381.52, 26807.77, -14940.46, -595.72, 11635.60, -46598.00, -13044.63, 34202.79, -1432.61, -12361.83, 0.00, 0.00, 0.00, 0.00, 0.00, 0.00, 0.00
57, 5250.76, 57292.57, 4399.72, 26829.89, -14922.45, -579.31, 11656.86, -46577.08, -13044.63, 34202.79, -1432.61, -12361.83, 0.00, 0.00, 0.00, 0.00, 0.00, 0.00, 0.00
58, 5250.76, 57292.57, 4399.72, 26829.89, -14922.45, -579.31, 11656.86, -46577.08, -13036.45, 34206.44, -1421.73, -12363.29, 0.00, 0.00, 0.00, 0.00, 0.00, 0.00, 0.00
59, 5238.51, 57282.78, 4387.92, 26810.18, -14931.25, -595.94, 11640.27, -46591.25, -13036.45, 34206.44, -1421.73, -12363.29, 0.00, 0.00, 0.00, 0.00, 0.00, 0.00, 0.00
60, 5238.51, 57282.78, 4387.92, 26810.18, -14931.25, -595.94, 11640.27, -46591.25, -13037.95, 34202.71, -1424.28, -12354.10, 0.00, 0.00, 0.00, 0.00, 0.00, 0.00, 0.00
61, 5252.06, 57307.05, 4404.39, 26827.59, -14919.70, -583.36, 11660.93, -46576.47, -13037.95, 34202.71, -1424.28, -12354.10, 0.00, 0.00, 0.00, 0.00, 0.00, 0.00, 0.00
62, 5252.06, 57307.05, 4404.39, 26827.59, -14919.70, -583.36, 11660.93, -46576.47, -13035.09, 34212.38, -1407.58, -12367.60, 0.00, 0.00, 0.00, 0.00, 0.00, 0.00, 0.00
63, 5244.75, 57291.77, 4394.42, 26807.83, -14929.89, -597.84, 11644.70, -46590.00, -13035.09, 34212.38, -1407.58, -12367.60, 0.00, 0.00, 0.00, 0.00, 0.00, 0.00, 0.00
64, 5244.75, 57291.77, 4394.42, 26807.83, -14929.89, -597.84, 11644.70, -46590.00, -13039.65, 34190.46, -1416.77, -12356.78, 0.00, 0.00, 0.00, 0.00, 0.00, 0.00, 0.00
65, 5249.69, 57297.76, 4400.99, 26819.05, -14921.93, -589.80, 11657.37, -46583.36, -13039.65, 34190.46, -1416.77, -12356.78, 0.00, 0.00, 0.00, 0.00, 0.03, 0.40, 0.93
66, 5249.69, 57297.76, 4400.99, 26819.05, -14921.93, -589.80, 11657.37, -46583.36, -13043.07, 34206.48, -1409.59, -12375.00, 0.00, 0.00, 0.00, 0.00, 0.00, 0.00, 0.00
67, 5235.74, 57276.10, 4380.20, 26791.58, -14944.38, -611.01, 11629.79, -46608.79, -13043.07, 34206.48, -1409.59, -12375.00, 0.00, 0.00, 0.00, 0.00, 0.00, 0.00, 0.00
68, 5235.74, 57276.10, 4380.20, 26791.58, -14944.38, -611.01, 11629.79, -46608.79, -13056.61, 34170.32, -1439.30, -12364.22, 0.00, 0.00, 0.00, 0.00, 0.00, 0.00, 0.00
69, 5239.32, 57288.59, 4384.61, 26808.62, -14940.91, -599.59, 11645.53, -46597.77, -13056.61, 34170.32, -1439.30, -12364.22, 0.00, 0.00, 0.00, 0.00, 0.00, 0.00, 0.00
70, 5239.32, 57288.59, 4384.61, 26808.62, -14940.91, -599.59, 11645.53, -46597.77, -13052.28, 34186.84, -1426.91, -12395.81, 0.00, 0.00, 0.00, 0.00, 0.00, 0.00, 0.00
71, 5228.68, 57270.02, 4372.05, 26791.65, -14948.53, -611.61, 11629.86, -46610.98, -13052.28, 34186.84, -1426.91, -12395.81, 0.00, 0.00, 0.00, 0.00, 0.00, 0.00, 0.00
72, 5228.68, 57270.02, 4372.05, 26791.65, -14948.53, -611.61, 11629.86, -46610.98, -13061.64, 34157.58, -1447.63, -12371.69, 0.00, 0.00, 0.00, 0.00, 0.00, 0.00, 0.00
73, 5233.53, 57275.76, 4379.22, 26804.48, -14944.38, -604.26, 11644.72, -46603.54, -13061.64, 34157.58, -1447.63, -12371.69, 0.00, 0.00, 0.00, 0.00, 0.00, 0.00, 0.00
74, 5233.53, 57275.76, 4379.22, 26804.48, -14944.38, -604.26, 11644.72, -46603.54, -13062.54, 34173.87, -1432.01, -12409.58, 0.00, 0.00, 0.00, 0.00, 0.00, 0.00, 0.00
75, 5233.15, 57276.16, 4376.81, 26796.92, -14950.12, -610.60, 11632.54, -46619.97, -13062.54, 34173.87, -1432.01, -12409.58, 0.00, 0.00, 0.00, 0.00, 0.03, 0.40, 0.93
76, 5233.15, 57276.16, 4376.81, 26796.92, -14950.12, -610.60, 11632.54, -46619.97, -13064.68, 34148.52, -1448.77, -12373.14, 0.00, 0.00, 0.00, 0.00, 0.00, 0.00, 0.00
77, 5232.01, 57278.60, 4379.60, 26806.07, -14946.63, -606.98, 11640.48, -46614.63, -13064.68, 34148.52, -1448.77, -12373.14, 0.00, 0.00, 0.00, 0.00, 0.00, 0.00, 0.00
78, 5232.01, 57278.60, 4379.60, 26806.07, -14946.63, -606.98, 11640.48, -46614.63, -13065.53, 34169.25, -1430.36, -12412.17, 0.00, 0.00, 0.00, 0.00, 0.00, 0.00, 0.00
79, 5226.37, 57264.92, 4375.51, 26799.52, -14950.01, -609.67, 11636.29, -46622.12, -13065.53, 34169.25, -1430.36, -12412.17, 0.00, 0.00, 0.00, 0.00, 0.00, 0.00, 0.00
80, 5226.37, 57264.92, 4375.51, 26799.52, -14950.01, -609.67, 11636.29, -46622.12, -13065.60, 34137.24, -1446.96, -12383.92, 0.00, 0.00, 0.00, 0.00, 0.00, 0.00, 0.00
81, 5233.33, 57276.39, 4380.94, 26808.37, -14945.38, -605.46, 11639.94, -46620.42, -13065.60, 34137.24, -1446.96, -12383.92, 0.00, 0.00, 0.00, 0.00, 0.00, 0.00, 0.00
82, 5233.33, 57276.39, 4380.94, 26808.37, -14945.38, -605.46, 11639.94, -46620.42, -13065.33, 34161.58, -1427.52, -12420.22, 0.00, 0.00, 0.00, 0.00, 0.00, 0.00, 0.00
83, 5231.31, 57274.58, 4379.73, 26805.71, -14942.70, -604.41, 11641.32, -46616.13, -13065.33, 34161.58, -1427.52, -12420.22, 0.00, 0.00, 0.00, 0.00, 0.00, 0.00, 0.00
84, 5231.31, 57274.58, 4379.73, 26805.71, -14942.70, -604.41, 11641.32, -46616.13, -13062.14, 34153.29, -1443.30, -12367.93, 0.00, 0.00, 0.00, 0.00, 0.00, 0.00, 0.00
85, 5231.96, 57273.77, 4378.17, 26799.07, -14944.62, -608.97, 11642.62, -46621.36, -13062.14, 34153.29, -1443.30, -12367.93, 0.00, 0.00, 0.00, 0.00, 0.04, 0.41, 0.94
86, 5231.96, 57273.77, 4378.17, 26799.07, -14944.62, -608.97, 11642.62, -46621.36, -13066.85, 34146.60, -1423.87, -12427.06, 0.00, 0.00, 0.00, 0.00, 0.00, 0.00, 0.00
87, 5233.01, 57283.56, 4382.60, 26808.86, -14938.90, -601.73, 11645.21, -46622.70, -13066.85, 34146.60, -1423.87, -12427.06, 0.00, 0.00, 0.00, 0.00, 0.00, 0.00, 0.00
88, 5233.01, 57283.56, 4382.60, 26808.86, -14938.90, -601.73, 11645.21, -46622.70, -13067.14, 34125.61, -1435.29, -12387.20, 0.00, 0.00, 0.00, 0.00, 0.00, 0.00, 0.00
89, 5224.88, 57270.49, 4376.63, 26800.95, -14946.23, -607.88, 11641.66, -46626.52, -13067.14, 34125.61, -1435.29, -12387.20, 0.00, 0.00, 0.00, 0.00, 0.00, 0.00, 0.00
90, 5224.88, 57270.49, 4376.63, 26800.95, -14946.23, -607.88, 11641.66, -46626.52, -13054.65, 34174.88, -1418.49, -12392.25, 0.00, 0.00, 0.00, 0.00, 0.00, 0.00, 0.00
91, 5235.20, 57271.09, 4384.74, 26817.04, -14934.81, -596.81, 11659.23, -46609.42, -13054.65, 34174.88, -1418.49, -12392.25, 0.00, 0.00, 0.00, 0.00, 0.00, 0.00, 0.00
92, 5235.20, 57271.09, 4384.74, 26817.04, -14934.81, -596.81, 11659.23, -46609.42, -13055.41, 34140.41, -1426.71, -12377.37, 0.00, 0.00, 0.00, 0.00, 0.00, 0.00, 0.00
93, 5222.17, 57265.46, 4376.54, 26801.24, -14943.48, -610.14, 11641.21, -46629.07, -13055.41, 34140.41, -1426.71, -12377.37, 0.00, 0.00, 0.00, 0.00, 0.00, 0.00, 0.00
94, 5222.17, 57265.46, 4376.54, 26801.24, -14943.48, -610.14, 11641.21, -46629.07, -13058.94, 34161.69, -1424.50, -12407.32, 0.00, 0.00, 0.00, 0.00, 0.04, 0.40, 0.94
95, 5235.18, 57275.98, 4383.49, 26819.14, -14936.58, -595.94, 11652.37, -46620.93, -13058.94, 34161.69, -1424.50, -12407.32, 0.00, 0.00, 0.00, 0.00, 0.00, 0.00, 0.00
96, 5235.18, 57275.98, 4383.49, 26819.14, -14936.58, -595.94, 11652.37, -46620.93, -13068.62, 34129.32, -1427.47, -12388.01, 0.00, 0.00, 0.00, 0.00, 0.00, 0.00, 0.00
97, 5226.62, 57265.23, 4373.01, 26803.09, -14952.36, -610.40, 11637.21, -46641.52, -13068.62, 34129.32, -1427.47, -12388.01, 0.00, 0.00, 0.00, 0.00, 0.00, 0.00, 0.00
98, 5226.62, 57265.23, 4373.01, 26803.09, -14952.36, -610.40, 11637.21, -46641.52, -13074.94, 34137.30, -1432.39, -12408.59, 0.00, 0.00, 0.00, 0.00, 0.00, 0.00, 0.00
99, 5230.55, 57274.69, 4379.42, 26813.76, -14941.76, -603.61, 11651.72, -46623.99, -13074.94, 34137.30, -1432.39, -12408.59, 0.00, 0.00, 0.00, 0.00, 0.00, 0.00, 0.00
100, 5230.55, 57274.69, 4379.42, 26813.76, -14941.76, -603.61, 11651.72, -46623.99, -13071.12, 34134.87, -1434.76, -12394.22, 0.00, 0.00, 0.00, 0.00, 0.00, 0.00, 0.00
101, 5224.03, 57264.65, 4370.77, 26796.99, -14951.08, -612.88, 11635.31, -46641.09, -13071.12, 34134.87, -1434.76, -12394.22, 0.00, 0.00, 0.00, 0.00, 0.00, 0.00, 0.00
102, 5224.03, 57264.65, 4370.77, 26796.99, -14951.08, -612.88, 11635.31, -46641.09, -13079.39, 34128.16, -1436.64, -12408.01, 0.00, 0.00, 0.00, 0.00, 0.00, 0.00, 0.00
103, 5241.39, 57276.72, 4381.01, 26813.40, -14948.80, -602.92, 11651.09, -46633.80, -13079.39, 34128.16, -1436.64, -12408.01, 0.00, 0.00, 0.00, 0.00, 0.00, 0.00, 0.00
104, 5241.39, 57276.72, 4381.01, 26813.40, -14948.80, -602.92, 11651.09, -46633.80, -13081.49, 34124.50, -1435.41, -12402.07, 0.00, 0.00, 0.00, 0.00, 0.04, 0.41, 0.94
105, 5230.04, 57265.75, 4369.81, 26794.53, -14956.42, -617.38, 11632.00, -46647.82, -13081.49, 34124.50, -1435.41, -12402.07, 0.00, 0.00, 0.00, 0.00, 0.00, 0.00, 0.00
106, 5230.04, 57265.75, 4369.81, 26794.53, -14956.42, -617.38, 11632.00, -46647.82, -13078.94, 34127.52, -1439.72, -12391.67, 0.00, 0.00, 0.00, 0.00, 0.00, 0.00, 0.00
107, 5242.67, 57294.54, 4387.60, 26813.42, -14945.45, -602.13, 11650.85, -46628.06, -13078.94, 34127.52, -1439.72, -12391.67, 0.00, 0.00, 0.00, 0.00, 0.00, 0.00, 0.00
108, 5242.67, 57294.54, 4387.60, 26813.42, -14945.45, -602.13, 11650.85, -46628.06, -13073.38, 34139.36, -1422.62, -12395.45, 0.00, 0.00, 0.00, 0.00, 0.00, 0.00, 0.00
109, 5239.58, 57274.67, 4379.89, 26796.79, -14947.84, -612.44, 11638.29, -46643.17, -13073.38, 34139.36, -1422.62, -12395.45, 0.00, 0.00, 0.00, 0.00, 0.00, 0.00, 0.00
110, 5239.58, 57274.67, 4379.89, 26796.79, -14947.84, -612.44, 11638.29, -46643.17, -13078.45, 34125.35, -1431.38, -12386.06, 0.00, 0.00, 0.00, 0.00, 0.00, 0.00, 0.00
111, 5240.39, 57285.62, 4385.23, 26807.47, -14946.54, -608.35, 11648.99, -46637.47, -13078.45, 34125.35, -1431.38, -12386.06, 0.00, 0.00, 0.00, 0.00, 0.00, 0.00, 0.00
112, 5240.39, 57285.62, 4385.23, 26807.47, -14946.54, -608.35, 11648.99, -46637.47, -13089.47, 34121.95, -1425.97, -12411.21, 0.00, 0.00, 0.00, 0.00, 0.00, 0.00, 0.00
113, 5218.17, 57261.70, 4362.03, 26782.02, -14963.51, -625.60, 11624.61, -46662.24, -13089.47, 34121.95, -1425.97, -12411.21, 0.00, 0.00, 0.00, 0.00, 0.00, 0.00, 0.00
114, 5218.17, 57261.70, 4362.03, 26782.02, -14963.51, -625.60, 11624.61, -46662.24, -13092.18, 34105.97, -1450.54, -12395.03, 0.00, 0.00, 0.00, 0.00, 0.03, 0.40, 0.93
115, 5228.90, 57277.21, 4374.33, 26801.93, -14949.92, -612.19, 11646.06, -46642.01, -13092.18, 34105.97, -1450.54, -12395.03, 0.00, 0.00, 0.00, 0.00, 0.00, 0.00, 0.00
116, 5228.90, 57277.21, 4374.33, 26801.93, -14949.92, -612.19, 11646.06, -46642.01, -13078.83, 34138.31, -1427.11, -12402.25, 0.00, 0.00, 0.00, 0.00, 0.00, 0.00, 0.00
117, 5218.71, 57255.31, 4360.83, 26786.66, -14964.51, -624.06, 11631.65, -46656.02, -13078.83, 34138.31, -1427.11, -12402.25, 0.00, 0.00, 0.00, 0.00, 0.00, 0.00, 0.00
118, 5218.71, 57255.31, 4360.83, 26786.66, -14964.51, -624.06, 11631.65, -46656.02, -13087.30, 34103.93, -1449.62, -12382.08, 0.00, 0.00, 0.00, 0.00, 0.00, 0.00, 0.00
119, 5226.15, 57269.26, 4367.15, 26797.39, -14954.30, -614.02, 11643.36, -46647.44, -13087.30, 34103.93, -1449.62, -12382.08, 0.00, 0.00, 0.00, 0.00, 0.00, 0.00, 0.00
120, 5226.15, 57269.26, 4367.15, 26797.39, -14954.30, -614.02, 11643.36, -46647.44, -13087.42, 34128.32, -1440.19, -12408.12, 0.00, 0.00, 0.00, 0.00, 0.00, 0.00, 0.00
121, 5216.92, 57253.54, 4357.72, 26786.64, -14963.44, -624.44, 11630.71, -46657.95, -13087.42, 34128.32, -1440.19, -12408.12, 0.00, 0.00, 0.00, 0.00, 0.00, 0.00, 0.00
122, 5216.92, 57253.54, 4357.72, 26786.64, -14963.44, -624.44, 11630.71, -46657.95, -13090.66, 34104.22, -1455.03, -12374.39, 0.00, 0.00, 0.00, 0.00, 0.00, 0.00, 0.00
123, 5216.34, 57260.47, 4361.88, 26789.88, -14963.44, -622.70, 11638.33, -46649.34, -13090.66, 34104.22, -1455.03, -12374.39, 0.00, 0.00, 0.00, 0.00, 0.00, 0.00, 0.00
124, 5216.34, 57260.47, 4361.88, 26789.88, -14963.44, -622.70, 11638.33, -46649.34, -13084.60, 34140.25, -1434.22, -12398.94, 0.00, 0.00, 0.00, 0.00, 0.04, 0.40, 0.94
125, 5222.13, 57259.76, 4364.25, 26793.44, -14959.89, -620.51, 11635.16, -46657.52, -13084.60, 34140.25, -1434.22, -12398.94, 0.00, 0.00, 0.00, 0.00, 0.00, 0.00, 0.00
126, 5222.13, 57259.76, 4364.25, 26793.44, -14959.89, -620.51, 11635.16, -46657.52, -13096.62, 34086.10, -1458.61, -12389.17, 0.00, 0.00, 0.00, 0.00, 0.00, 0.00, 0.00
127, 5219.15, 57266.64, 4363.75, 26793.37, -14963.98, -623.37, 11633.57, -46659.42, -13096.62, 34086.10, -1458.61, -12389.17, 0.00, 0.00, 0.00, 0.00, 0.00, 0.00, 0.00
128, 5219.15, 57266.64, 4363.75, 26793.37, -14963.98, -623.37, 11633.57, -46659.42, -13093.16, 34125.48, -1443.01, -12415.92, 0.00, 0.00, 0.00, 0.00, 0.00, 0.00, 0.00
129, 5219.00, 57255.96, 4361.47, 26794.73, -14960.20, -621.11, 11638.29, -46654.50, -13093.16, 34125.48, -1443.01, -12415.92, 0.00, 0.00, 0.00, 0.00, 0.00, 0.00, 0.00
130, 5219.00, 57255.96, 4361.47, 26794.73, -14960.20, -621.11, 11638.29, -46654.50, -13084.58, 34112.47, -1449.58, -12357.54, 0.00, 0.00, 0.00, 0.00, 0.00, 0.00, 0.00
131, 5224.56, 57261.37, 4363.80, 26792.01, -14955.98, -621.58, 11642.13, -46648.94, -13084.58, 34112.47, -1449.58, -12357.54, 0.00, 0.00, 0.00, 0.00, 0.00, 0.00, 0.00
132, 5224.56, 57261.37, 4363.80, 26792.01, -14955.98, -621.58, 11642.13, -46648.94, -13090.32, 34131.83, -1436.19, -12401.75, 0.00, 0.00, 0.00, 0.00, 0.00, 0.00, 0.00
133, 5228.25, 57272.81, 4370.88, 26800.61, -14954.57, -616.55, 11644.28, -46648.98, -13090.32, 34131.83, -1436.19, -12401.75, 0.00, 0.00, 0.00, 0.00, 0.04, 0.40, 0.94
134, 5228.25, 57272.81, 4370.88, 26800.61, -14954.57, -616.55, 11644.28, -46648.98, -13079.64, 34114.30, -1440.66, -12362.26, 0.00, 0.00, 0.00, 0.00, 0.00, 0.00, 0.00
135, 5228.74, 57277.37, 4372.94, 26795.85, -14950.84, -618.99, 11647.18, -46644.63, -13079.64, 34114.30, -1440.66, -12362.26, 0.00, 0.00, 0.00, 0.00, 0.00, 0.00, 0.00
136, 5228.74, 57277.37, 4372.94, 26795.85, -14950.84, -618.99, 11647.18, -46644.63, -13072.46, 34146.45, -1422.51, -12380.76, 0.00, 0.00, 0.00, 0.00, 0.00, 0.00, 0.00
137, 5240.52, 57288.79, 4383.42, 26809.84, -14941.43, -604.17, 11663.21, -46628.71, -13072.46, 34146.45, -1422.51, -12380.76, 0.00, 0.00, 0.00, 0.00, 0.00, 0.00, 0.00
138, 5240.52, 57288.79, 4383.42, 26809.84, -14941.43, -604.17, 11663.21, -46628.71, -13071.41, 34126.39, -1429.75, -12338.41, 0.00, 0.00, 0.00, 0.00, 0.00, 0.00, 0.00
139, 5223.36, 57267.87, 4369.14, 26793.66, -14957.90, -620.53, 11645.79, -46647.66, -13071.41, 34126.39, -1429.75, -12338.41, 0.00, 0.00, 0.00, 0.00, 0.00, 0.00, 0.00
140, 5223.36, 57267.87, 4369.14, 26793.66, -14957.90, -620.53, 11645.79, -46647.66, -13072.06, 34140.30, -1421.55, -12381.64, 0.00, 0.00, 0.00, 0.00, 0.00, 0.00, 0.00
141, 5240.84, 57292.68, 4385.81, 26810.02, -14936.58, -603.01, 11667.21, -46621.96, -13072.06, 34140.30, -1421.55, -12381.64, 0.00, 0.00, 0.00, 0.00, 0.00, 0.00, 0.00
142, 5240.84, 57292.68, 4385.81, 26810.02, -14936.58, -603.01, 11667.21, -46621.96, -13064.26, 34139.45, -1431.65, -12340.98, 0.00, 0.00, 0.00, 0.00, 0.00, 0.00, 0.00
143, 5215.02, 57259.54, 4359.48, 26784.03, -14961.09, -625.16, 11645.37, -46640.85, -13064.26, 34139.45, -1431.65, -12340.98, 0.00, 0.00, 0.00, 0.00, 0.04, 0.40, 0.94
144, 5215.02, 57259.54, 4359.48, 26784.03, -14961.09, -625.16, 11645.37, -46640.85, -13075.70, 34145.20, -1440.57, -12367.60, 0.00, 0.00, 0.00, 0.00, 0.00, 0.00, 0.00
145, 5224.92, 57270.29, 4364.00, 26794.51, -14954.43, -614.76, 11654.18, -46631.97, -13075.70, 34145.20, -1440.57, -12367.60, 0.00, 0.00, 0.00, 0.00, 0.00, 0.00, 0.00
146, 5224.92, 57270.29, 4364.00, 26794.51, -14954.43, -614.76, 11654.18, -46631.97, -13078.63, 34127.22, -1446.49, -12344.11, 0.00, 0.00, 0.00, 0.00, 0.00, 0.00, 0.00
147, 5212.20, 57251.24, 4348.51, 26779.04, -14967.35, -629.18, 11635.00, -46650.14, -13078.63, 34127.22, -1446.49, -12344.11, 0.00, 0.00, 0.00, 0.00, 0.00, 0.00, 0.00
148, 5212.20, 57251.24, 4348.51, 26779.04, -14967.35, -629.18, 11635.00, -46650.14, -13081.89, 34132.23, -1454.94, -12361.88, 0.00, 0.00, 0.00, 0.00, 0.00, 0.00, 0.00
149, 5220.25, 57264.07, 4362.86, 26798.62, -14957.54, -613.87, 11658.38, -46624.46, -13081.89, 34132.23, -1454.94, -12361.88, 0.00, 0.00, 0.00, 0.00, 0.00, 0.00, 0.00
150, 5220.25, 57264.07, 4362.86, 26798.62, -14957.54, -613.87, 11658.38, -46624.46, -13067.97, 34142.96, -1444.66, -12344.55, 0.00, 0.00, 0.00, 0.00, 0.00, 0.00, 0.00
151, 5199.17, 57241.27, 4342.12, 26769.21, -14970.55, -642.08, 11627.02, -46653.97, -13067.97, 34142.96, -1444.66, -12344.55, 0.00, 0.00, 0.00, 0.00, 0.00, 0.00, 0.00
152, 5199.17, 57241.27, 4342.12, 26769.21, -14970.55, -642.08, 11627.02, -46653.97, -13078.27, 34130.98, -1458.52, -12361.79, 0.00, 0.00, 0.00, 0.00, 0.00, 0.00, 0.00
153, 5223.31, 57267.07, 4359.71, 26787.67, -14967.08, -624.75, 11646.71, -46638.84, -13078.27, 34130.98, -1458.52, -12361.79, 0.00, 0.00, 0.00, 0.00, 0.04, 0.40, 0.93
154, 5223.31, 57267.07, 4359.71, 26787.67, -14967.08, -624.75, 11646.71, -46638.84, -13081.49, 34125.19, -1445.51, -12356.92, 0.00, 0.00, 0.00, 0.00, 0.00, 0.00, 0.00
155, 5212.29, 57252.49, 4348.40, 26771.94, -14972.49, -638.39, 11621.19, -46659.55, -13081.49, 34125.19, -1445.51, -12356.92, 0.00, 0.00, 0.00, 0.00, 0.00, 0.00, 0.00
156, 5212.29, 57252.49, 4348.40, 26771.94, -14972.49, -638.39, 11621.19, -46659.55, -13071.32, 34131.36, -1449.09, -12337.51, 0.00, 0.00, 0.00, 0.00, 0.00, 0.00, 0.00
157, 5224.76, 57267.69, 4361.99, 26790.76, -14962.75, -626.56, 11635.83, -46645.72, -13071.32, 34131.36, -1449.09, -12337.51, 0.00, 0.00, 0.00, 0.00, 0.00, 0.00, 0.00
158, 5224.76, 57267.69, 4361.99, 26790.76, -14962.75, -626.56, 11635.83, -46645.72, -13078.21, 34131.92, -1441.24, -12350.39, 0.00, 0.00, 0.00, 0.00, 0.00, 0.00, 0.00
159, 5207.35, 57240.56, 4345.42, 26767.40, -14977.08, -648.02, 11609.23, -46671.51, -13078.21, 34131.92, -1441.24, -12350.39, 0.00, 0.00, 0.00, 0.00, 0.00, 0.00, 0.00
160, 5207.35, 57240.56, 4345.42, 26767.40, -14977.08, -648.02, 11609.23, -46671.51, -13088.47, 34111.44, -1462.68, -12351.26, 0.00, 0.00, 0.00, 0.00, 0.00, 0.00, 0.00
161, 5216.61, 57264.81, 4358.39, 26787.43, -14971.69, -635.97, 11623.51, -46665.68, -13088.47, 34111.44, -1462.68, -12351.26, 0.00, 0.00, 0.00, 0.00, 0.00, 0.00, 0.00
162, 5216.61, 57264.81, 4358.39, 26787.43, -14971.69, -635.97, 11623.51, -46665.68, -13076.73, 34142.38, -1436.57, -12348.69, 0.00, 0.00, 0.00, 0.00, 0.00, 0.00, 0.00
163, 5222.17, 57265.64, 4357.56, 26777.86, -14977.05, -634.28, 11610.30, -46673.79, -13076.73, 34142.38, -1436.57, -12348.69, 0.00, 0.00, 0.00, 0.00, 0.04, 0.40, 0.93
164, 5222.17, 57265.64, 4357.56, 26777.86, -14977.05, -634.28, 11610.30, -46673.79, -13086.14, 34116.90, -1452.77, -12322.92, 0.00, 0.00, 0.00, 0.00, 0.00, 0.00, 0.00
165, 5217.68, 57268.07, 4361.83, 26787.20, -14974.33, -635.73, 11612.54, -46680.45, -13086.14, 34116.90, -1452.77, -12322.92, 0.00, 0.00, 0.00, 0.00, 0.00, 0.00, 0.00
166, 5217.68, 57268.07, 4361.83, 26787.20, -14974.33, -635.73, 11612.54, -46680.45, -13082.34, 34127.71, -1433.40, -12365.07, 0.00, 0.00, 0.00, 0.00, 0.00, 0.00, 0.00
167, 5221.95, 57267.11, 4358.23, 26777.99, -14979.54, -637.92, 11604.15, -46689.53, -13082.34, 34127.71, -1433.40, -12365.07, 0.00, 0.00, 0.00, 0.00, 0.00, 0.00, 0.00
168, 5221.95, 57267.11, 4358.23, 26777.99, -14979.54, -637.92, 11604.15, -46689.53, -13080.20, 34111.78, -1451.50, -12324.97, 0.00, 0.00, 0.00, 0.00, 0.00, 0.00, 0.00
169, 5222.40, 57265.88, 4359.26, 26782.48, -14980.18, -636.80, 11616.49, -46678.55, -13080.20, 34111.78, -1451.50, -12324.97, 0.00, 0.00, 0.00, 0.00, 0.00, 0.00, 0.00
170, 5222.40, 57265.88, 4359.26, 26782.48, -14980.18, -636.80, 11616.49, -46678.55, -13091.35, 34131.52, -1445.89, -12352.53, 0.00, 0.00, 0.00, 0.00, 0.00, 0.00, 0.00
171, 5211.82, 57247.33, 4341.67, 26765.30, -14988.12, -649.41, 11590.85, -46700.79, -13091.35, 34131.52, -1445.89, -12352.53, 0.00, 0.00, 0.00, 0.00, 0.00, 0.00, 0.00
172, 5211.82, 57247.33, 4341.67, 26765.30, -14988.12, -649.41, 11590.85, -46700.79, -13096.45, 34094.84, -1460.02, -12335.08, 0.00, 0.00, 0.00, 0.00, 0.04, 0.40, 0.94
173, 5203.04, 57252.96, 4343.68, 26771.62, -14991.05, -648.42, 11594.99, -46700.26, -13096.45, 34094.84, -1460.02, -12335.08, 0.00, 0.00, 0.00, 0.00, 0.00, 0.00, 0.00
174, 5203.04, 57252.96, 4343.68, 26771.62, -14991.05, -648.42, 11594.99, -46700.26, -13090.77, 34121.59, -1445.91, -12364.45, 0.00, 0.00, 0.00, 0.00, 0.00, 0.00, 0.00
175, 5202.12, 57247.31, 4337.20, 26761.79, -15000.19, -652.49, 11591.10, -46704.68, -13090.77, 34121.59, -1445.91, -12364.45, 0.00, 0.00, 0.00, 0.00, 0.00, 0.00, 0.00
176, 5202.12, 57247.31, 4337.20, 26761.79, -15000.19, -652.49, 11591.10, -46704.68, -13097.05, 34097.90, -1473.16, -12322.94, 0.00, 0.00, 0.00, 0.00, 0.00, 0.00, 0.00
177, 5193.70, 57234.63, 4329.53, 26757.99, -15001.93, -657.05, 11588.91, -46705.91, -13097.05, 34097.90, -1473.16, -12322.94, 0.00, 0.00, 0.00, 0.00, 0.00, 0.00, 0.00
178, 5193.70, 57234.63, 4329.53, 26757.99, -15001.93, -657.05, 11588.91, -46705.91, -13089.43, 34125.55, -1453.13, -12363.46, 0.00, 0.00, 0.00, 0.00, 0.00, 0.00, 0.00
179, 5198.90, 57236.78, 4333.04, 26762.82, -14990.53, -648.69, 11594.30, -46698.16, -13089.43, 34125.55, -1453.13, -12363.46, 0.00, 0.00, 0.00, 0.00, 0.00, 0.00, 0.00
180, 5198.90, 57236.78, 4333.04, 26762.82, -14990.53, -648.69, 11594.30, -46698.16, -13094.84, 34094.19, -1474.61, -12331.68, 0.00, 0.00, 0.00, 0.00, 0.00, 0.00, 0.00
181, 5191.66, 57228.89, 4322.60, 26750.48, -15008.97, -662.95, 11578.92, -46712.33, -13094.84, 34094.19, -1474.61, -12331.68, 0.00, 0.00, 0.00, 0.00, 0.00, 0.00, 0.00
182, 5191.66, 57228.89, 4322.60, 26750.48, -15008.97, -662.95, 11578.92, -46712.33, -13095.06, 34122.02, -1461.78, -12367.93, 0.00, 0.00, 0.00, 0.00, 0.04, 0.40, 0.94
183, 5197.83, 57241.34, 4331.83, 26756.85, -15003.05, -655.73, 11593.67, -46700.73, -13095.06, 34122.02, -1461.78, -12367.93, 0.00, 0.00, 0.00, 0.00, 0.00, 0.00, 0.00
184, 5197.83, 57241.34, 4331.83, 26756.85, -15003.05, -655.73, 11593.67, -46700.73, -13093.94, 34097.70, -1467.64, -12324.37, 0.00, 0.00, 0.00, 0.00, 0.00, 0.00, 0.00
185, 5193.99, 57236.02, 4326.27, 26750.07, -15007.21, -660.92, 11583.81, -46707.57, -13093.94, 34097.70, -1467.64, -12324.37, 0.00, 0.00, 0.00, 0.00, 0.00, 0.00, 0.00
186, 5193.99, 57236.02, 4326.27, 26750.07, -15007.21, -660.92, 11583.81, -46707.57, -13095.46, 34123.00, -1460.08, -12358.79, 0.00, 0.00, 0.00, 0.00, 0.00, 0.00, 0.00
187, 5208.76, 57247.13, 4338.29, 26767.55, -14995.32, -644.60, 11599.35, -46696.30, -13095.46, 34123.00, -1460.08, -12358.79, 0.00, 0.00, 0.00, 0.00, 0.00, 0.00, 0.00
188, 5208.76, 57247.13, 4338.29, 26767.55, -14995.32, -644.60, 11599.35, -46696.30, -13096.07, 34095.51, -1463.82, -12329.58, 0.00, 0.00, 0.00, 0.00, 0.00, 0.00, 0.00
189, 5195.64, 57236.29, 4327.63, 26754.48, -15003.36, -657.48, 11584.31, -46711.52, -13096.07, 34095.51, -1463.82, -12329.58, 0.00, 0.00, 0.00, 0.00, 0.00, 0.00, 0.00
190, 5195.64, 57236.29, 4327.63, 26754.48, -15003.36, -657.48, 11584.31, -46711.52, -13085.76, 34126.51, -1456.57, -12347.75, 0.00, 0.00, 0.00, 0.00, 0.00, 0.00, 0.00
191, 5206.12, 57245.92, 4336.71, 26768.47, -14991.40, -647.28, 11604.29, -46689.69, -13085.76, 34126.51, -1456.57, -12347.75, 0.00, 0.00, 0.00, 0.00, 0.00, 0.00, 0.00
192, 5206.12, 57245.92, 4336.71, 26768.47, -14991.40, -647.28, 11604.29, -46689.69, -13095.77, 34101.23, -1463.97, -12333.49, 0.00, 0.00, 0.00, 0.00, 0.04, 0.40, 0.94
193, 5191.39, 57235.02, 4325.96, 26751.37, -15000.43, -657.25, 11587.50, -46707.34, -13095.77, 34101.23, -1463.97, -12333.49, 0.00, 0.00, 0.00, 0.00, 0.00, 0.00, 0.00
194, 5191.39, 57235.02, 4325.96, 26751.37, -15000.43, -657.25, 11587.50, -46707.34, -13093.18, 34116.52, -1460.11, -12346.95, 0.00, 0.00, 0.00, 0.00, 0.00, 0.00, 0.00
195, 5212.07, 57255.78, 4343.06, 26777.97, -14986.40, -633.29, 11616.45, -46680.16, -13093.18, 34116.52, -1460.11, -12346.95, 0.00, 0.00, 0.00, 0.00, 0.00, 0.00, 0.00
196, 5212.07, 57255.78, 4343.06, 26777.97, -14986.40, -633.29, 11616.45, -46680.16, -13089.58, 34121.93, -1464.84, -12313.78, 0.00, 0.00, 0.00, 0.00, 0.00, 0.00, 0.00
197, 5195.60, 57239.66, 4328.79, 26754.23, -14998.29, -651.91, 11599.91, -46694.04, -13089.58, 34121.93, -1464.84, -12313.78, 0.00, 0.00, 0.00, 0.00, 0.00, 0.00, 0.00
198, 5195.60, 57239.66, 4328.79, 26754.23, -14998.29, -651.91, 11599.91, -46694.04, -13092.60, 34121.79, -1458.45, -12324.91, 0.00, 0.00, 0.00, 0.00, 0.00, 0.00, 0.00
199, 5205.12, 57253.43, 4336.86, 26767.53, -14990.06, -642.99, 11613.63, -46683.56, -13092.60, 34121.79, -1458.45, -12324.91, 0.00, 0.00, 0.00, 0.00, 0.00, 0.00, 0.00
200, 5205.12, 57253.43, 4336.86, 26767.53, -14990.06, -642.99, 11613.63, -46683.56, -13099.87, 34103.75, -1463.59, -12345.25, 0.00, 0.00, 0.00, 0.00, 0.00, 0.00, 0.00
201, 5200.04, 57233.63, 4326.94, 26750.21, -15000.88, -653.14, 11596.82, -46697.44, -13099.87, 34103.75, -1463.59, -12345.25, 0.00, 0.00, 0.00, 0.00, 0.00, 0.00, 0.00
202, 5200.04, 57233.63, 4326.94, 26750.21, -15000.88, -653.14, 11596.82, -46697.44, -13091.75, 34112.18, -1461.76, -12333.47, 0.00, 0.00, 0.00, 0.00, 0.04, 0.40, 0.94
203, 5203.11, 57248.80, 4337.69, 26768.16, -14985.66, -640.58, 11614.17, -46680.05, -13091.75, 34112.18, -1461.76, -12333.47, 0.00, 0.00, 0.00, 0.00, 0.00, 0.00, 0.00
204, 5203.11, 57248.80, 4337.69, 26768.16, -14985.66, -640.58, 11614.17, -46680.05, -13096.09, 34110.57, -1455.48, -12342.90, 0.00, 0.00, 0.00, 0.00, 0.00, 0.00, 0.00
205, 5185.72, 57233.90, 4327.43, 26752.62, -14994.89, -651.37, 11600.60, -46691.94, -13096.09, 34110.57, -1455.48, -12342.90, 0.00, 0.00, 0.00, 0.00, 0.00, 0.00, 0.00
206, 5185.72, 57233.90, 4327.43, 26752.62, -14994.89, -651.37, 11600.60, -46691.94, -13095.93, 34101.00, -1465.02, -12328.73, 0.00, 0.00, 0.00, 0.00, 0.00, 0.00, 0.00
207, 5203.08, 57251.29, 4338.99, 26770.71, -14989.28, -640.15, 11618.24, -46675.96, -13095.93, 34101.00, -1465.02, -12328.73, 0.00, 0.00, 0.00, 0.00, 0.00, 0.00, 0.00
208, 5203.08, 57251.29, 4338.99, 26770.71, -14989.28, -640.15, 11618.24, -46675.96, -13095.75, 34114.62, -1454.52, -12351.75, 0.00, 0.00, 0.00, 0.00, 0.00, 0.00, 0.00
209, 5191.53, 57233.07, 4328.39, 26754.43, -14992.10, -652.09, 11605.38, -46687.38, -13095.75, 34114.62, -1454.52, -12351.75, 0.00, 0.00, 0.00, 0.00, 0.00, 0.00, 0.00
210, 5191.53, 57233.07, 4328.39, 26754.43, -14992.10, -652.09, 11605.38, -46687.38, -13094.34, 34094.81, -1468.31, -12332.82, 0.00, 0.00, 0.00, 0.00, 0.00, 0.00, 0.00
211, 5197.34, 57244.94, 4336.10, 26769.23, -14983.94, -639.91, 11622.01, -46669.64, -13094.34, 34094.81, -1468.31, -12332.82, 0.00, 0.00, 0.00, 0.00, 0.04, 0.40, 0.93
212, 5197.34, 57244.94, 4336.10, 26769.23, -14983.94, -639.91, 11622.01, -46669.64, -13089.40, 34124.32, -1449.87, -12337.98, 0.00, 0.00, 0.00, 0.00, 0.00, 0.00, 0.00
213, 5199.06, 57243.64, 4338.32, 26766.12, -14978.66, -636.15, 11624.94, -46665.39, -13089.40, 34124.32, -1449.87, -12337.98, 0.00, 0.00, 0.00, 0.00, 0.00, 0.00, 0.00
214, 5199.06, 57243.64, 4338.32, 26766.12, -14978.66, -636.15, 11624.94, -46665.39, -13080.89, 34109.01, -1453.31, -12309.96, 0.00, 0.00, 0.00, 0.00, 0.00, 0.00, 0.00
215, 5199.89, 57248.85, 4342.63, 26775.60, -14975.02, -632.91, 11634.53, -46655.11, -13080.89, 34109.01, -1453.31, -12309.96, 0.00, 0.00, 0.00, 0.00, 0.00, 0.00, 0.00
216, 5199.89, 57248.85, 4342.63, 26775.60, -14975.02, -632.91, 11634.53, -46655.11, -13086.88, 34123.00, -1446.18, -12349.74, 0.00, 0.00, 0.00, 0.00, 0.00, 0.00, 0.00
217, 5194.17, 57237.94, 4330.94, 26760.13, -14986.24, -642.32, 11614.19, -46668.70, -13086.88, 34123.00, -1446.18, -12349.74, 0.00, 0.00, 0.00, 0.00, 0.00, 0.00, 0.00
218, 5194.17, 57237.94, 4330.94, 26760.13, -14986.24, -642.32, 11614.19, -46668.70, -13085.96, 34099.26, -1465.09, -12310.83, 0.00, 0.00, 0.00, 0.00, 0.00, 0.00, 0.00
219, 5202.95, 57247.26, 4335.63, 26770.64, -14982.75, -636.22, 11625.08, -46661.93, -13085.96, 34099.26, -1465.09, -12310.83, 0.00, 0.00, 0.00, 0.00, 0.00, 0.00, 0.00
220, 5202.95, 57247.26, 4335.63, 26770.64, -14982.75, -636.22, 11625.08, -46661.93, -13087.06, 34123.67, -1448.93, -12355.60, 0.00, 0.00, 0.00, 0.00, 0.00, 0.00, 0.00
221, 5203.24, 57246.91, 4335.90, 26767.24, -14984.21, -639.39, 11622.33, -46665.34, -13087.06, 34123.67, -1448.93, -12355.60, 0.00, 0.00, 0.00, 0.00, 0.04, 0.40, 0.94
222, 5203.24, 57246.91, 4335.90, 26767.24, -14984.21, -639.39, 11622.33, -46665.34, -13088.76, 34092.85, -1465.43, -12315.95, 0.00, 0.00, 0.00, 0.00, 0.00, 0.00, 0.00
223, 5199.91, 57245.07, 4338.81, 26775.38, -14982.08, -630.30, 11633.05, -46659.58, -13088.76, 34092.85, -1465.43, -12315.95, 0.00, 0.00, 0.00, 0.00, 0.00, 0.00, 0.00
224, 5199.91, 57245.07, 4338.81, 26775.38, -14982.08, -630.30, 11633.05, -46659.58, -13085.56, 34119.29, -1446.36, -12358.93, 0.00, 0.00, 0.00, 0.00, 0.00, 0.00, 0.00
225, 5194.12, 57244.34, 4337.42, 26771.46, -14973.12, -632.87, 11628.99, -46659.40, -13085.56, 34119.29, -1446.36, -12358.93, 0.00, 0.00, 0.00, 0.00, 0.00, 0.00, 0.00
226, 5194.12, 57244.34, 4337.42, 26771.46, -14973.12, -632.87, 11628.99, -46659.40, -13085.45, 34093.11, -1464.29, -12313.46, 0.00, 0.00, 0.00, 0.00, 0.00, 0.00, 0.00
227, 5195.89, 57236.94, 4336.22, 26770.82, -14976.56, -634.16, 11630.62, -46657.45, -13085.45, 34093.11, -1464.29, -12313.46, 0.00, 0.00, 0.00, 0.00, 0.00, 0.00, 0.00
228, 5195.89, 57236.94, 4336.22, 26770.82, -14976.56, -634.16, 11630.62, -46657.45, -13079.46, 34127.25, -1443.14, -12349.16, 0.00, 0.00, 0.00, 0.00, 0.00, 0.00, 0.00
229, 5199.06, 57248.20, 4343.01, 26780.00, -14970.55, -623.14, 11637.55, -46649.27, -13079.46, 34127.25, -1443.14, -12349.16, 0.00, 0.00, 0.00, 0.00, 0.00, 0.00, 0.00
230, 5199.06, 57248.20, 4343.01, 26780.00, -14970.55, -623.14, 11637.55, -46649.27, -13083.15, 34098.70, -1458.18, -12309.75, 0.00, 0.00, 0.00, 0.00, 0.00, 0.00, 0.00
231, 5200.83, 57238.90, 4337.29, 26777.70, -14980.52, -625.18, 11632.34, -46656.07, -13083.15, 34098.70, -1458.18, -12309.75, 0.00, 0.00, 0.00, 0.00, 0.04, 0.40, 0.93
232, 5200.83, 57238.90, 4337.29, 26777.70, -14980.52, -625.18, 11632.34, -46656.07, -13079.15, 34126.75, -1446.72, -12345.11, 0.00, 0.00, 0.00, 0.00, 0.00, 0.00, 0.00
233, 5205.90, 57252.58, 4346.12, 26782.55, -14966.53, -624.08, 11636.99, -46648.29, -13079.15, 34126.75, -1446.72, -12345.11, 0.00, 0.00, 0.00, 0.00, 0.00, 0.00, 0.00
234, 5205.90, 57252.58, 4346.12, 26782.55, -14966.53, -624.08, 11636.99, -46648.29, -13083.30, 34097.41, -1450.90, -12318.00, 0.00, 0.00, 0.00, 0.00, 0.00, 0.00, 0.00
235, 5203.11, 57247.80, 4344.06, 26779.58, -14967.51, -623.48, 11638.51, -46651.09, -13083.30, 34097.41, -1450.90, -12318.00, 0.00, 0.00, 0.00, 0.00, 0.00, 0.00, 0.00
236, 5203.11, 57247.80, 4344.06, 26779.58, -14967.51, -623.48, 11638.51, -46651.09, -13072.78, 34130.89, -1436.41, -12325.13, 0.00, 0.00, 0.00, 0.00, 0.00, 0.00, 0.00
237, 5208.29, 57262.11, 4353.83, 26792.50, -14960.33, -611.86, 11649.44, -46633.38, -13072.78, 34130.89, -1436.41, -12325.13, 0.00, 0.00, 0.00, 0.00, 0.00, 0.00, 0.00
238, 5208.29, 57262.11, 4353.83, 26792.50, -14960.33, -611.86, 11649.44, -46633.38, -13069.13, 34117.41, -1441.89, -12295.16, 0.00, 0.00, 0.00, 0.00, 0.00, 0.00, 0.00
239, 5204.40, 57246.82, 4344.96, 26777.14, -14967.24, -625.38, 11637.48, -46650.30, -13069.13, 34117.41, -1441.89, -12295.16, 0.00, 0.00, 0.00, 0.00, 0.00, 0.00, 0.00
240, 5204.40, 57246.82, 4344.96, 26777.14, -14967.24, -625.38, 11637.48, -46650.30, -13079.37, 34111.51, -1438.40, -12344.09, 0.00, 0.00, 0.00, 0.00, 0.00, 0.00, 0.00
241, 5215.78, 57265.84, 4357.34, 26796.90, -14953.43, -607.79, 11649.37, -46639.42, -13079.37, 34111.51, -1438.40, -12344.09, 0.00, 0.00, 0.00, 0.00, 0.04, 0.41, 0.93
242, 5215.78, 57265.84, 4357.34, 26796.90, -14953.43, -607.79, 11649.37, -46639.42, -13061.42, 34121.48, -1426.35, -12304.10, 0.00, 0.00, 0.00, 0.00, 0.00, 0.00, 0.00
243, 5205.61, 57248.34, 4348.80, 26781.05, -14956.33, -619.34, 11646.89, -46645.32, -13061.42, 34121.48, -1426.35, -12304.10, 0.00, 0.00, 0.00, 0.00, 0.00, 0.00, 0.00
244, 5205.61, 57248.34, 4348.80, 26781.05, -14956.33, -619.34, 11646.89, -46645.32, -13083.73, 34088.71, -1436.95, -12358.79, 0.00, 0.00, 0.00, 0.00, 0.00, 0.00, 0.00
245, 5213.07, 57261.99, 4357.52, 26795.54, -14949.81, -614.14, 11653.15, -46651.31, -13083.73, 34088.71, -1436.95, -12358.79, 0.00, 0.00, 0.00, 0.00, 0.00, 0.00, 0.00
246, 5213.07, 57261.99, 4357.52, 26795.54, -14949.81, -614.14, 11653.15, -46651.31, -13072.66, 34092.54, -1429.35, -12340.87, 0.00, 0.00, 0.00, 0.00, 0.00, 0.00, 0.00
247, 5201.50, 57246.48, 4349.52, 26782.98, -14952.24, -621.02, 11645.95, -46661.72, -13072.66, 34092.54, -1429.35, -12340.87, 0.00, 0.00, 0.00, 0.00, 0.00, 0.00, 0.00
248, 5201.50, 57246.48, 4349.52, 26782.98, -14952.24, -621.02, 11645.95, -46661.72, -13088.38, 34075.19, -1431.88, -12362.75, 0.00, 0.00, 0.00, 0.00, 0.00, 0.00, 0.00
249, 5214.57, 57258.21, 4360.47, 26800.84, -14940.33, -609.87, 11666.83, -46656.49, -13088.38, 34075.19, -1431.88, -12362.75, 0.00, 0.00, 0.00, 0.00, 0.00, 0.00, 0.00
250, 5214.57, 57258.21, 4360.47, 26800.84, -14940.33, -609.87, 11666.83, -46656.49, -13091.75, 34079.66, -1428.81, -12358.28, 0.00, 0.00, 0.00, 0.00, 0.04, 0.40, 0.94
251, 5203.24, 57238.90, 4346.70, 26780.16, -14953.47, -621.76, 11652.14, -46665.72, -13091.75, 34079.66, -1428.81, -12358.28, 0.00, 0.00, 0.00, 0.00, 0.00, 0.00, 0.00
252, 5203.24, 57238.90, 4346.70, 26780.16, -14953.47, -621.76, 11652.14, -46665.72, -13079.91, 34100.67, -1433.40, -12316.30, 0.00, 0.00, 0.00, 0.00, 0.00, 0.00, 0.00
253, 5226.44, 57274.91, 4375.33, 26817.69, -14912.68, -583.63, 11704.02, -46607.07, -13079.91, 34100.67, -1433.40, -12316.30, 0.00, 0.00, 0.00, 0.00, 0.00, 0.00, 0.00
254, 5226.44, 57274.91, 4375.33, 26817.69, -14912.68, -583.63, 11704.02, -46607.07, -13066.00, 34115.02, -1404.87, -12308.32, 0.00, 0.00, 0.00, 0.00, 0.00, 0.00, 0.00
255, 5222.37, 57271.07, 4374.42, 26811.14, -14899.83, -584.70, 11725.75, -46576.18, -13066.00, 34115.02, -1404.87, -12308.32, 0.00, 0.00, 0.00, 0.00, 0.00, 0.00, 0.00
0, 5222.37, 57271.07, 4374.42, 26811.14, -14899.83, -584.70, 11725.75, -46576.18, -13058.87, 34136.07, -1402.97, -12259.22, 0.00, 0.00, 0.00, 0.00, 0.00, 0.00, 0.00
1, 5247.94, 57304.91, 4404.79, 26844.31, -14858.50, -550.23, 11790.23, -46494.53, -13058.87, 34136.07, -1402.97, -12259.22, 0.00, 0.00, 0.00, 0.00, 0.00, 0.00, 0.00
2, 5247.94, 57304.91, 4404.79, 26844.31, -14858.50, -550.23, 11790.23, -46494.53, -13046.80, 34178.90, -1383.55, -12254.34, 0.00, 0.00, 0.00, 0.00, 0.00, 0.00, 0.00
3, 5241.98, 57287.56, 4397.77, 26836.17, -14857.45, -553.25, 11788.82, -46482.71, -13046.80, 34178.90, -1383.55, -12254.34, 0.00, 0.00, 0.00, 0.00, 0.00, 0.00, 0.00
4, 5241.98, 57287.56, 4397.77, 26836.17, -14857.45, -553.25, 11788.82, -46482.71, -13041.53, 34171.46, -1392.40, -12221.75, 0.00, 0.00, 0.00, 0.00, 0.04, 0.41, 0.93
5, 5252.44, 57298.63, 4409.84, 26853.63, -14846.18, -535.91, 11811.02, -46463.06, -13041.53, 34171.46, -1392.40, -12221.75, 0.00, 0.00, 0.00, 0.00, 0.00, 0.00, 0.00
6, 5252.44, 57298.63, 4409.84, 26853.63, -14846.18, -535.91, 11811.02, -46463.06, -13044.50, 34182.52, -1376.40, -12251.77, 0.00, 0.00, 0.00, 0.00, 0.00, 0.00, 0.00
7, 5244.05, 57289.06, 4400.43, 26843.17, -14846.27, -538.88, 11803.78, -46473.52, -13044.50, 34182.52, -1376.40, -12251.77, 0.00, 0.00, 0.00, 0.00, 0.00, 0.00, 0.00
8, 5244.05, 57289.06, 4400.43, 26843.17, -14846.27, -538.88, 11803.78, -46473.52, -13049.10, 34158.49, -1400.36, -12223.74, 0.00, 0.00, 0.00, 0.00, 0.00, 0.00, 0.00
9, 5255.27, 57303.86, 4408.81, 26853.16, -14847.21, -531.99, 11816.88, -46466.10, -13049.10, 34158.49, -1400.36, -12223.74, 0.00, 0.00, 0.00, 0.00, 0.00, 0.00, 0.00
10, 5255.27, 57303.86, 4408.81, 26853.16, -14847.21, -531.99, 11816.88, -46466.10, -13050.22, 34176.04, -1377.65, -12264.04, 0.00, 0.00, 0.00, 0.00, 0.00, 0.00, 0.00
11, 5251.92, 57295.25, 4405.06, 26847.75, -14842.50, -536.13, 11808.43, -46471.44, -13050.22, 34176.04, -1377.65, -12264.04, 0.00, 0.00, 0.00, 0.00, 0.00, 0.00, 0.00
12, 5251.92, 57295.25, 4405.06, 26847.75, -14842.50, -536.13, 11808.43, -46471.44, -13050.76, 34146.91, -1400.60, -12231.54, 0.00, 0.00, 0.00, 0.00, 0.00, 0.00, 0.00
13, 5250.00, 57295.95, 4404.70, 26847.93, -14850.74, -535.93, 11812.90, -46475.15, -13050.76, 34146.91, -1400.60, -12231.54, 0.00, 0.00, 0.00, 0.00, 0.00, 0.00, 0.00
14, 5250.00, 57295.95, 4404.70, 26847.93, -14850.74, -535.93, 11812.90, -46475.15, -13046.56, 34172.31, -1381.72, -12271.51, 0.00, 0.00, 0.00, 0.00, 0.04, 0.40, 0.93
15, 5261.89, 57302.05, 4409.19, 26849.07, -14843.88, -536.87, 11811.24, -46471.42, -13046.56, 34172.31, -1381.72, -12271.51, 0.00, 0.00, 0.00, 0.00, 0.00, 0.00, 0.00
16, 5261.89, 57302.05, 4409.19, 26849.07, -14843.88, -536.87, 11811.24, -46471.42, -13052.93, 34140.57, -1398.19, -12236.37, 0.00, 0.00, 0.00, 0.00, 0.00, 0.00, 0.00
17, 5246.13, 57294.94, 4400.59, 26843.17, -14850.92, -538.48, 11805.74, -46477.07, -13052.93, 34140.57, -1398.19, -12236.37, 0.00, 0.00, 0.00, 0.00, 0.00, 0.00, 0.00
18, 5246.13, 57294.94, 4400.59, 26843.17, -14850.92, -538.48, 11805.74, -46477.07, -13041.88, 34177.89, -1378.14, -12272.63, 0.00, 0.00, 0.00, 0.00, 0.00, 0.00, 0.00
19, 5246.51, 57298.52, 4406.29, 26851.53, -14841.87, -531.01, 11816.32, -46465.61, -13041.88, 34177.89, -1378.14, -12272.63, 0.00, 0.00, 0.00, 0.00, 0.00, 0.00, 0.00
20, 5246.51, 57298.52, 4406.29, 26851.53, -14841.87, -531.01, 11816.32, -46465.61, -13054.04, 34129.57, -1399.71, -12245.83, 0.00, 0.00, 0.00, 0.00, 0.00, 0.00, 0.00
21, 5229.86, 57284.99, 4394.87, 26838.48, -14853.65, -545.05, 11800.11, -46486.53, -13054.04, 34129.57, -1399.71, -12245.83, 0.00, 0.00, 0.00, 0.00, 0.00, 0.00, 0.00
22, 5229.86, 57284.99, 4394.87, 26838.48, -14853.65, -545.05, 11800.11, -46486.53, -13054.16, 34147.43, -1381.83, -12292.43, 0.00, 0.00, 0.00, 0.00, 0.00, 0.00, 0.00
23, 5247.65, 57294.47, 4405.84, 26851.06, -14837.40, -533.02, 11815.15, -46472.27, -13054.16, 34147.43, -1381.83, -12292.43, 0.00, 0.00, 0.00, 0.00, 0.00, 0.00, 0.00
24, 5247.65, 57294.47, 4405.84, 26851.06, -14837.40, -533.02, 11815.15, -46472.27, -13048.93, 34139.38, -1388.29, -12250.25, 0.00, 0.00, 0.00, 0.00, 0.04, 0.40, 0.93
25, 5235.23, 57282.56, 4394.64, 26838.16, -14846.21, -545.14, 11800.94, -46481.81, -13048.93, 34139.38, -1388.29, -12250.25, 0.00, 0.00, 0.00, 0.00, 0.00, 0.00, 0.00
26, 5235.23, 57282.56, 4394.64, 26838.16, -14846.21, -545.14, 11800.94, -46481.81, -13048.12, 34167.01, -1383.84, -12266.99, 0.00, 0.00, 0.00, 0.00, 0.00, 0.00, 0.00
27, 5251.56, 57308.11, 4414.36, 26856.92, -14829.47, -530.16, 11820.92, -46462.12, -13048.12, 34167.01, -1383.84, -12266.99, 0.00, 0.00, 0.00, 0.00, 0.00, 0.00, 0.00
28, 5251.56, 57308.11, 4414.36, 26856.92, -14829.47, -530.16, 11820.92, -46462.12, -13047.88, 34135.72, -1382.10, -12250.66, 0.00, 0.00, 0.00, 0.00, 0.00, 0.00, 0.00
29, 5244.34, 57295.68, 4403.96, 26844.87, -14846.52, -541.81, 11801.68, -46483.60, -13047.88, 34135.72, -1382.10, -12250.66, 0.00, 0.00, 0.00, 0.00, 0.00, 0.00, 0.00
30, 5244.34, 57295.68, 4403.96, 26844.87, -14846.52, -541.81, 11801.68, -46483.60, -13050.67, 34150.38, -1381.36, -12283.60, 0.00, 0.00, 0.00, 0.00, 0.00, 0.00, 0.00
31, 5256.48, 57307.17, 4417.04, 26855.53, -14831.25, -530.59, 11818.40, -46463.87, -13050.67, 34150.38, -1381.36, -12283.60, 0.00, 0.00, 0.00, 0.00, 0.00, 0.00, 0.00
32, 5256.48, 57307.17, 4417.04, 26855.53, -14831.25, -530.59, 11818.40, -46463.87, -13047.99, 34142.33, -1380.78, -12251.97, 0.00, 0.00, 0.00, 0.00, 0.00, 0.00, 0.00
33, 5241.26, 57282.51, 4398.38, 26840.04, -14845.25, -544.18, 11794.14, -46486.20, -13047.99, 34142.33, -1380.78, -12251.97, 0.00, 0.00, 0.00, 0.00, 0.04, 0.40, 0.93
34, 5241.26, 57282.51, 4398.38, 26840.04, -14845.25, -544.18, 11794.14, -46486.20, -13053.22, 34143.18, -1385.72, -12280.43, 0.00, 0.00, 0.00, 0.00, 0.00, 0.00, 0.00
35, 5244.75, 57301.36, 4409.37, 26851.22, -14834.45, -531.82, 11817.17, -46465.07, -13053.22, 34143.18, -1385.72, -12280.43, 0.00, 0.00, 0.00, 0.00, 0.00, 0.00, 0.00
36, 5244.75, 57301.36, 4409.37, 26851.22, -14834.45, -531.82, 11817.17, -46465.07, -13044.01, 34148.05, -1377.45, -12254.41, 0.00, 0.00, 0.00, 0.00, 0.00, 0.00, 0.00
37, 5239.07, 57287.65, 4400.23, 26837.87, -14847.24, -543.73, 11800.07, -46477.79, -13044.01, 34148.05, -1377.45, -12254.41, 0.00, 0.00, 0.00, 0.00, 0.00, 0.00, 0.00
38, 5239.07, 57287.65, 4400.23, 26837.87, -14847.24, -543.73, 11800.07, -46477.79, -13056.15, 34135.94, -1386.46, -12285.68, 0.00, 0.00, 0.00, 0.00, 0.00, 0.00, 0.00
39, 5251.32, 57304.15, 4411.36, 26856.98, -14846.09, -530.21, 11813.46, -46474.82, -13056.15, 34135.94, -1386.46, -12285.68, 0.00, 0.00, 0.00, 0.00, 0.00, 0.00, 0.00
40, 5251.32, 57304.15, 4411.36, 26856.98, -14846.09, -530.21, 11813.46, -46474.82, -13050.96, 34142.96, -1379.64, -12269.77, 0.00, 0.00, 0.00, 0.00, 0.00, 0.00, 0.00
41, 5238.78, 57286.89, 4398.26, 26834.05, -14851.33, -547.42, 11791.51, -46483.42, -13050.96, 34142.96, -1379.64, -12269.77, 0.00, 0.00, 0.00, 0.00, 0.00, 0.00, 0.00
42, 5238.78, 57286.89, 4398.26, 26834.05, -14851.33, -547.42, 11791.51, -46483.42, -13049.62, 34132.88, -1388.11, -12281.41, 0.00, 0.00, 0.00, 0.00, 0.00, 0.00, 0.00
43, 5249.60, 57302.65, 4413.53, 26854.75, -14839.01, -533.58, 11815.31, -46463.44, -13049.62, 34132.88, -1388.11, -12281.41, 0.00, 0.00, 0.00, 0.00, 0.04, 0.40, 0.92
44, 5249.60, 57302.65, 4413.53, 26854.75, -14839.01, -533.58, 11815.31, -46463.44, -13045.15, 34140.63, -1377.18, -12285.79, 0.00, 0.00, 0.00, 0.00, 0.00, 0.00, 0.00
45, 5239.03, 57286.16, 4400.39, 26841.79, -14851.21, -544.89, 11792.44, -46485.32, -13045.15, 34140.63, -1377.18, -12285.79, 0.00, 0.00, 0.00, 0.00, 0.00, 0.00, 0.00
46, 5239.03, 57286.16, 4400.39, 26841.79, -14851.21, -544.89, 11792.44, -46485.32, -13049.91, 34141.64, -1387.46, -12265.27, 0.00, 0.00, 0.00, 0.00, 0.00, 0.00, 0.00
47, 5243.27, 57300.98, 4406.87, 26854.57, -14851.97, -536.51, 11808.74, -46470.06, -13049.91, 34141.64, -1387.46, -12265.27, 0.00, 0.00, 0.00, 0.00, 0.00, 0.00, 0.00
48, 5243.27, 57300.98, 4406.87, 26854.57, -14851.97, -536.51, 11808.74, -46470.06, -13049.53, 34145.93, -1380.06, -12285.35, 0.00, 0.00, 0.00, 0.00, 0.00, 0.00, 0.00
49, 5239.16, 57293.87, 4401.55, 26840.96, -14850.77, -544.04, 11791.06, -46482.06, -13049.53, 34145.93, -1380.06, -12285.35, 0.00, 0.00, 0.00, 0.00, 0.00, 0.00, 0.00
50, 5239.16, 57293.87, 4401.55, 26840.96, -14850.77, -544.04, 11791.06, -46482.06, -13044.52, 34134.11, -1387.08, -12268.40, 0.00, 0.00, 0.00, 0.00, 0.00, 0.00, 0.00
51, 5264.51, 57314.27, 4419.90, 26862.28, -14839.28, -530.09, 11810.42, -46465.83, -13044.52, 34134.11, -1387.08, -12268.40, 0.00, 0.00, 0.00, 0.00, 0.00, 0.00, 0.00
52, 5264.51, 57314.27, 4419.90, 26862.28, -14839.28, -530.09, 11810.42, -46465.83, -13046.56, 34159.07, -1365.45, -12280.74, 0.00, 0.00, 0.00, 0.00, 0.00, 0.00, 0.00
53, 5242.62, 57294.56, 4407.34, 26845.32, -14851.37, -540.91, 11796.07, -46478.82, -13046.56, 34159.07, -1365.45, -12280.74, 0.00, 0.00, 0.00, 0.00, 0.04, 0.40, 0.93
54, 5242.62, 57294.56, 4407.34, 26845.32, -14851.37, -540.91, 11796.07, -46478.82, -13047.05, 34127.13, -1387.02, -12265.38, 0.00, 0.00, 0.00, 0.00, 0.00, 0.00, 0.00
55, 5253.73, 57308.17, 4415.30, 26856.87, -14842.07, -533.09, 11806.33, -46465.65, -13047.05, 34127.13, -1387.02, -12265.38, 0.00, 0.00, 0.00, 0.00, 0.00, 0.00, 0.00
56, 5253.73, 57308.17, 4415.30, 26856.87, -14842.07, -533.09, 11806.33, -46465.65, -13037.86, 34169.58, -1365.69, -12279.00, 0.00, 0.00, 0.00, 0.00, 0.00, 0.00, 0.00
57, 5243.36, 57294.63, 4402.82, 26843.51, -14848.38, -543.01, 11793.47, -46475.38, -13037.86, 34169.58, -1365.69, -12279.00, 0.00, 0.00, 0.00, 0.00, 0.00, 0.00, 0.00
58, 5243.36, 57294.63, 4402.82, 26843.51, -14848.38, -543.01, 11793.47, -46475.38, -13043.99, 34132.36, -1388.80, -12257.36, 0.00, 0.00, 0.00, 0.00, 0.00, 0.00, 0.00
59, 5255.12, 57303.75, 4412.61, 26856.18, -14843.26, -533.00, 11806.68, -46463.08, -13043.99, 34132.36, -1388.80, -12257.36, 0.00, 0.00, 0.00, 0.00, 0.00, 0.00, 0.00
60, 5255.12, 57303.75, 4412.61, 26856.18, -14843.26, -533.00, 11806.68, -46463.08, -13033.95, 34165.67, -1366.76, -12288.43, 0.00, 0.00, 0.00, 0.00, 0.00, 0.00, 0.00
61, 5244.37, 57295.21, 4404.66, 26843.86, -14850.10, -542.83, 11797.12, -46469.86, -13033.95, 34165.67, -1366.76, -12288.43, 0.00, 0.00, 0.00, 0.00, 0.00, 0.00, 0.00
62, 5244.37, 57295.21, 4404.66, 26843.86, -14850.10, -542.83, 11797.12, -46469.86, -13040.12, 34137.55, -1389.76, -12249.69, 0.00, 0.00, 0.00, 0.00, 0.00, 0.00, 0.00
63, 5241.13, 57294.11, 4401.26, 26847.39, -14850.41, -542.30, 11793.18, -46472.36, -13040.12, 34137.55, -1389.76, -12249.69, 0.00, 0.00, 0.00, 0.00, 0.04, 0.40, 0.93
64, 5241.13, 57294.11, 4401.26, 26847.39, -14850.41, -542.30, 11793.18, -46472.36, -13039.63, 34158.00, -1375.73, -12295.00, 0.00, 0.00, 0.00, 0.00, 0.00, 0.00, 0.00
65, 5247.61, 57301.46, 4406.89, 26845.40, -14847.84, -540.71, 11794.97, -46468.98, -13039.63, 34158.00, -1375.73, -12295.00, 0.00, 0.00, 0.00, 0.00, 0.00, 0.00, 0.00
66, 5247.61, 57301.46, 4406.89, 26845.40, -14847.84, -540.71, 11794.97, -46468.98, -13031.22, 34141.66, -1381.54, -12264.22, 0.00, 0.00, 0.00, 0.00, 0.00, 0.00, 0.00
67, 5237.71, 57293.80, 4400.54, 26843.75, -14848.98, -543.13, 11796.29, -46464.63, -13031.22, 34141.66, -1381.54, -12264.22, 0.00, 0.00, 0.00, 0.00, 0.00, 0.00, 0.00
68, 5237.71, 57293.80, 4400.54, 26843.75, -14848.98, -543.13, 11796.29, -46464.63, -13030.15, 34172.33, -1370.52, -12278.10, 0.00, 0.00, 0.00, 0.00, 0.00, 0.00, 0.00
69, 5242.51, 57296.17, 4402.65, 26843.75, -14849.13, -543.53, 11794.79, -46470.21, -13030.15, 34172.33, -1370.52, -12278.10, 0.00, 0.00, 0.00, 0.00, 0.00, 0.00, 0.00
70, 5242.51, 57296.17, 4402.65, 26843.75, -14849.13, -543.53, 11794.79, -46470.21, -13042.85, 34134.02, -1390.12, -12255.21, 0.00, 0.00, 0.00, 0.00, 0.00, 0.00, 0.00
71, 5238.33, 57289.40, 4397.93, 26836.11, -14856.29, -549.70, 11787.42, -46475.45, -13042.85, 34134.02, -1390.12, -12255.21, 0.00, 0.00, 0.00, 0.00, 0.00, 0.00, 0.00
72, 5238.33, 57289.40, 4397.93, 26836.11, -14856.29, -549.70, 11787.42, -46475.45, -13032.90, 34168.69, -1371.28, -12273.88, 0.00, 0.00, 0.00, 0.00, 0.03, 0.40, 0.93
73, 5251.63, 57310.81, 4414.98, 26851.08, -14843.44, -539.53, 11803.58, -46456.85, -13032.90, 34168.69, -1371.28, -12273.88, 0.00, 0.00, 0.00, 0.00, 0.00, 0.00, 0.00
74, 5251.63, 57310.81, 4414.98, 26851.08, -14843.44, -539.53, 11803.58, -46456.85, -13028.25, 34141.75, -1378.43, -12250.37, 0.00, 0.00, 0.00, 0.00, 0.00, 0.00, 0.00
75, 5244.86, 57294.65, 4401.15, 26838.03, -14854.72, -548.27, 11788.62, -46470.57, -13028.25, 34141.75, -1378.43, -12250.37, 0.00, 0.00, 0.00, 0.00, 0.00, 0.00, 0.00
76, 5244.86, 57294.65, 4401.15, 26838.03, -14854.72, -548.27, 11788.62, -46470.57, -13035.92, 34165.96, -1375.64, -12271.35, 0.00, 0.00, 0.00, 0.00, 0.00, 0.00, 0.00
77, 5256.93, 57306.56, 4410.00, 26853.88, -14843.44, -535.64, 11800.87, -46458.79, -13035.92, 34165.96, -1375.64, -12271.35, 0.00, 0.00, 0.00, 0.00, 0.00, 0.00, 0.00
78, 5256.93, 57306.56, 4410.00, 26853.88, -14843.44, -535.64, 11800.87, -46458.79, -13037.57, 34142.09, -1380.80, -12254.17, 0.00, 0.00, 0.00, 0.00, 0.00, 0.00, 0.00
79, 5249.73, 57300.75, 4403.63, 26838.90, -14854.39, -547.71, 11789.70, -46468.74, -13037.57, 34142.09, -1380.80, -12254.17, 0.00, 0.00, 0.00, 0.00, 0.00, 0.00, 0.00
80, 5249.73, 57300.75, 4403.63, 26838.90, -14854.39, -547.71, 11789.70, -46468.74, -13026.60, 34170.30, -1370.54, -12263.33, 0.00, 0.00, 0.00, 0.00, 0.00, 0.00, 0.00
81, 5258.65, 57315.59, 4416.50, 26858.79, -14843.19, -529.92, 11808.07, -46454.48, -13026.60, 34170.30, -1370.54, -12263.33, 0.00, 0.00, 0.00, 0.00, 0.00, 0.00, 0.00
82, 5258.65, 57315.59, 4416.50, 26858.79, -14843.19, -529.92, 11808.07, -46454.48, -13037.10, 34142.82, -1376.53, -12253.18, 0.00, 0.00, 0.00, 0.00, 0.04, 0.40, 0.94
83, 5240.93, 57289.29, 4395.83, 26833.40, -14860.91, -555.57, 11776.08, -46484.61, -13037.10, 34142.82, -1376.53, -12253.18, 0.00, 0.00, 0.00, 0.00, 0.00, 0.00, 0.00
84, 5240.93, 57289.29, 4395.83, 26833.40, -14860.91, -555.57, 11776.08, -46484.61, -13035.45, 34156.55, -1378.23, -12262.05, 0.00, 0.00, 0.00, 0.00, 0.00, 0.00, 0.00
85, 5252.59, 57310.14, 4413.53, 26856.45, -14843.52, -532.64, 11804.51, -46457.90, -13035.45, 34156.55, -1378.23, -12262.05, 0.00, 0.00, 0.00, 0.00, 0.00, 0.00, 0.00
86, 5252.59, 57310.14, 4413.53, 26856.45, -14843.52, -532.64, 11804.51, -46457.90, -13029.68, 34159.30, -1369.76, -12241.18, 0.00, 0.00, 0.00, 0.00, 0.00, 0.00, 0.00
87, 5240.28, 57292.08, 4400.92, 26840.96, -14855.95, -547.13, 11783.46, -46481.48, -13029.68, 34159.30, -1369.76, -12241.18, 0.00, 0.00, 0.00, 0.00, 0.00, 0.00, 0.00
88, 5240.28, 57292.08, 4400.92, 26840.96, -14855.95, -547.13, 11783.46, -46481.48, -13027.65, 34153.00, -1372.29, -12262.50, 0.00, 0.00, 0.00, 0.00, 0.00, 0.00, 0.00
89, 5254.52, 57306.20, 4408.90, 26855.49, -14841.27, -533.69, 11801.03, -46457.00, -13027.65, 34153.00, -1372.29, -12262.50, 0.00, 0.00, 0.00, 0.00, 0.00, 0.00, 0.00
90, 5254.52, 57306.20, 4408.90, 26855.49, -14841.27, -533.69, 11801.03, -46457.00, -13025.46, 34169.36, -1372.35, -12240.80, 0.00, 0.00, 0.00, 0.00, 0.00, 0.00, 0.00
91, 5242.56, 57290.02, 4397.19, 26839.19, -14851.57, -548.22, 11783.53, -46476.52, -13025.46, 34169.36, -1372.35, -12240.80, 0.00, 0.00, 0.00, 0.00, 0.00, 0.00, 0.00
92, 5242.56, 57290.02, 4397.19, 26839.19, -14851.57, -548.22, 11783.53, -46476.52, -13035.96, 34146.00, -1389.74, -12258.05, 0.00, 0.00, 0.00, 0.00, 0.04, 0.40, 0.94
93, 5238.04, 57290.56, 4393.62, 26845.20, -14857.54, -544.29, 11789.72, -46476.11, -13035.96, 34146.00, -1389.74, -12258.05, 0.00, 0.00, 0.00, 0.00, 0.00, 0.00, 0.00
94, 5238.04, 57290.56, 4393.62, 26845.20, -14857.54, -544.29, 11789.72, -46476.11, -13041.28, 34152.59, -1382.72, -12262.59, 0.00, 0.00, 0.00, 0.00, 0.00, 0.00, 0.00
95, 5225.97, 57275.36, 4381.88, 26827.28, -14869.39, -558.68, 11767.75, -46494.55, -13041.28, 34152.59, -1382.72, -12262.59, 0.00, 0.00, 0.00, 0.00, 0.00, 0.00, 0.00
96, 5225.97, 57275.36, 4381.88, 26827.28, -14869.39, -558.68, 11767.75, -46494.55, -13042.69, 34132.39, -1394.03, -12255.08, 0.00, 0.00, 0.00, 0.00, 0.00, 0.00, 0.00
97, 5233.21, 57291.07, 4394.89, 26840.78, -14858.25, -547.10, 11781.94, -46479.07, -13042.69, 34132.39, -1394.03, -12255.08, 0.00, 0.00, 0.00, 0.00, 0.00, 0.00, 0.00
98, 5233.21, 57291.07, 4394.89, 26840.78, -14858.25, -547.10, 11781.94, -46479.07, -13034.49, 34154.43, -1376.69, -12267.08, 0.00, 0.00, 0.00, 0.00, 0.00, 0.00, 0.00
99, 5225.75, 57279.52, 4385.30, 26824.62, -14864.69, -560.20, 11767.61, -46494.40, -13034.49, 34154.43, -1376.69, -12267.08, 0.00, 0.00, 0.00, 0.00, 0.00, 0.00, 0.00
100, 5225.75, 57279.52, 4385.30, 26824.62, -14864.69, -560.20, 11767.61, -46494.40, -13042.20, 34127.83, -1397.72, -12256.80, 0.00, 0.00, 0.00, 0.00, 0.00, 0.00, 0.00
101, 5236.72, 57285.69, 4391.38, 26838.52, -14863.13, -550.68, 11782.12, -46481.52, -13042.20, 34127.83, -1397.72, -12256.80, 0.00, 0.00, 0.00, 0.00, 0.00, 0.00, 0.00
102, 5236.72, 57285.69, 4391.38, 26838.52, -14863.13, -550.68, 11782.12, -46481.52, -13037.53, 34152.57, -1377.45, -12269.54, 0.00, 0.00, 0.00, 0.00, 0.04, 0.40, 0.93
103, 5223.80, 57278.24, 4385.59, 26825.04, -14864.42, -558.06, 11766.76, -46493.32, -13037.53, 34152.57, -1377.45, -12269.54, 0.00, 0.00, 0.00, 0.00, 0.00, 0.00, 0.00
104, 5223.80, 57278.24, 4385.59, 26825.04, -14864.42, -558.06, 11766.76, -46493.32, -13038.58, 34131.00, -1394.30, -12255.75, 0.00, 0.00, 0.00, 0.00, 0.00, 0.00, 0.00
105, 5229.50, 57288.97, 4391.31, 26833.65, -14861.83, -553.23, 11776.84, -46482.35, -13038.58, 34131.00, -1394.30, -12255.75, 0.00, 0.00, 0.00, 0.00, 0.00, 0.00, 0.00
106, 5229.50, 57288.97, 4391.31, 26833.65, -14861.83, -553.23, 11776.84, -46482.35, -13038.87, 34153.53, -1381.47, -12274.48, 0.00, 0.00, 0.00, 0.00, 0.00, 0.00, 0.00
107, 5226.33, 57282.51, 4385.50, 26825.02, -14866.52, -557.63, 11767.70, -46491.94, -13038.87, 34153.53, -1381.47, -12274.48, 0.00, 0.00, 0.00, 0.00, 0.00, 0.00, 0.00
108, 5226.33, 57282.51, 4385.50, 26825.02, -14866.52, -557.63, 11767.70, -46491.94, -13041.95, 34120.79, -1393.18, -12252.31, 0.00, 0.00, 0.00, 0.00, 0.00, 0.00, 0.00
109, 5234.04, 57295.52, 4395.52, 26835.30, -14864.45, -555.26, 11775.10, -46490.49, -13041.95, 34120.79, -1393.18, -12252.31, 0.00, 0.00, 0.00, 0.00, 0.00, 0.00, 0.00
110, 5234.04, 57295.52, 4395.52, 26835.30, -14864.45, -555.26, 11775.10, -46490.49, -13033.35, 34156.19, -1365.18, -12276.32, 0.00, 0.00, 0.00, 0.00, 0.00, 0.00, 0.00
111, 5236.32, 57295.90, 4398.13, 26835.82, -14855.59, -551.33, 11775.86, -46486.22, -13033.35, 34156.19, -1365.18, -12276.32, 0.00, 0.00, 0.00, 0.00, 0.00, 0.00, 0.00
112, 5236.32, 57295.90, 4398.13, 26835.82, -14855.59, -551.33, 11775.86, -46486.22, -13036.57, 34132.18, -1391.17, -12248.89, 0.00, 0.00, 0.00, 0.00, 0.04, 0.40, 0.93
113, 5223.04, 57285.35, 4389.19, 26831.08, -14862.81, -554.86, 11771.68, -46486.73, -13036.57, 34132.18, -1391.17, -12248.89, 0.00, 0.00, 0.00, 0.00, 0.00, 0.00, 0.00
114, 5223.04, 57285.35, 4389.19, 26831.08, -14862.81, -554.86, 11771.68, -46486.73, -13036.45, 34157.18, -1375.86, -12271.31, 0.00, 0.00, 0.00, 0.00, 0.00, 0.00, 0.00
115, 5229.57, 57290.49, 4395.31, 26837.22, -14856.94, -547.89, 11775.64, -46482.73, -13036.45, 34157.18, -1375.86, -12271.31, 0.00, 0.00, 0.00, 0.00, 0.00, 0.00, 0.00
116, 5229.57, 57290.49, 4395.31, 26837.22, -14856.94, -547.89, 11775.64, -46482.73, -13028.52, 34138.85, -1389.12, -12232.21, 0.00, 0.00, 0.00, 0.00, 0.00, 0.00, 0.00
117, 5219.13, 57280.07, 4386.17, 26830.29, -14867.28, -555.02, 11772.80, -46489.44, -13028.52, 34138.85, -1389.12, -12232.21, 0.00, 0.00, 0.00, 0.00, 0.00, 0.00, 0.00
118, 5219.13, 57280.07, 4386.17, 26830.29, -14867.28, -555.02, 11772.80, -46489.44, -13036.90, 34149.93, -1376.44, -12292.21, 0.00, 0.00, 0.00, 0.00, 0.00, 0.00, 0.00
119, 5225.55, 57286.78, 4393.39, 26836.78, -14859.17, -551.04, 11777.54, -46483.82, -13036.90, 34149.93, -1376.44, -12292.21, 0.00, 0.00, 0.00, 0.00, 0.00, 0.00, 0.00
120, 5225.55, 57286.78, 4393.39, 26836.78, -14859.17, -551.04, 11777.54, -46483.82, -13037.86, 34129.70, -1388.09, -12226.65, 0.00, 0.00, 0.00, 0.00, 0.00, 0.00, 0.00
121, 5217.50, 57278.45, 4383.45, 26827.46, -14866.48, -558.10, 11768.10, -46491.63, -13037.86, 34129.70, -1388.09, -12226.65, 0.00, 0.00, 0.00, 0.00, 0.04, 0.40, 0.94
122, 5217.50, 57278.45, 4383.45, 26827.46, -14866.48, -558.10, 11768.10, -46491.63, -13026.44, 34163.52, -1373.47, -12264.38, 0.00, 0.00, 0.00, 0.00, 0.00, 0.00, 0.00
123, 5224.68, 57285.57, 4390.80, 26835.66, -14859.51, -549.50, 11779.55, -46480.36, -13026.44, 34163.52, -1373.47, -12264.38, 0.00, 0.00, 0.00, 0.00, 0.00, 0.00, 0.00
124, 5224.68, 57285.57, 4390.80, 26835.66, -14859.51, -549.50, 11779.55, -46480.36, -13033.75, 34137.44, -1383.95, -12243.50, 0.00, 0.00, 0.00, 0.00, 0.00, 0.00, 0.00
125, 5218.35, 57277.53, 4382.04, 26822.14, -14869.99, -561.07, 11763.59, -46493.37, -13033.75, 34137.44, -1383.95, -12243.50, 0.00, 0.00, 0.00, 0.00, 0.00, 0.00, 0.00
126, 5218.35, 57277.53, 4382.04, 26822.14, -14869.99, -561.07, 11763.59, -46493.37, -13025.79, 34148.08, -1372.20, -12269.81, 0.00, 0.00, 0.00, 0.00, 0.00, 0.00, 0.00
127, 5229.73, 57293.96, 4394.33, 26836.73, -14856.22, -552.83, 11777.45, -46482.17, -13025.79, 34148.08, -1372.20, -12269.81, 0.00, 0.00, 0.00, 0.00, 0.00, 0.00, 0.00
128, 5229.73, 57293.96, 4394.33, 26836.73, -14856.22, -552.83, 11777.45, -46482.17, -13034.04, 34132.36, -1383.37, -12241.42, 0.00, 0.00, 0.00, 0.00, 0.00, 0.00, 0.00
129, 5222.73, 57277.95, 4383.27, 26823.37, -14864.04, -558.55, 11763.97, -46492.14, -13034.04, 34132.36, -1383.37, -12241.42, 0.00, 0.00, 0.00, 0.00, 0.00, 0.00, 0.00
130, 5222.73, 57277.95, 4383.27, 26823.37, -14864.04, -558.55, 11763.97, -46492.14, -13026.86, 34157.18, -1374.14, -12261.07, 0.00, 0.00, 0.00, 0.00, 0.00, 0.00, 0.00
131, 5237.35, 57303.84, 4399.65, 26841.27, -14859.15, -548.00, 11781.40, -46476.99, -13026.86, 34157.18, -1374.14, -12261.07, 0.00, 0.00, 0.00, 0.00, 0.04, 0.40, 0.93
132, 5237.35, 57303.84, 4399.65, 26841.27, -14859.15, -548.00, 11781.40, -46476.99, -13029.77, 34144.10, -1372.84, -12255.30, 0.00, 0.00, 0.00, 0.00, 0.00, 0.00, 0.00
133, 5221.61, 57282.76, 4384.14, 26823.25, -14869.50, -560.85, 11760.21, -46494.13, -13029.77, 34144.10, -1372.84, -12255.30, 0.00, 0.00, 0.00, 0.00, 0.00, 0.00, 0.00
134, 5221.61, 57282.76, 4384.14, 26823.25, -14869.50, -560.85, 11760.21, -46494.13, -13037.15, 34143.90, -1382.16, -12252.56, 0.00, 0.00, 0.00, 0.00, 0.00, 0.00, 0.00
135, 5228.25, 57297.82, 4397.75, 26838.07, -14860.20, -553.07, 11775.57, -46484.68, -13037.15, 34143.90, -1382.16, -12252.56, 0.00, 0.00, 0.00, 0.00, 0.00, 0.00, 0.00
136, 5228.25, 57297.82, 4397.75, 26838.07, -14860.20, -553.07, 11775.57, -46484.68, -13036.97, 34132.30, -1373.96, -12255.68, 0.00, 0.00, 0.00, 0.00, 0.00, 0.00, 0.00
137, 5232.63, 57296.50, 4396.50, 26827.52, -14866.73, -556.74, 11765.73, -46495.43, -13036.97, 34132.30, -1373.96, -12255.68, 0.00, 0.00, 0.00, 0.00, 0.00, 0.00, 0.00
138, 5232.63, 57296.50, 4396.50, 26827.52, -14866.73, -556.74, 11765.73, -46495.43, -13030.17, 34139.76, -1369.49, -12248.49, 0.00, 0.00, 0.00, 0.00, 0.00, 0.00, 0.00
139, 5243.50, 57307.03, 4409.35, 26852.00, -14847.73, -541.61, 11784.55, -46475.67, -13030.17, 34139.76, -1369.49, -12248.49, 0.00, 0.00, 0.00, 0.00, 0.00, 0.00, 0.00
140, 5243.50, 57307.03, 4409.35, 26852.00, -14847.73, -541.61, 11784.55, -46475.67, -13027.96, 34150.13, -1367.17, -12248.04, 0.00, 0.00, 0.00, 0.00, 0.00, 0.00, 0.00
141, 5222.13, 57281.13, 4388.05, 26824.08, -14865.65, -561.77, 11760.77, -46492.90, -13027.96, 34150.13, -1367.17, -12248.04, 0.00, 0.00, 0.00, 0.00, 0.04, 0.40, 0.93
142, 5222.13, 57281.13, 4388.05, 26824.08, -14865.65, -561.77, 11760.77, -46492.90, -13035.34, 34144.23, -1381.29, -12248.84, 0.00, 0.00, 0.00, 0.00, 0.00, 0.00, 0.00
143, 5233.68, 57305.42, 4404.97, 26847.73, -14853.96, -543.73, 11784.55, -46474.80, -13035.34, 34144.23, -1381.29, -12248.84, 0.00, 0.00, 0.00, 0.00, 0.00, 0.00, 0.00
144, 5233.68, 57305.42, 4404.97, 26847.73, -14853.96, -543.73, 11784.55, -46474.80, -13029.19, 34151.72, -1364.78, -12264.54, 0.00, 0.00, 0.00, 0.00, 0.00, 0.00, 0.00
145, 5223.24, 57283.47, 4392.01, 26833.98, -14863.42, -554.41, 11765.13, -46495.32, -13029.19, 34151.72, -1364.78, -12264.54, 0.00, 0.00, 0.00, 0.00, 0.00, 0.00, 0.00
146, 5223.24, 57283.47, 4392.01, 26833.98, -14863.42, -554.41, 11765.13, -46495.32, -13036.77, 34125.52, -1378.16, -12239.19, 0.00, 0.00, 0.00, 0.00, 0.00, 0.00, 0.00
147, 5237.35, 57301.22, 4404.86, 26849.50, -14854.72, -544.29, 11784.35, -46475.11, -13036.77, 34125.52, -1378.16, -12239.19, 0.00, 0.00, 0.00, 0.00, 0.00, 0.00, 0.00
148, 5237.35, 57301.22, 4404.86, 26849.50, -14854.72, -544.29, 11784.35, -46475.11, -13028.79, 34155.25, -1366.16, -12260.40, 0.00, 0.00, 0.00, 0.00, 0.00, 0.00, 0.00
149, 5224.79, 57281.42, 4391.54, 26833.13, -14865.94, -553.61, 11764.77, -46491.18, -13028.79, 34155.25, -1366.16, -12260.40, 0.00, 0.00, 0.00, 0.00, 0.00, 0.00, 0.00
150, 5224.79, 57281.42, 4391.54, 26833.13, -14865.94, -553.61, 11764.77, -46491.18, -13040.01, 34121.70, -1389.63, -12265.74, 0.00, 0.00, 0.00, 0.00, 0.00, 0.00, 0.00
151, 5229.46, 57289.80, 4398.62, 26844.71, -14860.71, -547.17, 11769.67, -46485.08, -13040.01, 34121.70, -1389.63, -12265.74, 0.00, 0.00, 0.00, 0.00, 0.03, 0.40, 0.93
152, 5229.46, 57289.80, 4398.62, 26844.71, -14860.71, -547.17, 11769.67, -46485.08, -13036.30, 34149.73, -1363.21, -12257.74, 0.00, 0.00, 0.00, 0.00, 0.00, 0.00, 0.00
153, 5234.64, 57291.14, 4401.13, 26844.02, -14852.80, -545.14, 11768.89, -46485.26, -13036.30, 34149.73, -1363.21, -12257.74, 0.00, 0.00, 0.00, 0.00, 0.00, 0.00, 0.00
154, 5234.64, 57291.14, 4401.13, 26844.02, -14852.80, -545.14, 11768.89, -46485.26, -13042.18, 34122.26, -1384.76, -12237.29, 0.00, 0.00, 0.00, 0.00, 0.00, 0.00, 0.00
155, 5231.94, 57293.09, 4394.33, 26836.13, -14870.59, -554.21, 11764.13, -46493.08, -13042.18, 34122.26, -1384.76, -12237.29, 0.00, 0.00, 0.00, 0.00, 0.00, 0.00, 0.00
156, 5231.94, 57293.09, 4394.33, 26836.13, -14870.59, -554.21, 11764.13, -46493.08, -13041.91, 34146.16, -1367.28, -12287.83, 0.00, 0.00, 0.00, 0.00, 0.00, 0.00, 0.00
157, 5242.51, 57299.79, 4403.00, 26841.81, -14859.13, -550.81, 11764.62, -46491.38, -13041.91, 34146.16, -1367.28, -12287.83, 0.00, 0.00, 0.00, 0.00, 0.00, 0.00, 0.00
158, 5242.51, 57299.79, 4403.00, 26841.81, -14859.13, -550.81, 11764.62, -46491.38, -13038.20, 34119.58, -1377.38, -12232.15, 0.00, 0.00, 0.00, 0.00, 0.00, 0.00, 0.00
159, 5233.04, 57292.44, 4404.99, 26846.81, -14858.72, -546.46, 11770.85, -46487.38, -13038.20, 34119.58, -1377.38, -12232.15, 0.00, 0.00, 0.00, 0.00, 0.00, 0.00, 0.00
160, 5233.04, 57292.44, 4404.99, 26846.81, -14858.72, -546.46, 11770.85, -46487.38, -13032.05, 34150.18, -1352.44, -12273.48, 0.00, 0.00, 0.00, 0.00, 0.04, 0.40, 0.92
161, 5238.29, 57303.05, 4413.66, 26851.15, -14847.55, -537.85, 11777.33, -46478.04, -13032.05, 34150.18, -1352.44, -12273.48, 0.00, 0.00, 0.00, 0.00, 0.00, 0.00, 0.00
162, 5238.29, 57303.05, 4413.66, 26851.15, -14847.55, -537.85, 11777.33, -46478.04, -13030.15, 34128.14, -1369.78, -12245.22, 0.00, 0.00, 0.00, 0.00, 0.00, 0.00, 0.00
163, 5237.28, 57299.90, 4407.41, 26844.80, -14856.62, -548.80, 11767.34, -46489.57, -13030.15, 34128.14, -1369.78, -12245.22, 0.00, 0.00, 0.00, 0.00, 0.00, 0.00, 0.00
164, 5237.28, 57299.90, 4407.41, 26844.80, -14856.62, -548.80, 11767.34, -46489.57, -13030.80, 34150.49, -1349.91, -12267.33, 0.00, 0.00, 0.00, 0.00, 0.00, 0.00, 0.00
165, 5237.73, 57304.53, 4412.95, 26849.25, -14850.32, -542.77, 11772.98, -46482.75, -13030.80, 34150.49, -1349.91, -12267.33, 0.00, 0.00, 0.00, 0.00, 0.00, 0.00, 0.00
166, 5237.73, 57304.53, 4412.95, 26849.25, -14850.32, -542.77, 11772.98, -46482.75, -13034.62, 34129.19, -1364.82, -12231.39, 0.00, 0.00, 0.00, 0.00, 0.00, 0.00, 0.00
167, 5242.87, 57309.02, 4418.25, 26848.65, -14846.81, -543.15, 11774.07, -46482.71, -13034.62, 34129.19, -1364.82, -12231.39, 0.00, 0.00, 0.00, 0.00, 0.00, 0.00, 0.00
168, 5242.87, 57309.02, 4418.25, 26848.65, -14846.81, -543.15, 11774.07, -46482.71, -13029.10, 34149.35, -1343.83, -12282.95, 0.00, 0.00, 0.00, 0.00, 0.00, 0.00, 0.00
169, 5248.26, 57320.67, 4424.82, 26857.14, -14841.58, -535.06, 11785.20, -46475.49, -13029.10, 34149.35, -1343.83, -12282.95, 0.00, 0.00, 0.00, 0.00, 0.00, 0.00, 0.00
170, 5248.26, 57320.67, 4424.82, 26857.14, -14841.58, -535.06, 11785.20, -46475.49, -13041.48, 34118.77, -1369.04, -12240.98, 0.00, 0.00, 0.00, 0.00, 0.04, 0.40, 0.93
171, 5233.06, 57292.44, 4402.47, 26834.74, -14861.32, -555.78, 11760.24, -46497.55, -13041.48, 34118.77, -1369.04, -12240.98, 0.00, 0.00, 0.00, 0.00, 0.00, 0.00, 0.00
172, 5233.06, 57292.44, 4402.47, 26834.74, -14861.32, -555.78, 11760.24, -46497.55, -13035.07, 34148.28, -1357.62, -12267.46, 0.00, 0.00, 0.00, 0.00, 0.00, 0.00, 0.00
173, 5253.17, 57320.51, 4419.59, 26856.63, -14849.05, -535.55, 11779.32, -46476.36, -13035.07, 34148.28, -1357.62, -12267.46, 0.00, 0.00, 0.00, 0.00, 0.00, 0.00, 0.00
174, 5253.17, 57320.51, 4419.59, 26856.63, -14849.05, -535.55, 11779.32, -46476.36, -13045.48, 34123.18, -1370.65, -12260.36, 0.00, 0.00, 0.00, 0.00, 0.00, 0.00, 0.00
175, 5234.20, 57290.22, 4400.97, 26833.42, -14865.41, -556.56, 11758.56, -46501.46, -13045.48, 34123.18, -1370.65, -12260.36, 0.00, 0.00, 0.00, 0.00, 0.00, 0.00, 0.00
176, 5234.20, 57290.22, 4400.97, 26833.42, -14865.41, -556.56, 11758.56, -46501.46, -13039.22, 34136.61, -1361.58, -12270.24, 0.00, 0.00, 0.00, 0.00, 0.00, 0.00, 0.00
177, 5246.47, 57305.51, 4414.13, 26855.04, -14847.53, -536.17, 11777.40, -46478.13, -13039.22, 34136.61, -1361.58, -12270.24, 0.00, 0.00, 0.00, 0.00, 0.00, 0.00, 0.00
178, 5246.47, 57305.51, 4414.13, 26855.04, -14847.53, -536.17, 11777.40, -46478.13, -13032.79, 34134.55, -1361.56, -12237.92, 0.00, 0.00, 0.00, 0.00, 0.00, 0.00, 0.00
179, 5229.26, 57285.51, 4396.05, 26831.37, -14865.81, -555.78, 11755.01, -46500.10, -13032.79, 34134.55, -1361.56, -12237.92, 0.00, 0.00, 0.00, 0.00, 0.00, 0.00, 0.00
180, 5229.26, 57285.51, 4396.05, 26831.37, -14865.81, -555.78, 11755.01, -46500.10, -13043.18, 34130.09, -1373.13, -12276.76, 0.00, 0.00, 0.00, 0.00, 0.03, 0.40, 0.93
181, 5240.21, 57310.25, 4411.07, 26854.73, -14856.06, -537.60, 11774.41, -46483.98, -13043.18, 34130.09, -1373.13, -12276.76, 0.00, 0.00, 0.00, 0.00, 0.00, 0.00, 0.00
182, 5240.21, 57310.25, 4411.07, 26854.73, -14856.06, -537.60, 11774.41, -46483.98, -13042.38, 34130.22, -1368.64, -12247.88, 0.00, 0.00, 0.00, 0.00, 0.00, 0.00, 0.00
183, 5230.89, 57289.15, 4398.51, 26835.06, -14867.75, -552.71, 11755.21, -46502.64, -13042.38, 34130.22, -1368.64, -12247.88, 0.00, 0.00, 0.00, 0.00, 0.00, 0.00, 0.00
184, 5230.89, 57289.15, 4398.51, 26835.06, -14867.75, -552.71, 11755.21, -46502.64, -13041.68, 34124.63, -1375.59, -12269.61, 0.00, 0.00, 0.00, 0.00, 0.00, 0.00, 0.00
185, 5240.75, 57308.26, 4405.75, 26847.06, -14857.70, -544.94, 11769.60, -46485.93, -13041.68, 34124.63, -1375.59, -12269.61, 0.00, 0.00, 0.00, 0.00, 0.00, 0.00, 0.00
186, 5240.75, 57308.26, 4405.75, 26847.06, -14857.70, -544.94, 11769.60, -46485.93, -13038.98, 34134.76, -1366.16, -12271.80, 0.00, 0.00, 0.00, 0.00, 0.00, 0.00, 0.00
187, 5229.35, 57290.29, 4396.74, 26833.60, -14870.15, -552.85, 11757.11, -46500.16, -13038.98, 34134.76, -1366.16, -12271.80, 0.00, 0.00, 0.00, 0.00, 0.00, 0.00, 0.00
188, 5229.35, 57290.29, 4396.74, 26833.60, -14870.15, -552.85, 11757.11, -46500.16, -13036.30, 34126.38, -1375.46, -12259.93, 0.00, 0.00, 0.00, 0.00, 0.00, 0.00, 0.00
189, 5236.68, 57302.20, 4404.81, 26849.52, -14855.97, -541.52, 11768.64, -46484.32, -13036.30, 34126.38, -1375.46, -12259.93, 0.00, 0.00, 0.00, 0.00, 0.00, 0.00, 0.00
190, 5236.68, 57302.20, 4404.81, 26849.52, -14855.97, -541.52, 11768.64, -46484.32, -13039.36, 34132.32, -1367.32, -12269.88, 0.00, 0.00, 0.00, 0.00, 0.03, 0.41, 0.94
191, 5232.54, 57288.32, 4395.14, 26830.01, -14867.62, -554.39, 11749.95, -46498.64, -13039.36, 34132.32, -1367.32, -12269.88, 0.00, 0.00, 0.00, 0.00, 0.00, 0.00, 0.00
192, 5232.54, 57288.32, 4395.14, 26830.01, -14867.62, -554.39, 11749.95, -46498.64, -13031.96, 34125.68, -1375.26, -12241.74, 0.00, 0.00, 0.00, 0.00, 0.00, 0.00, 0.00
193, 5246.09, 57310.95, 4413.06, 26851.35, -14851.97, -540.51, 11773.60, -46480.00, -13031.96, 34125.68, -1375.26, -12241.74, 0.00, 0.00, 0.00, 0.00, 0.00, 0.00, 0.00
194, 5246.09, 57310.95, 4413.06, 26851.35, -14851.97, -540.51, 11773.60, -46480.00, -13041.01, 34138.02, -1360.95, -12276.94, 0.00, 0.00, 0.00, 0.00, 0.00, 0.00, 0.00
195, 5231.18, 57293.58, 4397.93, 26833.69, -14866.68, -552.67, 11753.13, -46501.86, -13041.01, 34138.02, -1360.95, -12276.94, 0.00, 0.00, 0.00, 0.00, 0.00, 0.00, 0.00
196, 5231.18, 57293.58, 4397.93, 26833.69, -14866.68, -552.67, 11753.13, -46501.86, -13040.03, 34123.04, -1375.73, -12250.68, 0.00, 0.00, 0.00, 0.00, 0.00, 0.00, 0.00
197, 5240.86, 57312.31, 4409.69, 26848.78, -14857.47, -542.66, 11767.57, -46485.12, -13040.03, 34123.04, -1375.73, -12250.68, 0.00, 0.00, 0.00, 0.00, 0.00, 0.00, 0.00
198, 5240.86, 57312.31, 4409.69, 26848.78, -14857.47, -542.66, 11767.57, -46485.12, -13042.49, 34138.31, -1359.46, -12276.27, 0.00, 0.00, 0.00, 0.00, 0.00, 0.00, 0.00
199, 5235.14, 57291.14, 4396.34, 26830.94, -14867.04, -555.69, 11749.66, -46501.17, -13042.49, 34138.31, -1359.46, -12276.27, 0.00, 0.00, 0.00, 0.00, 0.04, 0.41, 0.93
200, 5235.14, 57291.14, 4396.34, 26830.94, -14867.04, -555.69, 11749.66, -46501.17, -13041.55, 34115.06, -1374.39, -12252.42, 0.00, 0.00, 0.00, 0.00, 0.00, 0.00, 0.00
201, 5244.88, 57311.23, 4411.14, 26845.83, -14858.34, -542.95, 11764.95, -46483.38, -13041.55, 34115.06, -1374.39, -12252.42, 0.00, 0.00, 0.00, 0.00, 0.00, 0.00, 0.00
202, 5244.88, 57311.23, 4411.14, 26845.83, -14858.34, -542.95, 11764.95, -46483.38, -13033.21, 34150.87, -1347.81, -12271.49, 0.00, 0.00, 0.00, 0.00, 0.00, 0.00, 0.00
203, 5230.73, 57297.13, 4397.39, 26832.96, -14865.99, -554.93, 11748.23, -46496.32, -13033.21, 34150.87, -1347.81, -12271.49, 0.00, 0.00, 0.00, 0.00, 0.00, 0.00, 0.00
204, 5230.73, 57297.13, 4397.39, 26832.96, -14865.99, -554.93, 11748.23, -46496.32, -13044.46, 34111.20, -1375.24, -12254.52, 0.00, 0.00, 0.00, 0.00, 0.00, 0.00, 0.00
205, 5236.39, 57303.97, 4402.80, 26835.73, -14864.09, -552.16, 11754.00, -46494.20, -13044.46, 34111.20, -1375.24, -12254.52, 0.00, 0.00, 0.00, 0.00, 0.00, 0.00, 0.00
206, 5236.39, 57303.97, 4402.80, 26835.73, -14864.09, -552.16, 11754.00, -46494.20, -13036.10, 34142.09, -1349.78, -12277.37, 0.00, 0.00, 0.00, 0.00, 0.00, 0.00, 0.00
207, 5238.51, 57306.85, 4405.60, 26839.01, -14863.24, -546.66, 11758.67, -46490.29, -13036.10, 34142.09, -1349.78, -12277.37, 0.00, 0.00, 0.00, 0.00, 0.00, 0.00, 0.00
208, 5238.51, 57306.85, 4405.60, 26839.01, -14863.24, -546.66, 11758.67, -46490.29, -13034.69, 34120.12, -1368.13, -12234.18, 0.00, 0.00, 0.00, 0.00, 0.00, 0.00, 0.00
209, 5224.59, 57294.34, 4400.66, 26832.98, -14867.91, -553.09, 11754.63, -46490.31, -13034.69, 34120.12, -1368.13, -12234.18, 0.00, 0.00, 0.00, 0.00, 0.04, 0.41, 0.93
210, 5224.59, 57294.34, 4400.66, 26832.98, -14867.91, -553.09, 11754.63, -46490.31, -13025.99, 34153.93, -1350.49, -12284.07, 0.00, 0.00, 0.00, 0.00, 0.00, 0.00, 0.00
211, 5237.06, 57299.05, 4402.96, 26837.13, -14860.02, -546.32, 11759.10, -46483.96, -13025.99, 34153.93, -1350.49, -12284.07, 0.00, 0.00, 0.00, 0.00, 0.00, 0.00, 0.00
212, 5237.06, 57299.05, 4402.96, 26837.13, -14860.02, -546.32, 11759.10, -46483.96, -13036.74, 34120.32, -1371.88, -12242.07, 0.00, 0.00, 0.00, 0.00, 0.00, 0.00, 0.00
213, 5229.24, 57294.83, 4395.43, 26833.16, -14864.25, -551.57, 11752.88, -46492.16, -13036.74, 34120.32, -1371.88, -12242.07, 0.00, 0.00, 0.00, 0.00, 0.00, 0.00, 0.00
214, 5229.24, 57294.83, 4395.43, 26833.16, -14864.25, -551.57, 11752.88, -46492.16, -13029.32, 34148.79, -1358.81, -12264.04, 0.00, 0.00, 0.00, 0.00, 0.00, 0.00, 0.00
215, 5233.39, 57302.45, 4400.32, 26837.61, -14862.93, -548.87, 11753.71, -46489.23, -13029.32, 34148.79, -1358.81, -12264.04, 0.00, 0.00, 0.00, 0.00, 0.00, 0.00, 0.00
216, 5233.39, 57302.45, 4400.32, 26837.61, -14862.93, -548.87, 11753.71, -46489.23, -13041.59, 34110.91, -1376.93, -12245.63, 0.00, 0.00, 0.00, 0.00, 0.00, 0.00, 0.00
217, 5225.79, 57289.26, 4391.80, 26829.42, -14875.71, -557.68, 11740.97, -46504.37, -13041.59, 34110.91, -1376.93, -12245.63, 0.00, 0.00, 0.00, 0.00, 0.00, 0.00, 0.00
218, 5225.79, 57289.26, 4391.80, 26829.42, -14875.71, -557.68, 11740.97, -46504.37, -13045.35, 34131.63, -1365.80, -12300.50, 0.00, 0.00, 0.00, 0.00, 0.00, 0.00, 0.00
219, 5233.30, 57300.13, 4401.04, 26841.14, -14867.08, -548.80, 11756.23, -46492.12, -13045.35, 34131.63, -1365.80, -12300.50, 0.00, 0.00, 0.00, 0.00, 0.04, 0.40, 0.92
220, 5233.30, 57300.13, 4401.04, 26841.14, -14867.08, -548.80, 11756.23, -46492.12, -13045.44, 34116.74, -1376.35, -12244.82, 0.00, 0.00, 0.00, 0.00, 0.00, 0.00, 0.00
221, 5221.57, 57284.84, 4391.18, 26828.78, -14871.67, -555.87, 11742.78, -46498.91, -13045.44, 34116.74, -1376.35, -12244.82, 0.00, 0.00, 0.00, 0.00, 0.00, 0.00, 0.00
222, 5221.57, 57284.84, 4391.18, 26828.78, -14871.67, -555.87, 11742.78, -46498.91, -13042.22, 34134.78, -1367.64, -12270.73, 0.00, 0.00, 0.00, 0.00, 0.00, 0.00, 0.00
223, 5228.34, 57299.07, 4400.88, 26844.73, -14866.35, -545.00, 11752.05, -46495.92, -13042.22, 34134.78, -1367.64, -12270.73, 0.00, 0.00, 0.00, 0.00, 0.00, 0.00, 0.00
224, 5228.34, 57299.07, 4400.88, 26844.73, -14866.35, -545.00, 11752.05, -46495.92, -13044.30, 34109.03, -1374.70, -12270.15, 0.00, 0.00, 0.00, 0.00, 0.00, 0.00, 0.00
225, 5226.26, 57285.86, 4393.84, 26829.42, -14871.46, -554.03, 11744.95, -46496.14, -13044.30, 34109.03, -1374.70, -12270.15, 0.00, 0.00, 0.00, 0.00, 0.00, 0.00, 0.00
226, 5226.26, 57285.86, 4393.84, 26829.42, -14871.46, -554.03, 11744.95, -46496.14, -13031.71, 34142.27, -1362.70, -12264.20, 0.00, 0.00, 0.00, 0.00, 0.00, 0.00, 0.00
227, 5234.87, 57304.33, 4405.93, 26848.45, -14861.23, -542.16, 11764.24, -46481.52, -13031.71, 34142.27, -1362.70, -12264.20, 0.00, 0.00, 0.00, 0.00, 0.00, 0.00, 0.00
228, 5234.87, 57304.33, 4405.93, 26848.45, -14861.23, -542.16, 11764.24, -46481.52, -13043.67, 34118.73, -1375.91, -12268.49, 0.00, 0.00, 0.00, 0.00, 0.00, 0.00, 0.00
229, 5213.52, 57273.37, 4380.87, 26816.79, -14879.58, -565.97, 11729.95, -46508.95, -13043.67, 34118.73, -1375.91, -12268.49, 0.00, 0.00, 0.00, 0.00, 0.04, 0.41, 0.92
230, 5213.52, 57273.37, 4380.87, 26816.79, -14879.58, -565.97, 11729.95, -46508.95, -13045.15, 34120.79, -1376.64, -12274.17, 0.00, 0.00, 0.00, 0.00, 0.00, 0.00, 0.00
231, 5225.70, 57292.30, 4398.13, 26842.83, -14865.50, -545.11, 11756.35, -46485.39, -13045.15, 34120.79, -1376.64, -12274.17, 0.00, 0.00, 0.00, 0.00, 0.00, 0.00, 0.00
232, 5225.70, 57292.30, 4398.13, 26842.83, -14865.50, -545.11, 11756.35, -46485.39, -13046.89, 34117.70, -1372.31, -12268.34, 0.00, 0.00, 0.00, 0.00, 0.00, 0.00, 0.00
233, 5207.24, 57267.94, 4375.87, 26814.78, -14883.04, -565.45, 11729.95, -46509.24, -13046.89, 34117.70, -1372.31, -12268.34, 0.00, 0.00, 0.00, 0.00, 0.00, 0.00, 0.00
234, 5207.24, 57267.94, 4375.87, 26814.78, -14883.04, -565.45, 11729.95, -46509.24, -13041.35, 34118.66, -1382.66, -12267.84, 0.00, 0.00, 0.00, 0.00, 0.00, 0.00, 0.00
235, 5228.88, 57296.97, 4399.27, 26840.26, -14863.73, -543.04, 11759.68, -46482.38, -13041.35, 34118.66, -1382.66, -12267.84, 0.00, 0.00, 0.00, 0.00, 0.00, 0.00, 0.00
236, 5228.88, 57296.97, 4399.27, 26840.26, -14863.73, -543.04, 11759.68, -46482.38, -13039.78, 34129.01, -1368.02, -12273.88, 0.00, 0.00, 0.00, 0.00, 0.00, 0.00, 0.00
237, 5213.54, 57274.20, 4381.12, 26816.73, -14880.09, -563.00, 11735.58, -46507.21, -13039.78, 34129.01, -1368.02, -12273.88, 0.00, 0.00, 0.00, 0.00, 0.00, 0.00, 0.00
238, 5213.54, 57274.20, 4381.12, 26816.73, -14880.09, -563.00, 11735.58, -46507.21, -13042.02, 34112.88, -1370.41, -12263.46, 0.00, 0.00, 0.00, 0.00, 0.04, 0.40, 0.93
239, 5230.49, 57305.27, 4405.46, 26846.95, -14853.65, -536.55, 11764.37, -46474.84, -13042.02, 34112.88, -1370.41, -12263.46, 0.00, 0.00, 0.00, 0.00, 0.00, 0.00, 0.00
240, 5230.49, 57305.27, 4405.46, 26846.95, -14853.65, -536.55, 11764.37, -46474.84, -13031.87, 34144.52, -1356.95, -12258.81, 0.00, 0.00, 0.00, 0.00, 0.00, 0.00, 0.00
241, 5217.28, 57286.87, 4390.28, 26826.29, -14869.43, -550.66, 11745.53, -46489.68, -13031.87, 34144.52, -1356.95, -12258.81, 0.00, 0.00, 0.00, 0.00, 0.00, 0.00, 0.00
242, 5217.28, 57286.87, 4390.28, 26826.29, -14869.43, -550.66, 11745.53, -46489.68, -13022.08, 34139.41, -1363.57, -12233.62, 0.00, 0.00, 0.00, 0.00, 0.00, 0.00, 0.00
243, 5228.05, 57304.11, 4404.03, 26842.23, -14852.42, -539.46, 11768.55, -46472.92, -13022.08, 34139.41, -1363.57, -12233.62, 0.00, 0.00, 0.00, 0.00, 0.00, 0.00, 0.00
244, 5228.05, 57304.11, 4404.03, 26842.23, -14852.42, -539.46, 11768.55, -46472.92, -13033.35, 34147.70, -1356.86, -12259.26, 0.00, 0.00, 0.00, 0.00, 0.00, 0.00, 0.00
245, 5219.29, 57281.26, 4391.45, 26831.17, -14862.46, -540.82, 11750.38, -46485.86, -13033.35, 34147.70, -1356.86, -12259.26, 0.00, 0.00, 0.00, 0.00, 0.00, 0.00, 0.00
246, 5219.29, 57281.26, 4391.45, 26831.17, -14862.46, -540.82, 11750.38, -46485.86, -13029.79, 34131.38, -1368.73, -12227.81, 0.00, 0.00, 0.00, 0.00, 0.00, 0.00, 0.00
247, 5233.21, 57298.70, 4403.29, 26850.26, -14859.44, -534.72, 11760.84, -46475.49, -13029.79, 34131.38, -1368.73, -12227.81, 0.00, 0.00, 0.00, 0.00, 0.00, 0.00, 0.00
248, 5233.21, 57298.70, 4403.29, 26850.26, -14859.44, -534.72, 11760.84, -46475.49, -13022.37, 34162.32, -1349.15, -12269.45, 0.00, 0.00, 0.00, 0.00, 0.04, 0.40, 0.93
249, 5237.37, 57300.64, 4406.67, 26843.13, -14856.73, -530.23, 11766.90, -46474.59, -13022.37, 34162.32, -1349.15, -12269.45, 0.00, 0.00, 0.00, 0.00, 0.00, 0.00, 0.00
250, 5237.37, 57300.64, 4406.67, 26843.13, -14856.73, -530.23, 11766.90, -46474.59, -13027.98, 34122.84, -1362.56, -12227.16, 0.00, 0.00, 0.00, 0.00, 0.00, 0.00, 0.00
251, 5228.05, 57296.88, 4399.09, 26834.52, -14862.19, -548.98, 11754.04, -46484.36, -13027.98, 34122.84, -1362.56, -12227.16, 0.00, 0.00, 0.00, 0.00, 0.00, 0.00, 0.00
252, 5228.05, 57296.88, 4399.09, 26834.52, -14862.19, -548.98, 11754.04, -46484.36, -13029.50, 34153.29, -1355.63, -12279.71, 0.00, 0.00, 0.00, 0.00, 0.00, 0.00, 0.00
253, 5215.65, 57282.64, 4383.94, 26823.14, -14880.03, -559.06, 11731.76, -46504.66, -13029.50, 34153.29, -1355.63, -12279.71, 0.00, 0.00, 0.00, 0.00, 0.00, 0.00, 0.00
254, 5215.65, 57282.64, 4383.94, 26823.14, -14880.03, -559.06, 11731.76, -46504.66, -13046.56, 34100.20, -1382.32, -12254.70, 0.00, 0.00, 0.00, 0.00, 0.00, 0.00, 0.00
255, 5234.78, 57297.60, 4400.81, 26844.36, -14860.67, -533.71, 11759.32, -46477.32, -13046.56, 34100.20, -1382.32, -12254.70, 0.00, 0.00, 0.00, 0.00, 0.00, 0.00, 0.00
0, 5234.78, 57297.60, 4400.81, 26844.36, -14860.67, -533.71, 11759.32, -46477.32, -13016.94, 34157.55, -1330.53, -12263.17, 0.00, 0.00, 0.00, 0.00, 0.00, 0.00, 0.00
1, 5248.64, 57314.54, 4426.65, 26862.57, -14836.86, -520.97, 11775.01, -46471.69, -13016.94, 34157.55, -1330.53, -12263.17, 0.00, 0.00, 0.00, 0.00, 0.00, 0.00, 0.00
2, 5248.64, 57314.54, 4426.65, 26862.57, -14836.86, -520.97, 11775.01, -46471.69, -13033.03, 34117.12, -1356.13, -12237.09, 0.00, 0.00, 0.00, 0.00, 0.04, 0.40, 0.93
3, 5227.74, 57292.35, 4396.12, 26840.94, -14873.79, -549.16, 11744.92, -46496.45, -13033.03, 34117.12, -1356.13, -12237.09, 0.00, 0.00, 0.00, 0.00, 0.00, 0.00, 0.00
4, 5227.74, 57292.35, 4396.12, 26840.94, -14873.79, -549.16, 11744.92, -46496.45, -13043.23, 34122.02, -1372.98, -12304.32, 0.00, 0.00, 0.00, 0.00, 0.00, 0.00, 0.00
5, 5221.26, 57288.84, 4389.59, 26834.79, -14873.39, -552.07, 11741.80, -46495.58, -13043.23, 34122.02, -1372.98, -12304.32, 0.00, 0.00, 0.00, 0.00, 0.00, 0.00, 0.00
6, 5221.26, 57288.84, 4389.59, 26834.79, -14873.39, -552.07, 11741.80, -46495.58, -13032.23, 34110.91, -1384.80, -12242.72, 0.00, 0.00, 0.00, 0.00, 0.00, 0.00, 0.00
7, 5219.09, 57282.58, 4383.87, 26820.24, -14876.92, -552.87, 11737.64, -46500.32, -13032.23, 34110.91, -1384.80, -12242.72, 0.00, 0.00, 0.00, 0.00, 0.00, 0.00, 0.00
8, 5219.09, 57282.58, 4383.87, 26820.24, -14876.92, -552.87, 11737.64, -46500.32, -13042.04, 34122.75, -1369.60, -12303.50, 0.00, 0.00, 0.00, 0.00, 0.00, 0.00, 0.00
9, 5224.74, 57290.20, 4391.22, 26826.70, -14871.38, -552.00, 11740.28, -46498.98, -13042.04, 34122.75, -1369.60, -12303.50, 0.00, 0.00, 0.00, 0.00, 0.00, 0.00, 0.00
10, 5224.74, 57290.20, 4391.22, 26826.70, -14871.38, -552.00, 11740.28, -46498.98, -13041.33, 34099.64, -1375.39, -12267.13, 0.00, 0.00, 0.00, 0.00, 0.00, 0.00, 0.00
11, 5221.77, 57286.20, 4391.02, 26828.04, -14871.69, -552.16, 11737.82, -46500.25, -13041.33, 34099.64, -1375.39, -12267.13, 0.00, 0.00, 0.00, 0.00, 0.00, 0.00, 0.00
12, 5221.77, 57286.20, 4391.02, 26828.04, -14871.69, -552.16, 11737.82, -46500.25, -13035.67, 34131.38, -1356.28, -12293.08, 0.00, 0.00, 0.00, 0.00, 0.04, 0.40, 0.93
13, 5236.52, 57302.41, 4402.82, 26844.31, -14867.04, -535.59, 11752.48, -46490.42, -13035.67, 34131.38, -1356.28, -12293.08, 0.00, 0.00, 0.00, 0.00, 0.00, 0.00, 0.00
14, 5236.52, 57302.41, 4402.82, 26844.31, -14867.04, -535.59, 11752.48, -46490.42, -13043.81, 34106.23, -1365.20, -12264.51, 0.00, 0.00, 0.00, 0.00, 0.00, 0.00, 0.00
15, 5226.91, 57291.57, 4391.85, 26823.68, -14873.23, -553.99, 11733.53, -46500.97, -13043.81, 34106.23, -1365.20, -12264.51, 0.00, 0.00, 0.00, 0.00, 0.00, 0.00, 0.00
16, 5226.91, 57291.57, 4391.85, 26823.68, -14873.23, -553.99, 11733.53, -46500.97, -13037.01, 34125.61, -1353.80, -12283.02, 0.00, 0.00, 0.00, 0.00, 0.00, 0.00, 0.00
17, 5248.35, 57313.27, 4410.96, 26846.63, -14855.17, -538.79, 11757.00, -46485.17, -13037.01, 34125.61, -1353.80, -12283.02, 0.00, 0.00, 0.00, 0.00, 0.00, 0.00, 0.00
18, 5248.35, 57313.27, 4410.96, 26846.63, -14855.17, -538.79, 11757.00, -46485.17, -13036.57, 34113.95, -1354.34, -12270.93, 0.00, 0.00, 0.00, 0.00, 0.00, 0.00, 0.00
19, 5225.46, 57291.99, 4393.66, 26828.42, -14878.75, -548.78, 11735.09, -46502.36, -13036.57, 34113.95, -1354.34, -12270.93, 0.00, 0.00, 0.00, 0.00, 0.00, 0.00, 0.00
20, 5225.46, 57291.99, 4393.66, 26828.42, -14878.75, -548.78, 11735.09, -46502.36, -13039.34, 34124.21, -1361.09, -12291.49, 0.00, 0.00, 0.00, 0.00, 0.00, 0.00, 0.00
21, 5241.04, 57313.49, 4410.31, 26849.54, -14853.45, -534.23, 11756.06, -46482.21, -13039.34, 34124.21, -1361.09, -12291.49, 0.00, 0.00, 0.00, 0.00, 0.04, 0.40, 0.93
22, 5241.04, 57313.49, 4410.31, 26849.54, -14853.45, -534.23, 11756.06, -46482.21, -13030.96, 34122.42, -1356.68, -12266.10, 0.00, 0.00, 0.00, 0.00, 0.00, 0.00, 0.00
23, 5229.35, 57297.89, 4396.57, 26829.29, -14871.80, -550.61, 11740.41, -46499.90, -13030.96, 34122.42, -1356.68, -12266.10, 0.00, 0.00, 0.00, 0.00, 0.00, 0.00, 0.00
24, 5229.35, 57297.89, 4396.57, 26829.29, -14871.80, -550.61, 11740.41, -46499.90, -13039.14, 34114.17, -1361.78, -12278.64, 0.00, 0.00, 0.00, 0.00, 0.00, 0.00, 0.00
25, 5245.28, 57313.29, 4409.46, 26848.36, -14863.46, -537.02, 11757.35, -46484.86, -13039.14, 34114.17, -1361.78, -12278.64, 0.00, 0.00, 0.00, 0.00, 0.00, 0.00, 0.00
26, 5245.28, 57313.29, 4409.46, 26848.36, -14863.46, -537.02, 11757.35, -46484.86, -13041.48, 34116.29, -1356.86, -12290.84, 0.00, 0.00, 0.00, 0.00, 0.00, 0.00, 0.00
27, 5231.43, 57296.04, 4395.74, 26829.13, -14870.68, -551.91, 11734.40, -46503.29, -13041.48, 34116.29, -1356.86, -12290.84, 0.00, 0.00, 0.00, 0.00, 0.00, 0.00, 0.00
28, 5231.43, 57296.04, 4395.74, 26829.13, -14870.68, -551.91, 11734.40, -46503.29, -13033.64, 34111.71, -1361.40, -12283.74, 0.00, 0.00, 0.00, 0.00, 0.00, 0.00, 0.00
29, 5241.04, 57309.76, 4407.47, 26850.37, -14858.03, -536.11, 11754.78, -46482.89, -13033.64, 34111.71, -1361.40, -12283.74, 0.00, 0.00, 0.00, 0.00, 0.00, 0.00, 0.00
30, 5241.04, 57309.76, 4407.47, 26850.37, -14858.03, -536.11, 11754.78, -46482.89, -13027.24, 34133.62, -1346.31, -12278.04, 0.00, 0.00, 0.00, 0.00, 0.00, 0.00, 0.00
31, 5232.30, 57291.57, 4394.20, 26829.04, -14870.73, -549.90, 11736.12, -46498.29, -13027.24, 34133.62, -1346.31, -12278.04, 0.00, 0.00, 0.00, 0.00, 0.04, 0.40, 0.93
32, 5232.30, 57291.57, 4394.20, 26829.04, -14870.73, -549.90, 11736.12, -46498.29, -13037.55, 34113.70, -1372.62, -12266.95, 0.00, 0.00, 0.00, 0.00, 0.00, 0.00, 0.00
33, 5230.49, 57300.04, 4399.81, 26843.55, -14867.42, -538.81, 11751.63, -46486.20, -13037.55, 34113.70, -1372.62, -12266.95, 0.00, 0.00, 0.00, 0.00, 0.00, 0.00, 0.00
34, 5230.49, 57300.04, 4399.81, 26843.55, -14867.42, -538.81, 11751.63, -46486.20, -13035.89, 34124.72, -1359.81, -12286.98, 0.00, 0.00, 0.00, 0.00, 0.00, 0.00, 0.00
35, 5226.46, 57284.81, 4388.76, 26828.24, -14875.26, -550.10, 11733.08, -46505.71, -13035.89, 34124.72, -1359.81, -12286.98, 0.00, 0.00, 0.00, 0.00, 0.00, 0.00, 0.00
36, 5226.46, 57284.81, 4388.76, 26828.24, -14875.26, -550.10, 11733.08, -46505.71, -13033.66, 34111.31, -1374.07, -12270.26, 0.00, 0.00, 0.00, 0.00, 0.00, 0.00, 0.00
37, 5234.55, 57299.21, 4401.35, 26846.95, -14856.53, -537.74, 11753.98, -46482.98, -13033.66, 34111.31, -1374.07, -12270.26, 0.00, 0.00, 0.00, 0.00, 0.00, 0.00, 0.00
38, 5234.55, 57299.21, 4401.35, 26846.95, -14856.53, -537.74, 11753.98, -46482.98, -13036.68, 34122.13, -1356.80, -12296.72, 0.00, 0.00, 0.00, 0.00, 0.00, 0.00, 0.00
39, 5221.50, 57285.55, 4389.21, 26829.69, -14869.81, -552.42, 11729.93, -46509.93, -13036.68, 34122.13, -1356.80, -12296.72, 0.00, 0.00, 0.00, 0.00, 0.00, 0.00, 0.00
40, 5221.50, 57285.55, 4389.21, 26829.69, -14869.81, -552.42, 11729.93, -46509.93, -13037.44, 34100.36, -1375.41, -12284.27, 0.00, 0.00, 0.00, 0.00, 0.00, 0.00, 0.00
41, 5230.20, 57300.93, 4400.66, 26844.58, -14858.75, -536.11, 11752.17, -46483.71, -13037.44, 34100.36, -1375.41, -12284.27, 0.00, 0.00, 0.00, 0.00, 0.04, 0.40, 0.93
42, 5230.20, 57300.93, 4400.66, 26844.58, -14858.75, -536.11, 11752.17, -46483.71, -13032.45, 34134.82, -1351.99, -12285.77, 0.00, 0.00, 0.00, 0.00, 0.00, 0.00, 0.00
43, 5224.68, 57288.88, 4392.25, 26828.06, -14866.79, -548.15, 11735.20, -46499.41, -13032.45, 34134.82, -1351.99, -12285.77, 0.00, 0.00, 0.00, 0.00, 0.00, 0.00, 0.00
44, 5224.68, 57288.88, 4392.25, 26828.06, -14866.79, -548.15, 11735.20, -46499.41, -13040.83, 34085.43, -1378.61, -12278.68, 0.00, 0.00, 0.00, 0.00, 0.00, 0.00, 0.00
45, 5234.40, 57302.23, 4400.59, 26838.28, -14862.30, -543.10, 11741.46, -46496.50, -13040.83, 34085.43, -1378.61, -12278.68, 0.00, 0.00, 0.00, 0.00, 0.00, 0.00, 0.00
46, 5234.40, 57302.23, 4400.59, 26838.28, -14862.30, -543.10, 11741.46, -46496.50, -13027.45, 34134.62, -1348.82, -12311.36, 0.00, 0.00, 0.00, 0.00, 0.00, 0.00, 0.00
47, 5233.86, 57304.73, 4405.77, 26839.17, -14855.37, -536.29, 11748.59, -46483.76, -13027.45, 34134.62, -1348.82, -12311.36, 0.00, 0.00, 0.00, 0.00, 0.00, 0.00, 0.00
48, 5233.86, 57304.73, 4405.77, 26839.17, -14855.37, -536.29, 11748.59, -46483.76, -13019.71, 34119.56, -1354.20, -12281.90, 0.00, 0.00, 0.00, 0.00, 0.00, 0.00, 0.00
49, 5231.31, 57304.21, 4407.27, 26840.49, -14862.41, -541.58, 11750.18, -46486.96, -13019.71, 34119.56, -1354.20, -12281.90, 0.00, 0.00, 0.00, 0.00, 0.00, 0.00, 0.00
50, 5231.31, 57304.21, 4407.27, 26840.49, -14862.41, -541.58, 11750.18, -46486.96, -13006.97, 34152.95, -1334.18, -12305.51, 0.00, 0.00, 0.00, 0.00, 0.00, 0.00, 0.00
51, 5249.96, 57317.85, 4420.04, 26859.33, -14851.66, -517.76, 11761.93, -46470.44, -13006.97, 34152.95, -1334.18, -12305.51, 0.00, 0.00, 0.00, 0.00, 0.04, 0.40, 0.93
52, 5249.96, 57317.85, 4420.04, 26859.33, -14851.66, -517.76, 11761.93, -46470.44, -13012.11, 34117.79, -1357.91, -12289.30, 0.00, 0.00, 0.00, 0.00, 0.00, 0.00, 0.00
53, 5243.21, 57307.70, 4410.63, 26850.77, -14866.70, -532.89, 11755.52, -46485.39, -13012.11, 34117.79, -1357.91, -12289.30, 0.00, 0.00, 0.00, 0.00, 0.00, 0.00, 0.00
54, 5243.21, 57307.70, 4410.63, 26850.77, -14866.70, -532.89, 11755.52, -46485.39, -13040.25, 34120.34, -1361.42, -12323.19, 0.00, 0.00, 0.00, 0.00, 0.00, 0.00, 0.00
55, 5224.21, 57285.51, 4386.86, 26830.52, -14888.21, -550.77, 11721.12, -46513.06, -13040.25, 34120.34, -1361.42, -12323.19, 0.00, 0.00, 0.00, 0.00, 0.00, 0.00, 0.00
56, 5224.21, 57285.51, 4386.86, 26830.52, -14888.21, -550.77, 11721.12, -46513.06, -13046.00, 34089.74, -1387.44, -12273.03, 0.00, 0.00, 0.00, 0.00, 0.00, 0.00, 0.00
57, 5225.55, 57286.76, 4389.23, 26831.30, -14880.16, -543.44, 11727.56, -46489.28, -13046.00, 34089.74, -1387.44, -12273.03, 0.00, 0.00, 0.00, 0.00, 0.00, 0.00, 0.00
58, 5225.55, 57286.76, 4389.23, 26831.30, -14880.16, -543.44, 11727.56, -46489.28, -13020.23, 34158.63, -1353.17, -12272.81, 0.00, 0.00, 0.00, 0.00, 0.00, 0.00, 0.00
59, 5229.75, 57296.41, 4396.30, 26841.70, -14873.28, -534.90, 11746.02, -46474.89, -13020.23, 34158.63, -1353.17, -12272.81, 0.00, 0.00, 0.00, 0.00, 0.00, 0.00, 0.00
60, 5229.75, 57296.41, 4396.30, 26841.70, -14873.28, -534.90, 11746.02, -46474.89, -13047.45, 34098.75, -1394.84, -12273.66, 0.00, 0.00, 0.00, 0.00, 0.04, 0.40, 0.93
61, 5212.52, 57275.76, 4379.35, 26821.76, -14894.02, -553.68, 11720.16, -46500.07, -13047.45, 34098.75, -1394.84, -12273.66, 0.00, 0.00, 0.00, 0.00, 0.00, 0.00, 0.00
62, 5212.52, 57275.76, 4379.35, 26821.76, -14894.02, -553.68, 11720.16, -46500.07, -13025.61, 34129.32, -1366.83, -12276.56, 0.00, 0.00, 0.00, 0.00, 0.00, 0.00, 0.00
63, 5261.49, 57327.48, 4427.37, 26879.51, -14847.15, -500.41, 11772.04, -46446.07, -13025.61, 34129.32, -1366.83, -12276.56, 0.00, 0.00, 0.00, 0.00, 0.00, 0.00, 0.00
64, 5261.49, 57327.48, 4427.37, 26879.51, -14847.15, -500.41, 11772.04, -46446.07, -13007.58, 34148.84, -1356.10, -12205.82, 0.00, 0.00, 0.00, 0.00, 0.00, 0.00, 0.00
65, 5214.15, 57270.46, 4376.43, 26828.17, -14895.16, -546.16, 11722.44, -46490.49, -13007.58, 34148.84, -1356.10, -12205.82, 0.00, 0.00, 0.00, 0.00, 0.00, 0.00, 0.00
66, 5214.15, 57270.46, 4376.43, 26828.17, -14895.16, -546.16, 11722.44, -46490.49, -13033.17, 34123.74, -1399.20, -12273.83, 0.00, 0.00, 0.00, 0.00, 0.00, 0.00, 0.00
67, 5243.79, 57308.69, 4405.51, 26863.13, -14872.27, -509.24, 11754.54, -46461.54, -13033.17, 34123.74, -1399.20, -12273.83, 0.00, 0.00, 0.00, 0.00, 0.00, 0.00, 0.00
68, 5243.79, 57308.69, 4405.51, 26863.13, -14872.27, -509.24, 11754.54, -46461.54, -13014.75, 34148.46, -1366.05, -12313.58, 0.00, 0.00, 0.00, 0.00, 0.00, 0.00, 0.00
69, 5223.67, 57282.31, 4386.69, 26842.92, -14897.26, -523.57, 11729.99, -46475.49, -13014.75, 34148.46, -1366.05, -12313.58, 0.00, 0.00, 0.00, 0.00, 0.00, 0.00, 0.00
70, 5223.67, 57282.31, 4386.69, 26842.92, -14897.26, -523.57, 11729.99, -46475.49, -13016.27, 34156.08, -1381.09, -12253.20, 0.00, 0.00, 0.00, 0.00, 0.04, 0.41, 0.93
71, 5249.78, 57313.22, 4412.97, 26871.69, -14866.37, -502.58, 11759.99, -46440.82, -13016.27, 34156.08, -1381.09, -12253.20, 0.00, 0.00, 0.00, 0.00, 0.00, 0.00, 0.00
72, 5249.78, 57313.22, 4412.97, 26871.69, -14866.37, -502.58, 11759.99, -46440.82, -13027.42, 34143.12, -1377.18, -12312.08, 0.00, 0.00, 0.00, 0.00, 0.00, 0.00, 0.00
73, 5223.38, 57282.38, 4383.40, 26837.27, -14896.72, -530.63, 11724.05, -46469.83, -13027.42, 34143.12, -1377.18, -12312.08, 0.00, 0.00, 0.00, 0.00, 0.00, 0.00, 0.00
74, 5223.38, 57282.38, 4383.40, 26837.27, -14896.72, -530.63, 11724.05, -46469.83, -13012.98, 34150.56, -1378.83, -12313.53, 0.00, 0.00, 0.00, 0.00, 0.00, 0.00, 0.00
75, 5252.39, 57322.57, 4419.25, 26879.25, -14865.65, -488.03, 11767.70, -46423.43, -13012.98, 34150.56, -1378.83, -12313.53, 0.00, 0.00, 0.00, 0.00, 0.00, 0.00, 0.00
76, 5252.39, 57322.57, 4419.25, 26879.25, -14865.65, -488.03, 11767.70, -46423.43, -12998.39, 34166.16, -1354.34, -12364.25, 0.00, 0.00, 0.00, 0.00, 0.00, 0.00, 0.00
77, 5233.84, 57298.43, 4400.72, 26856.11, -14887.89, -491.05, 11731.56, -46464.45, -12998.39, 34166.16, -1354.34, -12364.25, 0.00, 0.00, 0.00, 0.00, 0.00, 0.00, 0.00
78, 5233.84, 57298.43, 4400.72, 26856.11, -14887.89, -491.05, 11731.56, -46464.45, -12990.48, 34160.82, -1373.38, -12469.41, 0.00, 0.00, 0.00, 0.00, 0.00, 0.00, 0.00
79, 5240.32, 57310.83, 4408.50, 26871.47, -14865.92, -503.67, 11756.44, -46456.27, -12990.48, 34160.82, -1373.38, -12469.41, 0.00, 0.00, 0.00, 0.00, 0.00, 0.00, 0.00
80, 5240.32, 57310.83, 4408.50, 26871.47, -14865.92, -503.67, 11756.44, -46456.27, -12976.44, 34170.72, -1356.82, -12410.90, 0.00, 0.00, 0.00, 0.00, 0.03, 0.41, 0.93
81, 5242.94, 57304.93, 4405.77, 26860.98, -14880.34, -510.38, 11742.69, -46470.84, -12976.44, 34170.72, -1356.82, -12410.90, 0.00, 0.00, 0.00, 0.00, 0.00, 0.00, 0.00
82, 5242.94, 57304.93, 4405.77, 26860.98, -14880.34, -510.38, 11742.69, -46470.84, -13006.10, 34142.22, -1362.20, -12550.24, 0.00, 0.00, 0.00, 0.00, 0.00, 0.00, 0.00
83, 5249.17, 57319.59, 4414.51, 26875.78, -14861.74, -507.03, 11764.80, -46434.88, -13006.10, 34142.22, -1362.20, -12550.24, 0.00, 0.00, 0.00, 0.00, 0.00, 0.00, 0.00
84, 5249.17, 57319.59, 4414.51, 26875.78, -14861.74, -507.03, 11764.80, -46434.88, -13027.60, 34145.39, -1373.31, -12611.81, 0.00, 0.00, 0.00, 0.00, 0.00, 0.00, 0.00
85, 5223.96, 57288.88, 4386.64, 26849.65, -14880.94, -512.86, 11738.13, -46465.59, -13027.60, 34145.39, -1373.31, -12611.81, 0.00, 0.00, 0.00, 0.00, 0.00, 0.00, 0.00
86, 5223.96, 57288.88, 4386.64, 26849.65, -14880.94, -512.86, 11738.13, -46465.59, -13002.61, 34158.88, -1380.06, -12592.59, 0.00, 0.00, 0.00, 0.00, 0.00, 0.00, 0.00
87, 5237.42, 57307.68, 4405.44, 26875.54, -14868.74, -478.51, 11754.96, -46466.17, -13002.61, 34158.88, -1380.06, -12592.59, 0.00, 0.00, 0.00, 0.00, 0.00, 0.00, 0.00
88, 5237.42, 57307.68, 4405.44, 26875.54, -14868.74, -478.51, 11754.96, -46466.17, -12996.87, 34176.00, -1353.40, -12656.70, 0.00, 0.00, 0.00, 0.00, 0.00, 0.00, 0.00
89, 5240.08, 57303.28, 4403.03, 26864.11, -14865.09, -514.27, 11757.11, -46471.87, -12996.87, 34176.00, -1353.40, -12656.70, 0.00, 0.00, 0.00, 0.00, 0.00, 0.00, 0.00
90, 5240.08, 57303.28, 4403.03, 26864.11, -14865.09, -514.27, 11757.11, -46471.87, -13030.82, 34102.61, -1382.08, -12710.23, 0.00, 0.00, 0.00, 0.00, 0.04, 0.40, 0.93
91, 5252.91, 57322.34, 4421.64, 26881.26, -14855.33, -499.74, 11778.03, -46455.28, -13030.82, 34102.61, -1382.08, -12710.23, 0.00, 0.00, 0.00, 0.00, 0.00, 0.00, 0.00
92, 5252.91, 57322.34, 4421.64, 26881.26, -14855.33, -499.74, 11778.03, -46455.28, -13004.56, 34165.33, -1335.70, -12795.28, 0.00, 0.00, 0.00, 0.00, 0.00, 0.00, 0.00
93, 5244.95, 57313.20, 4408.88, 26877.66, -14856.89, -493.50, 11767.63, -46467.24, -13004.56, 34165.33, -1335.70, -12795.28, 0.00, 0.00, 0.00, 0.00, 0.00, 0.00, 0.00
94, 5244.95, 57313.20, 4408.88, 26877.66, -14856.89, -493.50, 11767.63, -46467.24, -13016.65, 34115.09, -1391.26, -12787.59, 0.00, 0.00, 0.00, 0.00, 0.00, 0.00, 0.00
95, 5232.48, 57300.15, 4396.88, 26870.37, -14869.45, -501.39, 11764.62, -46480.92, -13016.65, 34115.09, -1391.26, -12787.59, 0.00, 0.00, 0.00, 0.00, 0.00, 0.00, 0.00
96, 5232.48, 57300.15, 4396.88, 26870.37, -14869.45, -501.39, 11764.62, -46480.92, -13031.65, 34118.80, -1366.47, -12851.11, 0.00, 0.00, 0.00, 0.00, 0.00, 0.00, 0.00
97, 5268.10, 57323.77, 4424.66, 26902.56, -14833.69, -467.69, 11795.60, -46442.30, -13031.65, 34118.80, -1366.47, -12851.11, 0.00, 0.00, 0.00, 0.00, 0.00, 0.00, 0.00
98, 5268.10, 57323.77, 4424.66, 26902.56, -14833.69, -467.69, 11795.60, -46442.30, -13002.41, 34140.55, -1362.36, -12815.71, 0.00, 0.00, 0.00, 0.00, 0.00, 0.00, 0.00
99, 5261.31, 57319.71, 4420.59, 26906.58, -14846.94, -447.79, 11801.59, -46426.05, -13002.41, 34140.55, -1362.36, -12815.71, 0.00, 0.00, 0.00, 0.00, 0.04, 0.40, 0.93
100, 5261.31, 57319.71, 4420.59, 26906.58, -14846.94, -447.79, 11801.59, -46426.05, -12998.81, 34176.31, -1339.05, -12948.14, 0.00, 0.00, 0.00, 0.00, 0.00, 0.00, 0.00
101, 5257.06, 57330.68, 4430.85, 26903.54, -14844.75, -458.68, 11827.25, -46413.04, -12998.81, 34176.31, -1339.05, -12948.14, 0.00, 0.00, 0.00, 0.00, 0.00, 0.00, 0.00
102, 5257.06, 57330.68, 4430.85, 26903.54, -14844.75, -458.68, 11827.25, -46413.04, -13030.71, 34106.10, -1361.00, -12809.49, 0.00, 0.00, 0.00, 0.00, 0.00, 0.00, 0.00
103, 5233.66, 57330.19, 4418.58, 26890.58, -14834.81, -470.30, 11808.96, -46434.32, -13030.71, 34106.10, -1361.00, -12809.49, 0.00, 0.00, 0.00, 0.00, 0.00, 0.00, 0.00
104, 5233.66, 57330.19, 4418.58, 26890.58, -14834.81, -470.30, 11808.96, -46434.32, -13016.65, 34148.50, -1364.66, -12957.10, 0.00, 0.00, 0.00, 0.00, 0.00, 0.00, 0.00
105, 5248.39, 57319.68, 4404.39, 26910.56, -14821.31, -441.94, 11828.77, -46427.30, -13016.65, 34148.50, -1364.66, -12957.10, 0.00, 0.00, 0.00, 0.00, 0.00, 0.00, 0.00
106, 5248.39, 57319.68, 4404.39, 26910.56, -14821.31, -441.94, 11828.77, -46427.30, -13009.07, 34103.89, -1371.35, -13023.24, 0.00, 0.00, 0.00, 0.00, 0.00, 0.00, 0.00
107, 5234.04, 57308.33, 4395.72, 26886.60, -14832.37, -468.31, 11810.10, -46438.83, -13009.07, 34103.89, -1371.35, -13023.24, 0.00, 0.00, 0.00, 0.00, 0.00, 0.00, 0.00
108, 5234.04, 57308.33, 4395.72, 26886.60, -14832.37, -468.31, 11810.10, -46438.83, -13025.97, 34121.32, -1356.10, -13034.60, 0.00, 0.00, 0.00, 0.00, 0.00, 0.00, 0.00
109, 5192.35, 57356.50, 4413.06, 26909.53, -14815.90, -447.01, 11839.47, -46403.98, -13025.97, 34121.32, -1356.10, -13034.60, 0.00, 0.00, 0.00, 0.00, 0.03, 0.40, 0.93
110, 5192.35, 57356.50, 4413.06, 26909.53, -14815.90, -447.01, 11839.47, -46403.98, -13030.31, 34113.25, -1381.63, -13012.96, 0.00, 0.00, 0.00, 0.00, 0.00, 0.00, 0.00
111, 5272.04, 57293.04, 4380.90, 26901.98, -14821.78, -445.38, 11831.78, -46413.62, -13030.31, 34113.25, -1381.63, -13012.96, 0.00, 0.00, 0.00, 0.00, 0.00, 0.00, 0.00
112, 5272.04, 57293.04, 4380.90, 26901.98, -14821.78, -445.38, 11831.78, -46413.62, -13013.86, 34109.61, -1385.27, -13071.01, 0.00, 0.00, 0.00, 0.00, 0.00, 0.00, 0.00
113, 5259.61, 57302.02, 4399.07, 26924.31, -14826.02, -412.23, 11838.27, -46423.66, -13013.86, 34109.61, -1385.27, -13071.01, 0.00, 0.00, 0.00, 0.00, 0.00, 0.00, 0.00
114, 5259.61, 57302.02, 4399.07, 26924.31, -14826.02, -412.23, 11838.27, -46423.66, -13032.23, 34095.39, -1395.82, -13160.73, 0.00, 0.00, 0.00, 0.00, 0.00, 0.00, 0.00
115, 5225.26, 57282.89, 4378.42, 26887.14, -14844.40, -465.39, 11817.28, -46439.73, -13032.23, 34095.39, -1395.82, -13160.73, 0.00, 0.00, 0.00, 0.00, 0.00, 0.00, 0.00
116, 5225.26, 57282.89, 4378.42, 26887.14, -14844.40, -465.39, 11817.28, -46439.73, -13039.36, 34084.00, -1401.41, -13158.29, 0.00, 0.00, 0.00, 0.00, 0.00, 0.00, 0.00
117, 5239.36, 57307.81, 4394.35, 26919.88, -14820.73, -446.74, 11846.58, -46421.42, -13039.36, 34084.00, -1401.41, -13158.29, 0.00, 0.00, 0.00, 0.00, 0.00, 0.00, 0.00
118, 5239.36, 57307.81, 4394.35, 26919.88, -14820.73, -446.74, 11846.58, -46421.42, -13042.62, 34077.80, -1408.96, -13218.75, 0.00, 0.00, 0.00, 0.00, 0.00, 0.00, 0.00
119, 5231.78, 57288.48, 4379.22, 26911.16, -14823.79, -431.99, 11826.02, -46430.03, -13042.62, 34077.80, -1408.96, -13218.75, 0.00, 0.00, 0.00, 0.00, 0.03, 0.40, 0.93
120, 5231.78, 57288.48, 4379.22, 26911.16, -14823.79, -431.99, 11826.02, -46430.03, -13013.14, 34094.72, -1408.67, -13284.92, 0.00, 0.00, 0.00, 0.00, 0.00, 0.00, 0.00
121, 5227.45, 57291.45, 4380.45, 26918.36, -14816.61, -433.00, 11849.49, -46399.43, -13013.14, 34094.72, -1408.67, -13284.92, 0.00, 0.00, 0.00, 0.00, 0.00, 0.00, 0.00
122, 5227.45, 57291.45, 4380.45, 26918.36, -14816.61, -433.00, 11849.49, -46399.43, -13059.92, 34046.62, -1425.93, -13274.41, 0.00, 0.00, 0.00, 0.00, 0.00, 0.00, 0.00
123, 5210.88, 57266.78, 4362.26, 26905.62, -14831.16, -439.73, 11811.98, -46437.67, -13059.92, 34046.62, -1425.93, -13274.41, 0.00, 0.00, 0.00, 0.00, 0.00, 0.00, 0.00
124, 5210.88, 57266.78, 4362.26, 26905.62, -14831.16, -439.73, 11811.98, -46437.67, -13042.94, 34043.20, -1430.40, -13339.12, 0.00, 0.00, 0.00, 0.00, 0.00, 0.00, 0.00
125, 5246.40, 57300.89, 4387.45, 26933.45, -14804.36, -428.97, 11855.10, -46406.04, -13042.94, 34043.20, -1430.40, -13339.12, 0.00, 0.00, 0.00, 0.00, 0.00, 0.00, 0.00
126, 5246.40, 57300.89, 4387.45, 26933.45, -14804.36, -428.97, 11855.10, -46406.04, -13022.53, 34092.36, -1415.60, -13381.21, 0.00, 0.00, 0.00, 0.00, 0.00, 0.00, 0.00
127, 5216.00, 57261.64, 4354.43, 26894.24, -14835.19, -455.75, 11819.00, -46418.09, -13022.53, 34092.36, -1415.60, -13381.21, 0.00, 0.00, 0.00, 0.00, 0.00, 0.00, 0.00
128, 5216.00, 57261.64, 4354.43, 26894.24, -14835.19, -455.75, 11819.00, -46418.09, -13057.80, 34026.15, -1451.61, -13391.96, 0.00, 0.00, 0.00, 0.00, 0.00, 0.00, 0.00
129, 5227.27, 57275.63, 4369.21, 26919.55, -14825.22, -434.88, 11831.00, -46416.95, -13057.80, 34026.15, -1451.61, -13391.96, 0.00, 0.00, 0.00, 0.00, 0.03, 0.40, 0.94
130, 5227.27, 57275.63, 4369.21, 26919.55, -14825.22, -434.88, 11831.00, -46416.95, -13059.32, 34032.59, -1425.39, -13354.32, 0.00, 0.00, 0.00, 0.00, 0.00, 0.00, 0.00
131, 5225.48, 57265.14, 4359.86, 26906.22, -14831.39, -432.08, 11794.14, -46445.74, -13059.32, 34032.59, -1425.39, -13354.32, 0.00, 0.00, 0.00, 0.00, 0.00, 0.00, 0.00
132, 5225.48, 57265.14, 4359.86, 26906.22, -14831.39, -432.08, 11794.14, -46445.74, -13061.58, 33997.70, -1445.24, -13467.64, 0.00, 0.00, 0.00, 0.00, 0.00, 0.00, 0.00
133, 5238.18, 57284.05, 4378.93, 26933.54, -14813.73, -419.41, 11812.36, -46434.32, -13061.58, 33997.70, -1445.24, -13467.64, 0.00, 0.00, 0.00, 0.00, 0.00, 0.00, 0.00
134, 5238.18, 57284.05, 4378.93, 26933.54, -14813.73, -419.41, 11812.36, -46434.32, -13049.31, 34023.38, -1421.82, -13452.93, 0.00, 0.00, 0.00, 0.00, 0.00, 0.00, 0.00
135, 5208.72, 57268.14, 4376.18, 26907.23, -14822.87, -447.30, 11806.75, -46427.75, -13049.31, 34023.38, -1421.82, -13452.93, 0.00, 0.00, 0.00, 0.00, 0.00, 0.00, 0.00
136, 5208.72, 57268.14, 4376.18, 26907.23, -14822.87, -447.30, 11806.75, -46427.75, -13073.65, 33952.23, -1442.02, -13433.29, 0.00, 0.00, 0.00, 0.00, 0.00, 0.00, 0.00
137, 5216.05, 57285.35, 4355.84, 26936.44, -14821.60, -404.37, 11809.32, -46429.49, -13073.65, 33952.23, -1442.02, -13433.29, 0.00, 0.00, 0.00, 0.00, 0.00, 0.00, 0.00
138, 5216.05, 57285.35, 4355.84, 26936.44, -14821.60, -404.37, 11809.32, -46429.49, -13056.57, 33998.79, -1426.76, -13461.70, 0.00, 0.00, 0.00, 0.00, 0.04, 0.39, 0.94
139, 5225.86, 57266.53, 4346.34, 26914.34, -14818.60, -439.14, 11807.84, -46413.35, -13056.57, 33998.79, -1426.76, -13461.70, 0.00, 0.00, 0.00, 0.00, 0.00, 0.00, 0.00
140, 5225.86, 57266.53, 4346.34, 26914.34, -14818.60, -439.14, 11807.84, -46413.35, -13028.72, 33982.59, -1465.22, -13468.83, 0.00, 0.00, 0.00, 0.00, 0.00, 0.00, 0.00
141, 5190.83, 57246.48, 4348.80, 26913.94, -14835.34, -437.80, 11798.61, -46439.01, -13028.72, 33982.59, -1465.22, -13468.83, 0.00, 0.00, 0.00, 0.00, 0.00, 0.00, 0.00
142, 5190.83, 57246.48, 4348.80, 26913.94, -14835.34, -437.80, 11798.61, -46439.01, -13073.65, 33987.21, -1449.09, -13443.23, 0.00, 0.00, 0.00, 0.00, 0.00, 0.00, 0.00
143, 5197.36, 57270.58, 4349.52, 26926.32, -14834.11, -421.44, 11778.56, -46444.09, -13073.65, 33987.21, -1449.09, -13443.23, 0.00, 0.00, 0.00, 0.00, 0.00, 0.00, 0.00
144, 5197.36, 57270.58, 4349.52, 26926.32, -14834.11, -421.44, 11778.56, -46444.09, -13075.12, 33934.95, -1459.99, -13469.09, 0.00, 0.00, 0.00, 0.00, 0.00, 0.00, 0.00
145, 5217.50, 57258.24, 4339.08, 26934.61, -14831.48, -429.60, 11781.47, -46451.73, -13075.12, 33934.95, -1459.99, -13469.09, 0.00, 0.00, 0.00, 0.00, 0.00, 0.00, 0.00
146, 5217.50, 57258.24, 4339.08, 26934.61, -14831.48, -429.60, 11781.47, -46451.73, -13074.47, 33940.65, -1466.92, -13574.73, 0.00, 0.00, 0.00, 0.00, 0.00, 0.00, 0.00
147, 5183.08, 57244.02, 4322.25, 26913.29, -14830.58, -444.42, 11760.88, -46485.41, -13074.47, 33940.65, -1466.92, -13574.73, 0.00, 0.00, 0.00, 0.00, 0.00, 0.00, 0.00
148, 5183.08, 57244.02, 4322.25, 26913.29, -14830.58, -444.42, 11760.88, -46485.41, -13062.27, 33922.32, -1491.08, -13460.60, 0.00, 0.00, 0.00, 0.00, 0.04, 0.40, 0.93
149, 5177.54, 57267.07, 4280.85, 26922.70, -14840.87, -432.26, 11773.74, -46469.21, -13062.27, 33922.32, -1491.08, -13460.60, 0.00, 0.00, 0.00, 0.00, 0.00, 0.00, 0.00
150, 5177.54, 57267.07, 4280.85, 26922.70, -14840.87, -432.26, 11773.74, -46469.21, -13057.96, 33921.50, -1489.07, -13556.15, 0.00, 0.00, 0.00, 0.00, 0.00, 0.00, 0.00
151, 5187.26, 57209.22, 4293.03, 26924.51, -14903.38, -413.10, 11728.72, -46543.95, -13057.96, 33921.50, -1489.07, -13556.15, 0.00, 0.00, 0.00, 0.00, 0.00, 0.00, 0.00
152, 5187.26, 57209.22, 4293.03, 26924.51, -14903.38, -413.10, 11728.72, -46543.95, -13084.58, 33874.58, -1526.91, -13564.42, 0.00, 0.00, 0.00, 0.00, 0.00, 0.00, 0.00
153, 5184.31, 57219.55, 4231.39, 26926.01, -14853.72, -400.45, 11712.92, -46500.81, -13084.58, 33874.58, -1526.91, -13564.42, 0.00, 0.00, 0.00, 0.00, 0.00, 0.00, 0.00
154, 5184.31, 57219.55, 4231.39, 26926.01, -14853.72, -400.45, 11712.92, -46500.81, -13098.50, 33923.58, -1537.04, -13588.41, 0.00, 0.00, 0.00, 0.00, 0.00, 0.00, 0.00
155, 5162.22, 57195.12, 4207.92, 26892.95, -14884.54, -485.30, 11746.47, -46508.70, -13098.50, 33923.58, -1537.04, -13588.41, 0.00, 0.00, 0.00, 0.00, 0.00, 0.00, 0.00
156, 5162.22, 57195.12, 4207.92, 26892.95, -14884.54, -485.30, 11746.47, -46508.70, -13106.01, 33859.05, -1559.24, -13615.83, 0.00, 0.00, 0.00, 0.00, 0.00, 0.00, 0.00
157, 5086.21, 57206.18, 4204.70, 26906.43, -14897.24, -466.79, 11714.08, -46594.18, -13106.01, 33859.05, -1559.24, -13615.83, 0.00, 0.00, 0.00, 0.00, 0.00, 0.00, 0.00
158, 5086.21, 57206.18, 4204.70, 26906.43, -14897.24, -466.79, 11714.08, -46594.18, -13082.54, 33873.35, -1564.53, -13578.77, 0.00, 0.00, 0.00, 0.00, 0.04, 0.40, 0.93
159, 5161.44, 57200.97, 4130.38, 26945.94, -14906.80, -405.15, 11723.47, -46594.20, -13082.54, 33873.35, -1564.53, -13578.77, 0.00, 0.00, 0.00, 0.00, 0.00, 0.00, 0.00
160, 5161.44, 57200.97, 4130.38, 26945.94, -14906.80, -405.15, 11723.47, -46594.20, -13097.61, 33860.88, -1579.33, -13615.70, 0.00, 0.00, 0.00, 0.00, 0.00, 0.00, 0.00
161, 5137.03, 57166.11, 4085.63, 26919.79, -14907.61, -435.72, 11701.47, -46638.68, -13097.61, 33860.88, -1579.33, -13615.70, 0.00, 0.00, 0.00, 0.00, 0.00, 0.00, 0.00
162, 5137.03, 57166.11, 4085.63, 26919.79, -14907.61, -435.72, 11701.47, -46638.68, -13083.53, 33878.11, -1615.74, -13656.87, 0.00, 0.00, 0.00, 0.00, 0.00, 0.00, 0.00
163, 5138.04, 57195.52, 4066.32, 26953.56, -14905.98, -388.59, 11715.91, -46690.58, -13083.53, 33878.11, -1615.74, -13656.87, 0.00, 0.00, 0.00, 0.00, 0.00, 0.00, 0.00
164, 5138.04, 57195.52, 4066.32, 26953.56, -14905.98, -388.59, 11715.91, -46690.58, -13091.91, 33854.02, -1630.36, -13628.46, 0.00, 0.00, 0.00, 0.00, 0.00, 0.00, 0.00
165, 5049.86, 57136.45, 3971.88, 26887.22, -14982.24, -484.88, 11685.27, -46746.41, -13091.91, 33854.02, -1630.36, -13628.46, 0.00, 0.00, 0.00, 0.00, 0.00, 0.00, 0.00
166, 5049.86, 57136.45, 3971.88, 26887.22, -14982.24, -484.88, 11685.27, -46746.41, -13141.66, 33807.73, -1670.64, -13719.61, 0.00, 0.00, 0.00, 0.00, 0.00, 0.00, 0.00
167, 5066.56, 57168.83, 3901.92, 26923.59, -14978.64, -449.72, 11705.41, -46826.07, -13141.66, 33807.73, -1670.64, -13719.61, 0.00, 0.00, 0.00, 0.00, 0.00, 0.00, 0.00
168, 5066.56, 57168.83, 3901.92, 26923.59, -14978.64, -449.72, 11705.41, -46826.07, -13108.40, 33814.37, -1670.39, -13645.69, 0.00, 0.00, 0.00, 0.00, 0.04, 0.40, 0.93
169, 5042.11, 57122.32, 3816.00, 26902.56, -15008.28, -459.24, 11663.16, -46911.59, -13108.40, 33814.37, -1670.39, -13645.69, 0.00, 0.00, 0.00, 0.00, 0.00, 0.00, 0.00
170, 5042.11, 57122.32, 3816.00, 26902.56, -15008.28, -459.24, 11663.16, -46911.59, -13115.56, 33818.79, -1696.07, -13708.17, 0.00, 0.00, 0.00, 0.00, 0.00, 0.00, 0.00
171, 5065.55, 57151.26, 3792.51, 26944.65, -14960.85, -409.64, 11698.05, -46927.26, -13115.56, 33818.79, -1696.07, -13708.17, 0.00, 0.00, 0.00, 0.00, 0.00, 0.00, 0.00
172, 5065.55, 57151.26, 3792.51, 26944.65, -14960.85, -409.64, 11698.05, -46927.26, -13090.10, 33843.22, -1668.58, -13723.52, 0.00, 0.00, 0.00, 0.00, 0.00, 0.00, 0.00
173, 5022.57, 57112.73, 3718.17, 26917.56, -15021.60, -423.61, 11643.72, -47070.67, -13090.10, 33843.22, -1668.58, -13723.52, 0.00, 0.00, 0.00, 0.00, 0.00, 0.00, 0.00
174, 5022.57, 57112.73, 3718.17, 26917.56, -15021.60, -423.61, 11643.72, -47070.67, -13113.48, 33799.99, -1721.42, -13748.67, 0.00, 0.00, 0.00, 0.00, 0.00, 0.00, 0.00
175, 5024.78, 57129.36, 3696.93, 26923.28, -15020.53, -440.58, 11679.88, -47076.93, -13113.48, 33799.99, -1721.42, -13748.67, 0.00, 0.00, 0.00, 0.00, 0.00, 0.00, 0.00
176, 5024.78, 57129.36, 3696.93, 26923.28, -15020.53, -440.58, 11679.88, -47076.93, -13108.60, 33810.63, -1691.27, -13798.92, 0.00, 0.00, 0.00, 0.00, 0.00, 0.00, 0.00
177, 5021.63, 57125.43, 3654.98, 26915.77, -15002.18, -453.29, 11664.08, -47147.92, -13108.60, 33810.63, -1691.27, -13798.92, 0.00, 0.00, 0.00, 0.00, 0.04, 0.40, 0.94
178, 5021.63, 57125.43, 3654.98, 26915.77, -15002.18, -453.29, 11664.08, -47147.92, -13133.73, 33778.94, -1719.81, -13742.08, 0.00, 0.00, 0.00, 0.00, 0.00, 0.00, 0.00
179, 4999.46, 57131.41, 3616.96, 26924.35, -15061.57, -434.85, 11663.32, -47220.85, -13133.73, 33778.94, -1719.81, -13742.08, 0.00, 0.00, 0.00, 0.00, 0.00, 0.00, 0.00
180, 4999.46, 57131.41, 3616.96, 26924.35, -15061.57, -434.85, 11663.32, -47220.85, -13113.30, 33798.63, -1727.21, -13790.53, 0.00, 0.00, 0.00, 0.00, 0.00, 0.00, 0.00
181, 5012.78, 57102.89, 3593.31, 26903.38, -15045.14, -454.32, 11644.83, -47293.85, -13113.30, 33798.63, -1727.21, -13790.53, 0.00, 0.00, 0.00, 0.00, 0.00, 0.00, 0.00
182, 5012.78, 57102.89, 3593.31, 26903.38, -15045.14, -454.32, 11644.83, -47293.85, -13119.67, 33781.13, -1738.63, -13801.78, 0.00, 0.00, 0.00, 0.00, 0.00, 0.00, 0.00
183, 5028.96, 57120.48, 3609.99, 26930.25, -15004.73, -426.99, 11665.15, -47307.24, -13119.67, 33781.13, -1738.63, -13801.78, 0.00, 0.00, 0.00, 0.00, 0.00, 0.00, 0.00
184, 5028.96, 57120.48, 3609.99, 26930.25, -15004.73, -426.99, 11665.15, -47307.24, -13106.97, 33817.83, -1727.86, -13889.51, 0.00, 0.00, 0.00, 0.00, 0.00, 0.00, 0.00
185, 5028.58, 57119.77, 3597.13, 26918.56, -15034.68, -437.47, 11649.08, -47371.59, -13106.97, 33817.83, -1727.86, -13889.51, 0.00, 0.00, 0.00, 0.00, 0.00, 0.00, 0.00
186, 5028.58, 57119.77, 3597.13, 26918.56, -15034.68, -437.47, 11649.08, -47371.59, -13112.87, 33764.14, -1768.92, -13790.02, 0.00, 0.00, 0.00, 0.00, 0.00, 0.00, 0.00
187, 5012.11, 57111.90, 3574.18, 26922.21, -15047.64, -418.54, 11632.09, -47431.92, -13112.87, 33764.14, -1768.92, -13790.02, 0.00, 0.00, 0.00, 0.00, 0.05, 0.40, 0.94
188, 5012.11, 57111.90, 3574.18, 26922.21, -15047.64, -418.54, 11632.09, -47431.92, -13101.90, 33777.17, -1752.78, -13895.03, 0.00, 0.00, 0.00, 0.00, 0.00, 0.00, 0.00
189, 5028.07, 57111.30, 3570.83, 26913.09, -15065.99, -448.24, 11639.54, -47461.96, -13101.90, 33777.17, -1752.78, -13895.03, 0.00, 0.00, 0.00, 0.00, 0.00, 0.00, 0.00
190, 5028.07, 57111.30, 3570.83, 26913.09, -15065.99, -448.24, 11639.54, -47461.96, -13117.86, 33769.51, -1787.78, -13872.70, 0.00, 0.00, 0.00, 0.00, 0.00, 0.00, 0.00
191, 4988.73, 57088.03, 3551.78, 26898.69, -15056.02, -463.26, 11607.75, -47515.38, -13117.86, 33769.51, -1787.78, -13872.70, 0.00, 0.00, 0.00, 0.00, 0.00, 0.00, 0.00
192, 4988.73, 57088.03, 3551.78, 26898.69, -15056.02, -463.26, 11607.75, -47515.38, -13121.37, 33772.95, -1782.15, -13949.99, 0.00, 0.00, 0.00, 0.00, 0.00, 0.00, 0.00
193, 5018.35, 57116.53, 3560.41, 26920.53, -15058.68, -436.82, 11638.22, -47500.03, -13121.37, 33772.95, -1782.15, -13949.99, 0.00, 0.00, 0.00, 0.00, 0.00, 0.00, 0.00
194, 5018.35, 57116.53, 3560.41, 26920.53, -15058.68, -436.82, 11638.22, -47500.03, -13120.23, 33760.99, -1776.58, -13832.71, 0.00, 0.00, 0.00, 0.00, 0.00, 0.00, 0.00
195, 5029.25, 57100.75, 3561.82, 26928.53, -15045.50, -425.53, 11635.85, -47524.01, -13120.23, 33760.99, -1776.58, -13832.71, 0.00, 0.00, 0.00, 0.00, 0.00, 0.00, 0.00
196, 5029.25, 57100.75, 3561.82, 26928.53, -15045.50, -425.53, 11635.85, -47524.01, -13116.47, 33783.77, -1793.75, -13949.03, 0.00, 0.00, 0.00, 0.00, 0.00, 0.00, 0.00
197, 5016.67, 57103.32, 3566.11, 26936.87, -15058.95, -416.50, 11638.37, -47567.06, -13116.47, 33783.77, -1793.75, -13949.03, 0.00, 0.00, 0.00, 0.00, 0.04, 0.40, 0.93
198, 5016.67, 57103.32, 3566.11, 26936.87, -15058.95, -416.50, 11638.37, -47567.06, -13097.85, 33758.62, -1794.98, -13937.25, 0.00, 0.00, 0.00, 0.00, 0.00, 0.00, 0.00
199, 5028.63, 57111.97, 3552.43, 26935.62, -15036.58, -401.95, 11616.65, -47595.60, -13097.85, 33758.62, -1794.98, -13937.25, 0.00, 0.00, 0.00, 0.00, 0.00, 0.00, 0.00
200, 5028.63, 57111.97, 3552.43, 26935.62, -15036.58, -401.95, 11616.65, -47595.60, -13104.63, 33791.77, -1795.16, -13988.82, 0.00, 0.00, 0.00, 0.00, 0.00, 0.00, 0.00
201, 5018.23, 57093.13, 3526.68, 26908.17, -15074.73, -474.59, 11626.93, -47642.05, -13104.63, 33791.77, -1795.16, -13988.82, 0.00, 0.00, 0.00, 0.00, 0.00, 0.00, 0.00
202, 5018.23, 57093.13, 3526.68, 26908.17, -15074.73, -474.59, 11626.93, -47642.05, -13140.03, 33726.59, -1853.41, -13957.39, 0.00, 0.00, 0.00, 0.00, 0.00, 0.00, 0.00
203, 4974.56, 57064.61, 3504.04, 26897.35, -15094.80, -457.43, 11588.40, -47718.13, -13140.03, 33726.59, -1853.41, -13957.39, 0.00, 0.00, 0.00, 0.00, 0.00, 0.00, 0.00
204, 4974.56, 57064.61, 3504.04, 26897.35, -15094.80, -457.43, 11588.40, -47718.13, -13137.30, 33754.91, -1855.71, -13986.13, 0.00, 0.00, 0.00, 0.00, 0.00, 0.00, 0.00
205, 5014.01, 57077.93, 3515.84, 26923.90, -15091.34, -444.29, 11619.46, -47729.22, -13137.30, 33754.91, -1855.71, -13986.13, 0.00, 0.00, 0.00, 0.00, 0.00, 0.00, 0.00
206, 5014.01, 57077.93, 3515.84, 26923.90, -15091.34, -444.29, 11619.46, -47729.22, -13112.96, 33728.74, -1845.25, -13966.53, 0.00, 0.00, 0.00, 0.00, 0.00, 0.00, 0.00
