%OpenBCI Raw EEG Data
%
%Sample Rate = 250.0 Hz
%First Column = SampleIndex
%Other Columns = EEG data in microvolts followed by Accel Data (in G) interleaved with Aux Data
0, 0.00, 0.00, 0.00, 0.00, 0.00, 0.00, 0.00, 0.00, -165.05, 21240.66, 6943.52, -17953.61, 0.00, 0.00, 0.00, 0.00, -0.06, 0.24, 0.44
1, 5550.07, 76132.32, 13099.71, 33094.93, -29914.88, -4076.00, 10075.52, -28677.73, -165.05, 21240.66, 6943.52, -17953.61, 0.00, 0.00, 0.00, 0.00, 0.00, 0.00, 0.00
2, 5550.07, 76132.32, 13099.71, 33094.93, -29914.88, -4076.00, 10075.52, -28677.73, -342.70, 42484.47, 13892.08, -35915.59, 0.00, 0.00, 0.00, 0.00, 0.00, 0.00, 0.00
3, 5563.73, 76142.40, 13108.00, 33104.03, -29904.80, -4067.08, 10085.40, -28669.02, -342.70, 42484.47, 13892.08, -35915.59, 0.00, 0.00, 0.00, 0.00, 0.00, 0.00, 0.00
4, 5563.73, 76142.40, 13108.00, 33104.03, -29904.80, -4067.08, 10085.40, -28669.02, -349.42, 42471.31, 13878.87, -35929.20, 0.00, 0.00, 0.00, 0.00, 0.00, 0.00, 0.00
5, 5548.64, 76119.42, 13084.20, 33080.80, -29927.08, -4086.39, 10058.58, -28693.56, -349.42, 42471.31, 13878.87, -35929.20, 0.00, 0.00, 0.00, 0.00, 0.00, 0.00, 0.00
6, 5548.64, 76119.42, 13084.20, 33080.80, -29927.08, -4086.39, 10058.58, -28693.56, -351.06, 42476.09, 13882.53, -35931.46, 0.00, 0.00, 0.00, 0.00, 0.00, 0.00, 0.00
7, 5561.40, 76139.41, 13105.63, 33102.66, -29906.19, -4068.13, 10083.27, -28668.32, -351.06, 42476.09, 13882.53, -35931.46, 0.00, 0.00, 0.00, 0.00, -0.12, 0.48, 0.87
8, 5561.40, 76139.41, 13105.63, 33102.66, -29906.19, -4068.13, 10083.27, -28668.32, -348.93, 42471.44, 13880.59, -35935.52, 0.00, 0.00, 0.00, 0.00, 0.00, 0.00, 0.00
9, 5541.06, 76121.70, 13089.34, 33082.84, -29924.45, -4084.40, 10065.64, -28689.80, -348.93, 42471.44, 13880.59, -35935.52, 0.00, 0.00, 0.00, 0.00, 0.00, 0.00, 0.00
10, 5541.06, 76121.70, 13089.34, 33082.84, -29924.45, -4084.40, 10065.64, -28689.80, -344.28, 42476.05, 13884.93, -35934.52, 0.00, 0.00, 0.00, 0.00, 0.00, 0.00, 0.00
11, 5570.28, 76144.55, 13112.32, 33106.93, -29899.57, -4064.37, 10088.71, -28665.51, -344.28, 42476.05, 13884.93, -35934.52, 0.00, 0.00, 0.00, 0.00, 0.00, 0.00, 0.00
12, 5570.28, 76144.55, 13112.32, 33106.93, -29899.57, -4064.37, 10088.71, -28665.51, -340.44, 42477.39, 13886.94, -35916.21, 0.00, 0.00, 0.00, 0.00, 0.00, 0.00, 0.00
13, 5552.82, 76130.11, 13098.97, 33089.72, -29911.68, -4077.61, 10069.55, -28681.18, -340.44, 42477.39, 13886.94, -35916.21, 0.00, 0.00, 0.00, 0.00, 0.00, 0.00, 0.00
14, 5552.82, 76130.11, 13098.97, 33089.72, -29911.68, -4077.61, 10069.55, -28681.18, -338.36, 42478.19, 13890.09, -35923.99, 0.00, 0.00, 0.00, 0.00, 0.00, 0.00, 0.00
15, 5571.91, 76150.96, 13117.12, 33110.60, -29893.65, -4061.58, 10091.92, -28660.08, -338.36, 42478.19, 13890.09, -35923.99, 0.00, 0.00, 0.00, 0.00, 0.00, 0.00, 0.00
16, 5571.91, 76150.96, 13117.12, 33110.60, -29893.65, -4061.58, 10091.92, -28660.08, -337.35, 42483.09, 13891.83, -35932.55, 0.00, 0.00, 0.00, 0.00, -0.12, 0.48, 0.88
17, 5546.61, 76126.28, 13093.99, 33087.00, -29917.41, -4082.30, 10069.80, -28686.27, -337.35, 42483.09, 13891.83, -35932.55, 0.00, 0.00, 0.00, 0.00, 0.00, 0.00, 0.00
18, 5546.61, 76126.28, 13093.99, 33087.00, -29917.41, -4082.30, 10069.80, -28686.27, -344.49, 42470.35, 13873.35, -35922.36, 0.00, 0.00, 0.00, 0.00, 0.00, 0.00, 0.00
19, 5561.02, 76139.72, 13106.55, 33101.39, -29903.15, -4069.38, 10086.16, -28668.79, -344.49, 42470.35, 13873.35, -35922.36, 0.00, 0.00, 0.00, 0.00, 0.00, 0.00, 0.00
20, 5561.02, 76139.72, 13106.55, 33101.39, -29903.15, -4069.38, 10086.16, -28668.79, -343.05, 42480.81, 13878.00, -35921.67, 0.00, 0.00, 0.00, 0.00, 0.00, 0.00, 0.00
21, 5542.56, 76123.69, 13089.00, 33081.70, -29921.03, -4084.00, 10067.36, -28684.82, -343.05, 42480.81, 13878.00, -35921.67, 0.00, 0.00, 0.00, 0.00, 0.00, 0.00, 0.00
22, 5542.56, 76123.69, 13089.00, 33081.70, -29921.03, -4084.00, 10067.36, -28684.82, -346.25, 42471.42, 13866.55, -35930.32, 0.00, 0.00, 0.00, 0.00, 0.00, 0.00, 0.00
23, 5558.21, 76140.14, 13101.83, 33095.45, -29903.75, -4072.13, 10082.49, -28670.18, -346.25, 42471.42, 13866.55, -35930.32, 0.00, 0.00, 0.00, 0.00, 0.00, 0.00, 0.00
24, 5558.21, 76140.14, 13101.83, 33095.45, -29903.75, -4072.13, 10082.49, -28670.18, -343.73, 42483.00, 13882.65, -35931.79, 0.00, 0.00, 0.00, 0.00, 0.00, 0.00, 0.00
25, 5546.34, 76132.32, 13094.46, 33083.57, -29914.17, -4082.86, 10068.48, -28682.16, -343.73, 42483.00, 13882.65, -35931.79, 0.00, 0.00, 0.00, 0.00, 0.00, 0.00, 0.00
26, 5546.34, 76132.32, 13094.46, 33083.57, -29914.17, -4082.86, 10068.48, -28682.16, -342.41, 42470.01, 13874.51, -35922.79, 0.00, 0.00, 0.00, 0.00, -0.12, 0.48, 0.88
27, 5564.47, 76146.69, 13108.78, 33099.49, -29901.67, -4069.83, 10087.52, -28665.13, -342.41, 42470.01, 13874.51, -35922.79, 0.00, 0.00, 0.00, 0.00, 0.00, 0.00, 0.00
28, 5564.47, 76146.69, 13108.78, 33099.49, -29901.67, -4069.83, 10087.52, -28665.13, -341.94, 42486.62, 13887.09, -35922.36, 0.00, 0.00, 0.00, 0.00, 0.00, 0.00, 0.00
29, 5561.90, 76142.06, 13101.92, 33092.61, -29909.20, -4076.49, 10075.18, -28677.73, -341.94, 42486.62, 13887.09, -35922.36, 0.00, 0.00, 0.00, 0.00, 0.00, 0.00, 0.00
30, 5561.90, 76142.06, 13101.92, 33092.61, -29909.20, -4076.49, 10075.18, -28677.73, -338.96, 42479.33, 13882.67, -35915.83, 0.00, 0.00, 0.00, 0.00, 0.00, 0.00, 0.00
31, 5568.94, 76153.69, 13113.99, 33103.43, -29896.31, -4067.57, 10088.44, -28663.61, -338.96, 42479.33, 13882.67, -35915.83, 0.00, 0.00, 0.00, 0.00, 0.00, 0.00, 0.00
32, 5568.94, 76153.69, 13113.99, 33103.43, -29896.31, -4067.57, 10088.44, -28663.61, -336.80, 42494.38, 13897.46, -35927.41, 0.00, 0.00, 0.00, 0.00, 0.00, 0.00, 0.00
33, 5565.92, 76152.48, 13113.14, 33101.88, -29897.29, -4067.57, 10085.75, -28667.45, -336.80, 42494.38, 13897.46, -35927.41, 0.00, 0.00, 0.00, 0.00, 0.00, 0.00, 0.00
34, 5565.92, 76152.48, 13113.14, 33101.88, -29897.29, -4067.57, 10085.75, -28667.45, -338.23, 42473.50, 13883.29, -35914.09, 0.00, 0.00, 0.00, 0.00, 0.00, 0.00, 0.00
35, 5568.42, 76148.39, 13109.21, 33099.98, -29901.45, -4071.08, 10085.38, -28668.35, -338.23, 42473.50, 13883.29, -35914.09, 0.00, 0.00, 0.00, 0.00, 0.00, 0.00, 0.00
36, 5568.42, 76148.39, 13109.21, 33099.98, -29901.45, -4071.08, 10085.38, -28668.35, -343.32, 42487.51, 13885.37, -35924.01, 0.00, 0.00, 0.00, 0.00, -0.12, 0.47, 0.88
37, 5565.79, 76142.94, 13104.34, 33100.68, -29900.24, -4069.98, 10083.14, -28669.35, -343.32, 42487.51, 13885.37, -35924.01, 0.00, 0.00, 0.00, 0.00, 0.00, 0.00, 0.00
38, 5565.79, 76142.94, 13104.34, 33100.68, -29900.24, -4069.98, 10083.14, -28669.35, -344.26, 42473.48, 13866.37, -35918.65, 0.00, 0.00, 0.00, 0.00, 0.00, 0.00, 0.00
39, 5554.32, 76128.90, 13091.26, 33091.82, -29910.81, -4077.58, 10076.14, -28673.67, -344.26, 42473.48, 13866.37, -35918.65, 0.00, 0.00, 0.00, 0.00, 0.00, 0.00, 0.00
40, 5554.32, 76128.90, 13091.26, 33091.82, -29910.81, -4077.58, 10076.14, -28673.67, -349.04, 42483.82, 13867.38, -35939.28, 0.00, 0.00, 0.00, 0.00, 0.00, 0.00, 0.00
41, 5552.82, 76138.38, 13099.53, 33100.21, -29902.52, -4070.43, 10082.60, -28668.44, -349.04, 42483.82, 13867.38, -35939.28, 0.00, 0.00, 0.00, 0.00, 0.00, 0.00, 0.00
42, 5552.82, 76138.38, 13099.53, 33100.21, -29902.52, -4070.43, 10082.60, -28668.44, -346.32, 42470.05, 13857.70, -35918.76, 0.00, 0.00, 0.00, 0.00, 0.00, 0.00, 0.00
43, 5546.36, 76124.25, 13085.87, 33087.13, -29914.97, -4079.86, 10070.98, -28678.34, -346.32, 42470.05, 13857.70, -35918.76, 0.00, 0.00, 0.00, 0.00, 0.00, 0.00, 0.00
44, 5546.36, 76124.25, 13085.87, 33087.13, -29914.97, -4079.86, 10070.98, -28678.34, -345.42, 42484.52, 13860.05, -35931.16, 0.00, 0.00, 0.00, 0.00, 0.00, 0.00, 0.00
45, 5555.86, 76133.93, 13095.57, 33099.02, -29903.15, -4072.44, 10080.79, -28670.45, -345.42, 42484.52, 13860.05, -35931.16, 0.00, 0.00, 0.00, 0.00, 0.00, 0.00, 0.00
46, 5555.86, 76133.93, 13095.57, 33099.02, -29903.15, -4072.44, 10080.79, -28670.45, -350.16, 42464.74, 13850.37, -35926.11, 0.00, 0.00, 0.00, 0.00, -0.12, 0.48, 0.89
47, 5543.17, 76119.96, 13081.83, 33086.66, -29918.72, -4084.71, 10068.41, -28685.42, -350.16, 42464.74, 13850.37, -35926.11, 0.00, 0.00, 0.00, 0.00, 0.00, 0.00, 0.00
48, 5543.17, 76119.96, 13081.83, 33086.66, -29918.72, -4084.71, 10068.41, -28685.42, -345.87, 42480.74, 13860.38, -35927.39, 0.00, 0.00, 0.00, 0.00, 0.00, 0.00, 0.00
49, 5560.09, 76144.70, 13106.71, 33109.14, -29895.17, -4061.98, 10091.63, -28658.47, -345.87, 42480.74, 13860.38, -35927.39, 0.00, 0.00, 0.00, 0.00, 0.00, 0.00, 0.00
50, 5560.09, 76144.70, 13106.71, 33109.14, -29895.17, -4061.98, 10091.63, -28658.47, -336.84, 42477.61, 13859.69, -35915.95, 0.00, 0.00, 0.00, 0.00, 0.00, 0.00, 0.00
51, 5552.67, 76127.42, 13089.54, 33093.84, -29905.92, -4077.36, 10073.33, -28676.79, -336.84, 42477.61, 13859.69, -35915.95, 0.00, 0.00, 0.00, 0.00, 0.00, 0.00, 0.00
52, 5552.67, 76127.42, 13089.54, 33093.84, -29905.92, -4077.36, 10073.33, -28676.79, -340.80, 42485.99, 13865.90, -35917.78, 0.00, 0.00, 0.00, 0.00, 0.00, 0.00, 0.00
53, 5559.79, 76141.30, 13105.59, 33110.71, -29895.41, -4062.50, 10089.00, -28660.95, -340.80, 42485.99, 13865.90, -35917.78, 0.00, 0.00, 0.00, 0.00, 0.00, 0.00, 0.00
54, 5559.79, 76141.30, 13105.59, 33110.71, -29895.41, -4062.50, 10089.00, -28660.95, -341.51, 42478.24, 13860.54, -35921.09, 0.00, 0.00, 0.00, 0.00, 0.00, 0.00, 0.00
55, 5551.77, 76128.59, 13092.78, 33095.31, -29906.37, -4078.41, 10078.92, -28672.37, -341.51, 42478.24, 13860.54, -35921.09, 0.00, 0.00, 0.00, 0.00, -0.11, 0.48, 0.88
56, 5551.77, 76128.59, 13092.78, 33095.31, -29906.37, -4078.41, 10078.92, -28672.37, -331.54, 42493.66, 13866.53, -35922.09, 0.00, 0.00, 0.00, 0.00, 0.00, 0.00, 0.00
57, 5559.10, 76147.20, 13106.64, 33113.24, -29892.19, -4061.62, 10095.97, -28652.83, -331.54, 42493.66, 13866.53, -35922.09, 0.00, 0.00, 0.00, 0.00, 0.00, 0.00, 0.00
58, 5559.10, 76147.20, 13106.64, 33113.24, -29892.19, -4061.62, 10095.97, -28652.83, -340.53, 42479.91, 13861.19, -35913.89, 0.00, 0.00, 0.00, 0.00, 0.00, 0.00, 0.00
59, 5543.61, 76121.77, 13084.24, 33088.83, -29910.50, -4081.72, 10070.78, -28678.67, -340.53, 42479.91, 13861.19, -35913.89, 0.00, 0.00, 0.00, 0.00, 0.00, 0.00, 0.00
60, 5543.61, 76121.77, 13084.24, 33088.83, -29910.50, -4081.72, 10070.78, -28678.67, -339.46, 42482.48, 13859.24, -35917.00, 0.00, 0.00, 0.00, 0.00, 0.00, 0.00, 0.00
61, 5565.85, 76144.81, 13105.65, 33111.43, -29888.06, -4062.83, 10093.62, -28655.92, -339.46, 42482.48, 13859.24, -35917.00, 0.00, 0.00, 0.00, 0.00, 0.00, 0.00, 0.00
62, 5565.85, 76144.81, 13105.65, 33111.43, -29888.06, -4062.83, 10093.62, -28655.92, -340.04, 42483.73, 13864.85, -35921.20, 0.00, 0.00, 0.00, 0.00, 0.00, 0.00, 0.00
63, 5543.90, 76125.48, 13086.43, 33093.95, -29911.48, -4079.39, 10069.86, -28678.63, -340.04, 42483.73, 13864.85, -35921.20, 0.00, 0.00, 0.00, 0.00, 0.00, 0.00, 0.00
64, 5543.90, 76125.48, 13086.43, 33093.95, -29911.48, -4079.39, 10069.86, -28678.63, -341.87, 42480.25, 13857.23, -35931.95, 0.00, 0.00, 0.00, 0.00, 0.00, 0.00, 0.00
65, 5564.24, 76147.52, 13107.96, 33113.68, -29891.63, -4060.04, 10091.52, -28658.91, -341.87, 42480.25, 13857.23, -35931.95, 0.00, 0.00, 0.00, 0.00, -0.11, 0.48, 0.88
66, 5564.24, 76147.52, 13107.96, 33113.68, -29891.63, -4060.04, 10091.52, -28658.91, -347.26, 42478.04, 13863.96, -35918.02, 0.00, 0.00, 0.00, 0.00, 0.00, 0.00, 0.00
67, 5554.59, 76131.11, 13093.07, 33096.79, -29907.53, -4077.79, 10073.64, -28678.74, -347.26, 42478.04, 13863.96, -35918.02, 0.00, 0.00, 0.00, 0.00, 0.00, 0.00, 0.00
68, 5554.59, 76131.11, 13093.07, 33096.79, -29907.53, -4077.79, 10073.64, -28678.74, -347.06, 42469.12, 13858.01, -35919.88, 0.00, 0.00, 0.00, 0.00, 0.00, 0.00, 0.00
69, 5570.37, 76148.81, 13110.44, 33116.30, -29889.53, -4061.49, 10092.53, -28661.04, -347.06, 42469.12, 13858.01, -35919.88, 0.00, 0.00, 0.00, 0.00, 0.00, 0.00, 0.00
70, 5570.37, 76148.81, 13110.44, 33116.30, -29889.53, -4061.49, 10092.53, -28661.04, -345.58, 42482.75, 13865.88, -35922.74, 0.00, 0.00, 0.00, 0.00, 0.00, 0.00, 0.00
71, 5554.63, 76133.84, 13095.71, 33100.90, -29904.20, -4073.16, 10077.64, -28675.23, -345.58, 42482.75, 13865.88, -35922.74, 0.00, 0.00, 0.00, 0.00, 0.00, 0.00, 0.00
72, 5554.63, 76133.84, 13095.71, 33100.90, -29904.20, -4073.16, 10077.64, -28675.23, -345.47, 42471.26, 13851.82, -35927.05, 0.00, 0.00, 0.00, 0.00, 0.00, 0.00, 0.00
73, 5562.72, 76145.75, 13106.48, 33113.97, -29891.59, -4062.79, 10089.93, -28662.00, -345.47, 42471.26, 13851.82, -35927.05, 0.00, 0.00, 0.00, 0.00, 0.00, 0.00, 0.00
74, 5562.72, 76145.75, 13106.48, 33113.97, -29891.59, -4062.79, 10089.93, -28662.00, -349.31, 42479.36, 13864.27, -35933.07, 0.00, 0.00, 0.00, 0.00, 0.00, 0.00, 0.00
75, 5553.07, 76129.81, 13092.65, 33099.38, -29905.02, -4073.34, 10073.37, -28676.88, -349.31, 42479.36, 13864.27, -35933.07, 0.00, 0.00, 0.00, 0.00, -0.12, 0.47, 0.88
76, 5553.07, 76129.81, 13092.65, 33099.38, -29905.02, -4073.34, 10073.37, -28676.88, -343.97, 42465.05, 13851.26, -35913.02, 0.00, 0.00, 0.00, 0.00, 0.00, 0.00, 0.00
77, 5561.02, 76134.64, 13097.38, 33109.44, -29894.72, -4066.45, 10087.25, -28663.43, -343.97, 42465.05, 13851.26, -35913.02, 0.00, 0.00, 0.00, 0.00, 0.00, 0.00, 0.00
78, 5561.02, 76134.64, 13097.38, 33109.44, -29894.72, -4066.45, 10087.25, -28663.43, -343.14, 42483.64, 13862.28, -35930.09, 0.00, 0.00, 0.00, 0.00, 0.00, 0.00, 0.00
79, 5561.69, 76136.81, 13101.25, 33106.62, -29897.25, -4069.00, 10083.03, -28668.30, -343.14, 42483.64, 13862.28, -35930.09, 0.00, 0.00, 0.00, 0.00, 0.00, 0.00, 0.00
80, 5561.69, 76136.81, 13101.25, 33106.62, -29897.25, -4069.00, 10083.03, -28668.30, -344.91, 42467.13, 13850.88, -35920.62, 0.00, 0.00, 0.00, 0.00, 0.00, 0.00, 0.00
81, 5559.21, 76139.31, 13101.68, 33110.75, -29899.26, -4067.12, 10084.73, -28668.32, -344.91, 42467.13, 13850.88, -35920.62, 0.00, 0.00, 0.00, 0.00, 0.00, 0.00, 0.00
82, 5559.21, 76139.31, 13101.68, 33110.75, -29899.26, -4067.12, 10084.73, -28668.32, -343.64, 42484.29, 13862.98, -35925.49, 0.00, 0.00, 0.00, 0.00, 0.00, 0.00, 0.00
83, 5565.94, 76138.40, 13103.31, 33110.67, -29895.21, -4065.18, 10087.45, -28668.53, -343.64, 42484.29, 13862.98, -35925.49, 0.00, 0.00, 0.00, 0.00, 0.00, 0.00, 0.00
84, 5565.94, 76138.40, 13103.31, 33110.67, -29895.21, -4065.18, 10087.45, -28668.53, -342.76, 42468.07, 13852.74, -35914.76, 0.00, 0.00, 0.00, 0.00, 0.00, 0.00, 0.00
85, 5563.33, 76136.32, 13098.70, 33104.48, -29896.51, -4068.51, 10082.04, -28668.57, -342.76, 42468.07, 13852.74, -35914.76, 0.00, 0.00, 0.00, 0.00, -0.12, 0.47, 0.88
86, 5563.33, 76136.32, 13098.70, 33104.48, -29896.51, -4068.51, 10082.04, -28668.57, -346.76, 42481.55, 13861.25, -35934.92, 0.00, 0.00, 0.00, 0.00, 0.00, 0.00, 0.00
87, 5559.73, 76137.51, 13101.79, 33106.22, -29893.96, -4064.98, 10086.40, -28665.78, -346.76, 42481.55, 13861.25, -35934.92, 0.00, 0.00, 0.00, 0.00, 0.00, 0.00, 0.00
88, 5559.73, 76137.51, 13101.79, 33106.22, -29893.96, -4064.98, 10086.40, -28665.78, -340.98, 42468.58, 13851.20, -35907.94, 0.00, 0.00, 0.00, 0.00, 0.00, 0.00, 0.00
89, 5547.32, 76132.01, 13096.38, 33100.77, -29900.22, -4071.71, 10079.63, -28670.29, -340.98, 42468.58, 13851.20, -35907.94, 0.00, 0.00, 0.00, 0.00, 0.00, 0.00, 0.00
90, 5547.32, 76132.01, 13096.38, 33100.77, -29900.22, -4071.71, 10079.63, -28670.29, -340.62, 42483.36, 13862.78, -35926.45, 0.00, 0.00, 0.00, 0.00, 0.00, 0.00, 0.00
91, 5562.79, 76140.32, 13101.68, 33109.93, -29887.50, -4061.04, 10092.28, -28659.14, -340.62, 42483.36, 13862.78, -35926.45, 0.00, 0.00, 0.00, 0.00, 0.00, 0.00, 0.00
92, 5562.79, 76140.32, 13101.68, 33109.93, -29887.50, -4061.04, 10092.28, -28659.14, -336.86, 42472.58, 13853.97, -35913.89, 0.00, 0.00, 0.00, 0.00, 0.00, 0.00, 0.00
93, 5552.11, 76128.92, 13091.13, 33100.34, -29898.99, -4070.41, 10085.53, -28668.06, -336.86, 42472.58, 13853.97, -35913.89, 0.00, 0.00, 0.00, 0.00, 0.00, 0.00, 0.00
94, 5552.11, 76128.92, 13091.13, 33100.34, -29898.99, -4070.41, 10085.53, -28668.06, -339.68, 42482.71, 13860.16, -35929.29, 0.00, 0.00, 0.00, 0.00, -0.12, 0.46, 0.88
95, 5561.07, 76139.83, 13101.54, 33110.91, -29890.21, -4062.54, 10095.10, -28659.00, -339.68, 42482.71, 13860.16, -35929.29, 0.00, 0.00, 0.00, 0.00, 0.00, 0.00, 0.00
96, 5561.07, 76139.83, 13101.54, 33110.91, -29890.21, -4062.54, 10095.10, -28659.00, -335.19, 42472.96, 13853.61, -35908.75, 0.00, 0.00, 0.00, 0.00, 0.00, 0.00, 0.00
97, 5549.29, 76127.91, 13090.86, 33097.59, -29901.02, -4071.48, 10079.88, -28669.33, -335.19, 42472.96, 13853.61, -35908.75, 0.00, 0.00, 0.00, 0.00, 0.00, 0.00, 0.00
98, 5549.29, 76127.91, 13090.86, 33097.59, -29901.02, -4071.48, 10079.88, -28669.33, -336.24, 42485.66, 13860.76, -35923.52, 0.00, 0.00, 0.00, 0.00, 0.00, 0.00, 0.00
99, 5557.72, 76134.76, 13097.63, 33108.25, -29890.43, -4061.92, 10091.34, -28659.27, -336.24, 42485.66, 13860.76, -35923.52, 0.00, 0.00, 0.00, 0.00, 0.00, 0.00, 0.00
100, 5557.72, 76134.76, 13097.63, 33108.25, -29890.43, -4061.92, 10091.34, -28659.27, -340.24, 42467.93, 13846.44, -35914.74, 0.00, 0.00, 0.00, 0.00, 0.00, 0.00, 0.00
101, 5547.77, 76121.59, 13085.22, 33094.66, -29904.22, -4076.73, 10075.45, -28675.79, -340.24, 42467.93, 13846.44, -35914.74, 0.00, 0.00, 0.00, 0.00, 0.00, 0.00, 0.00
102, 5547.77, 76121.59, 13085.22, 33094.66, -29904.22, -4076.73, 10075.45, -28675.79, -337.60, 42481.21, 13856.29, -35925.69, 0.00, 0.00, 0.00, 0.00, 0.00, 0.00, 0.00
103, 5565.56, 76141.66, 13102.59, 33113.86, -29888.60, -4059.77, 10097.20, -28653.13, -337.60, 42481.21, 13856.29, -35925.69, 0.00, 0.00, 0.00, 0.00, 0.00, 0.00, 0.00
104, 5565.56, 76141.66, 13102.59, 33113.86, -29888.60, -4059.77, 10097.20, -28653.13, -329.44, 42482.46, 13860.58, -35908.34, 0.00, 0.00, 0.00, 0.00, -0.12, 0.47, 0.88
105, 5552.51, 76130.76, 13092.87, 33099.04, -29899.12, -4069.94, 10082.00, -28669.35, -329.44, 42482.46, 13860.58, -35908.34, 0.00, 0.00, 0.00, 0.00, 0.00, 0.00, 0.00
106, 5552.51, 76130.76, 13092.87, 33099.04, -29899.12, -4069.94, 10082.00, -28669.35, -338.74, 42474.13, 13859.89, -35916.84, 0.00, 0.00, 0.00, 0.00, 0.00, 0.00, 0.00
107, 5569.18, 76140.19, 13102.59, 33114.73, -29886.94, -4057.06, 10099.61, -28657.57, -338.74, 42474.13, 13859.89, -35916.84, 0.00, 0.00, 0.00, 0.00, 0.00, 0.00, 0.00
108, 5569.18, 76140.19, 13102.59, 33114.73, -29886.94, -4057.06, 10099.61, -28657.57, -343.08, 42471.96, 13857.97, -35921.69, 0.00, 0.00, 0.00, 0.00, 0.00, 0.00, 0.00
109, 5551.64, 76121.99, 13086.86, 33096.20, -29903.79, -4074.45, 10075.85, -28672.41, -343.08, 42471.96, 13857.97, -35921.69, 0.00, 0.00, 0.00, 0.00, 0.00, 0.00, 0.00
110, 5551.64, 76121.99, 13086.86, 33096.20, -29903.79, -4074.45, 10075.85, -28672.41, -337.73, 42478.82, 13856.02, -35918.40, 0.00, 0.00, 0.00, 0.00, 0.00, 0.00, 0.00
111, 5561.47, 76137.37, 13101.16, 33110.80, -29888.77, -4060.15, 10095.48, -28653.73, -337.73, 42478.82, 13856.02, -35918.40, 0.00, 0.00, 0.00, 0.00, 0.00, 0.00, 0.00
112, 5561.47, 76137.37, 13101.16, 33110.80, -29888.77, -4060.15, 10095.48, -28653.73, -336.80, 42479.62, 13859.13, -35912.55, 0.00, 0.00, 0.00, 0.00, 0.00, 0.00, 0.00
113, 5553.09, 76125.05, 13089.14, 33097.70, -29903.44, -4073.00, 10078.87, -28673.49, -336.80, 42479.62, 13859.13, -35912.55, 0.00, 0.00, 0.00, 0.00, 0.00, 0.00, 0.00
114, 5553.09, 76125.05, 13089.14, 33097.70, -29903.44, -4073.00, 10078.87, -28673.49, -339.55, 42473.70, 13859.15, -35920.37, 0.00, 0.00, 0.00, 0.00, -0.12, 0.47, 0.87
115, 5565.65, 76142.69, 13103.26, 33110.40, -29889.29, -4061.29, 10098.76, -28657.62, -339.55, 42473.70, 13859.15, -35920.37, 0.00, 0.00, 0.00, 0.00, 0.00, 0.00, 0.00
116, 5565.65, 76142.69, 13103.26, 33110.40, -29889.29, -4061.29, 10098.76, -28657.62, -336.53, 42480.16, 13862.48, -35920.95, 0.00, 0.00, 0.00, 0.00, 0.00, 0.00, 0.00
117, 5559.68, 76128.95, 13091.89, 33098.64, -29901.65, -4069.40, 10081.22, -28672.15, -336.53, 42480.16, 13862.48, -35920.95, 0.00, 0.00, 0.00, 0.00, 0.00, 0.00, 0.00
118, 5559.68, 76128.95, 13091.89, 33098.64, -29901.65, -4069.40, 10081.22, -28672.15, -335.77, 42469.99, 13856.96, -35918.49, 0.00, 0.00, 0.00, 0.00, 0.00, 0.00, 0.00
119, 5569.36, 76145.53, 13108.16, 33114.45, -29886.29, -4059.88, 10099.41, -28655.92, -335.77, 42469.99, 13856.96, -35918.49, 0.00, 0.00, 0.00, 0.00, 0.00, 0.00, 0.00
120, 5569.36, 76145.53, 13108.16, 33114.45, -29886.29, -4059.88, 10099.41, -28655.92, -335.30, 42482.30, 13867.45, -35913.62, 0.00, 0.00, 0.00, 0.00, 0.00, 0.00, 0.00
121, 5562.52, 76131.76, 13096.69, 33100.25, -29896.26, -4069.25, 10085.73, -28668.35, -335.30, 42482.30, 13867.45, -35913.62, 0.00, 0.00, 0.00, 0.00, 0.00, 0.00, 0.00
122, 5562.52, 76131.76, 13096.69, 33100.25, -29896.26, -4069.25, 10085.73, -28668.35, -334.02, 42473.77, 13859.02, -35915.25, 0.00, 0.00, 0.00, 0.00, 0.00, 0.00, 0.00
123, 5563.33, 76139.72, 13102.73, 33107.83, -29889.65, -4060.17, 10096.51, -28657.84, -334.02, 42473.77, 13859.02, -35915.25, 0.00, 0.00, 0.00, 0.00, 0.00, 0.00, 0.00
124, 5563.33, 76139.72, 13102.73, 33107.83, -29889.65, -4060.17, 10096.51, -28657.84, -335.34, 42479.20, 13864.18, -35931.12, 0.00, 0.00, 0.00, 0.00, -0.12, 0.48, 0.88
125, 5555.66, 76125.05, 13090.72, 33099.80, -29899.21, -4067.99, 10085.31, -28669.26, -335.34, 42479.20, 13864.18, -35931.12, 0.00, 0.00, 0.00, 0.00, 0.00, 0.00, 0.00
126, 5555.66, 76125.05, 13090.72, 33099.80, -29899.21, -4067.99, 10085.31, -28669.26, -334.99, 42466.84, 13853.86, -35906.18, 0.00, 0.00, 0.00, 0.00, 0.00, 0.00, 0.00
127, 5551.75, 76131.31, 13095.48, 33100.90, -29891.32, -4065.11, 10093.80, -28660.57, -334.99, 42466.84, 13853.86, -35906.18, 0.00, 0.00, 0.00, 0.00, 0.00, 0.00, 0.00
128, 5551.75, 76131.31, 13095.48, 33100.90, -29891.32, -4065.11, 10093.80, -28660.57, -334.18, 42482.95, 13860.05, -35915.54, 0.00, 0.00, 0.00, 0.00, 0.00, 0.00, 0.00
129, 5554.10, 76129.39, 13093.61, 33099.82, -29892.26, -4064.31, 10091.92, -28660.37, -334.18, 42482.95, 13860.05, -35915.54, 0.00, 0.00, 0.00, 0.00, 0.00, 0.00, 0.00
130, 5554.10, 76129.39, 13093.61, 33099.82, -29892.26, -4064.31, 10091.92, -28660.37, -331.36, 42469.41, 13855.62, -35914.96, 0.00, 0.00, 0.00, 0.00, 0.00, 0.00, 0.00
131, 5549.87, 76130.30, 13095.91, 33101.57, -29891.01, -4066.10, 10095.21, -28659.45, -331.36, 42469.41, 13855.62, -35914.96, 0.00, 0.00, 0.00, 0.00, 0.00, 0.00, 0.00
132, 5549.87, 76130.30, 13095.91, 33101.57, -29891.01, -4066.10, 10095.21, -28659.45, -331.48, 42486.71, 13865.77, -35924.95, 0.00, 0.00, 0.00, 0.00, 0.00, 0.00, 0.00
133, 5550.61, 76126.77, 13092.74, 33101.34, -29888.15, -4063.46, 10097.00, -28655.05, -331.48, 42486.71, 13865.77, -35924.95, 0.00, 0.00, 0.00, 0.00, -0.11, 0.47, 0.87
134, 5550.61, 76126.77, 13092.74, 33101.34, -29888.15, -4063.46, 10097.00, -28655.05, -330.40, 42471.53, 13851.84, -35898.15, 0.00, 0.00, 0.00, 0.00, 0.00, 0.00, 0.00
135, 5539.12, 76115.89, 13085.22, 33095.76, -29895.88, -4068.93, 10089.89, -28663.34, -330.40, 42471.53, 13851.84, -35898.15, 0.00, 0.00, 0.00, 0.00, 0.00, 0.00, 0.00
136, 5539.12, 76115.89, 13085.22, 33095.76, -29895.88, -4068.93, 10089.89, -28663.34, -331.97, 42484.94, 13855.38, -35917.24, 0.00, 0.00, 0.00, 0.00, 0.00, 0.00, 0.00
137, 5540.46, 76118.35, 13086.83, 33099.40, -29891.77, -4064.55, 10093.13, -28661.04, -331.97, 42484.94, 13855.38, -35917.24, 0.00, 0.00, 0.00, 0.00, 0.00, 0.00, 0.00
138, 5540.46, 76118.35, 13086.83, 33099.40, -29891.77, -4064.55, 10093.13, -28661.04, -333.67, 42468.36, 13843.44, -35925.20, 0.00, 0.00, 0.00, 0.00, 0.00, 0.00, 0.00
139, 5531.54, 76104.71, 13075.21, 33090.46, -29901.98, -4071.84, 10087.86, -28664.19, -333.67, 42468.36, 13843.44, -35925.20, 0.00, 0.00, 0.00, 0.00, 0.00, 0.00, 0.00
140, 5531.54, 76104.71, 13075.21, 33090.46, -29901.98, -4071.84, 10087.86, -28664.19, -334.96, 42480.83, 13849.27, -35907.76, 0.00, 0.00, 0.00, 0.00, 0.00, 0.00, 0.00
141, 5536.17, 76114.48, 13083.39, 33097.50, -29890.61, -4065.58, 10096.28, -28656.08, -334.96, 42480.83, 13849.27, -35907.76, 0.00, 0.00, 0.00, 0.00, 0.00, 0.00, 0.00
142, 5536.17, 76114.48, 13083.39, 33097.50, -29890.61, -4065.58, 10096.28, -28656.08, -335.72, 42472.96, 13839.04, -35905.71, 0.00, 0.00, 0.00, 0.00, 0.00, 0.00, 0.00
143, 5529.82, 76103.10, 13074.67, 33091.51, -29901.89, -4073.05, 10083.45, -28665.66, -335.72, 42472.96, 13839.04, -35905.71, 0.00, 0.00, 0.00, 0.00, -0.12, 0.48, 0.87
144, 5529.82, 76103.10, 13074.67, 33091.51, -29901.89, -4073.05, 10083.45, -28665.66, -334.20, 42485.68, 13851.24, -35910.69, 0.00, 0.00, 0.00, 0.00, 0.00, 0.00, 0.00
145, 5537.31, 76113.32, 13085.09, 33101.32, -29889.76, -4062.81, 10098.07, -28655.58, -334.20, 42485.68, 13851.24, -35910.69, 0.00, 0.00, 0.00, 0.00, 0.00, 0.00, 0.00
146, 5537.31, 76113.32, 13085.09, 33101.32, -29889.76, -4062.81, 10098.07, -28655.58, -337.44, 42469.50, 13836.49, -35918.45, 0.00, 0.00, 0.00, 0.00, 0.00, 0.00, 0.00
147, 5527.85, 76099.20, 13073.94, 33089.70, -29904.02, -4072.96, 10082.45, -28671.34, -337.44, 42469.50, 13836.49, -35918.45, 0.00, 0.00, 0.00, 0.00, 0.00, 0.00, 0.00
148, 5527.85, 76099.20, 13073.94, 33089.70, -29904.02, -4072.96, 10082.45, -28671.34, -338.99, 42476.36, 13850.55, -35911.59, 0.00, 0.00, 0.00, 0.00, 0.00, 0.00, 0.00
149, 5545.62, 76119.04, 13089.85, 33104.54, -29888.19, -4059.72, 10102.09, -28651.49, -338.99, 42476.36, 13850.55, -35911.59, 0.00, 0.00, 0.00, 0.00, 0.00, 0.00, 0.00
150, 5545.62, 76119.04, 13089.85, 33104.54, -29888.19, -4059.72, 10102.09, -28651.49, -331.77, 42473.59, 13849.90, -35908.72, 0.00, 0.00, 0.00, 0.00, 0.00, 0.00, 0.00
151, 5536.77, 76109.50, 13079.82, 33092.89, -29898.47, -4072.13, 10085.44, -28667.38, -331.77, 42473.59, 13849.90, -35908.72, 0.00, 0.00, 0.00, 0.00, 0.00, 0.00, 0.00
152, 5536.77, 76109.50, 13079.82, 33092.89, -29898.47, -4072.13, 10085.44, -28667.38, -339.72, 42473.50, 13850.93, -35910.51, 0.00, 0.00, 0.00, 0.00, 0.00, 0.00, 0.00
153, 5548.51, 76123.60, 13093.12, 33107.11, -29887.84, -4059.30, 10100.75, -28653.62, -339.72, 42473.50, 13850.93, -35910.51, 0.00, 0.00, 0.00, 0.00, -0.12, 0.47, 0.88
154, 5548.51, 76123.60, 13093.12, 33107.11, -29887.84, -4059.30, 10100.75, -28653.62, -334.20, 42473.30, 13848.56, -35917.62, 0.00, 0.00, 0.00, 0.00, 0.00, 0.00, 0.00
155, 5537.89, 76109.25, 13080.31, 33093.19, -29897.09, -4070.99, 10086.13, -28668.37, -334.20, 42473.30, 13848.56, -35917.62, 0.00, 0.00, 0.00, 0.00, 0.00, 0.00, 0.00
156, 5537.89, 76109.25, 13080.31, 33093.19, -29897.09, -4070.99, 10086.13, -28668.37, -333.96, 42473.70, 13849.70, -35911.12, 0.00, 0.00, 0.00, 0.00, 0.00, 0.00, 0.00
157, 5551.66, 76122.55, 13092.69, 33108.34, -29887.28, -4059.66, 10104.20, -28650.62, -333.96, 42473.70, 13849.70, -35911.12, 0.00, 0.00, 0.00, 0.00, 0.00, 0.00, 0.00
158, 5551.66, 76122.55, 13092.69, 33108.34, -29887.28, -4059.66, 10104.20, -28650.62, -332.64, 42478.17, 13847.55, -35910.22, 0.00, 0.00, 0.00, 0.00, 0.00, 0.00, 0.00
159, 5532.82, 76102.99, 13074.83, 33090.95, -29899.10, -4071.71, 10083.99, -28668.12, -332.64, 42478.17, 13847.55, -35910.22, 0.00, 0.00, 0.00, 0.00, 0.00, 0.00, 0.00
160, 5532.82, 76102.99, 13074.83, 33090.95, -29899.10, -4071.71, 10083.99, -28668.12, -336.57, 42473.83, 13845.18, -35912.32, 0.00, 0.00, 0.00, 0.00, 0.00, 0.00, 0.00
161, 5550.12, 76122.91, 13093.45, 33110.80, -29885.22, -4058.29, 10103.50, -28652.48, -336.57, 42473.83, 13845.18, -35912.32, 0.00, 0.00, 0.00, 0.00, 0.00, 0.00, 0.00
162, 5550.12, 76122.91, 13093.45, 33110.80, -29885.22, -4058.29, 10103.50, -28652.48, -334.94, 42477.86, 13854.01, -35916.39, 0.00, 0.00, 0.00, 0.00, 0.00, 0.00, 0.00
163, 5540.21, 76109.41, 13081.04, 33096.03, -29895.03, -4068.02, 10091.14, -28665.71, -334.94, 42477.86, 13854.01, -35916.39, 0.00, 0.00, 0.00, 0.00, -0.12, 0.47, 0.88
164, 5540.21, 76109.41, 13081.04, 33096.03, -29895.03, -4068.02, 10091.14, -28665.71, -333.69, 42474.32, 13852.20, -35901.66, 0.00, 0.00, 0.00, 0.00, 0.00, 0.00, 0.00
165, 5554.18, 76129.73, 13098.95, 33112.95, -29879.07, -4054.18, 10108.84, -28647.92, -333.69, 42474.32, 13852.20, -35901.66, 0.00, 0.00, 0.00, 0.00, 0.00, 0.00, 0.00
166, 5554.18, 76129.73, 13098.95, 33112.95, -29879.07, -4054.18, 10108.84, -28647.92, -332.84, 42478.91, 13861.23, -35912.01, 0.00, 0.00, 0.00, 0.00, 0.00, 0.00, 0.00
167, 5544.80, 76117.55, 13089.54, 33098.64, -29889.31, -4067.15, 10094.92, -28660.84, -332.84, 42478.91, 13861.23, -35912.01, 0.00, 0.00, 0.00, 0.00, 0.00, 0.00, 0.00
168, 5544.80, 76117.55, 13089.54, 33098.64, -29889.31, -4067.15, 10094.92, -28660.84, -326.54, 42475.29, 13855.85, -35907.41, 0.00, 0.00, 0.00, 0.00, 0.00, 0.00, 0.00
169, 5546.70, 76124.34, 13097.16, 33109.04, -29876.37, -4056.28, 10109.72, -28644.10, -326.54, 42475.29, 13855.85, -35907.41, 0.00, 0.00, 0.00, 0.00, 0.00, 0.00, 0.00
170, 5546.70, 76124.34, 13097.16, 33109.04, -29876.37, -4056.28, 10109.72, -28644.10, -327.25, 42488.68, 13857.39, -35914.65, 0.00, 0.00, 0.00, 0.00, 0.00, 0.00, 0.00
171, 5538.45, 76107.87, 13081.72, 33097.93, -29888.15, -4062.79, 10098.38, -28655.34, -327.25, 42488.68, 13857.39, -35914.65, 0.00, 0.00, 0.00, 0.00, 0.00, 0.00, 0.00
172, 5538.45, 76107.87, 13081.72, 33097.93, -29888.15, -4062.79, 10098.38, -28655.34, -321.73, 42486.11, 13849.57, -35887.56, 0.00, 0.00, 0.00, 0.00, -0.12, 0.47, 0.88
173, 5544.82, 76121.92, 13094.68, 33109.06, -29875.97, -4054.05, 10116.38, -28638.37, -321.73, 42486.11, 13849.57, -35887.56, 0.00, 0.00, 0.00, 0.00, 0.00, 0.00, 0.00
174, 5544.82, 76121.92, 13094.68, 33109.06, -29875.97, -4054.05, 10116.38, -28638.37, -321.04, 42494.35, 13865.68, -35899.65, 0.00, 0.00, 0.00, 0.00, 0.00, 0.00, 0.00
175, 5543.84, 76119.96, 13091.84, 33101.88, -29883.72, -4060.93, 10104.11, -28652.74, -321.04, 42494.35, 13865.68, -35899.65, 0.00, 0.00, 0.00, 0.00, 0.00, 0.00, 0.00
176, 5543.84, 76119.96, 13091.84, 33101.88, -29883.72, -4060.93, 10104.11, -28652.74, -329.51, 42472.14, 13851.93, -35902.09, 0.00, 0.00, 0.00, 0.00, 0.00, 0.00, 0.00
177, 5540.44, 76122.62, 13094.79, 33105.21, -29881.87, -4060.48, 10106.18, -28650.44, -329.51, 42472.14, 13851.93, -35902.09, 0.00, 0.00, 0.00, 0.00, 0.00, 0.00, 0.00
178, 5540.44, 76122.62, 13094.79, 33105.21, -29881.87, -4060.48, 10106.18, -28650.44, -335.59, 42481.14, 13861.93, -35921.31, 0.00, 0.00, 0.00, 0.00, 0.00, 0.00, 0.00
179, 5540.89, 76116.12, 13090.79, 33103.51, -29883.57, -4060.46, 10100.69, -28655.23, -335.59, 42481.14, 13861.93, -35921.31, 0.00, 0.00, 0.00, 0.00, 0.00, 0.00, 0.00
180, 5540.89, 76116.12, 13090.79, 33103.51, -29883.57, -4060.46, 10100.69, -28655.23, -334.36, 42467.40, 13846.50, -35904.72, 0.00, 0.00, 0.00, 0.00, 0.00, 0.00, 0.00
181, 5538.20, 76112.16, 13086.05, 33099.91, -29884.13, -4063.48, 10100.55, -28655.05, -334.36, 42467.40, 13846.50, -35904.72, 0.00, 0.00, 0.00, 0.00, 0.00, 0.00, 0.00
182, 5538.20, 76112.16, 13086.05, 33099.91, -29884.13, -4063.48, 10100.55, -28655.05, -334.52, 42479.64, 13857.37, -35908.14, 0.00, 0.00, 0.00, 0.00, -0.11, 0.47, 0.88
183, 5540.77, 76115.22, 13088.98, 33106.66, -29883.99, -4060.98, 10101.98, -28655.58, -334.52, 42479.64, 13857.37, -35908.14, 0.00, 0.00, 0.00, 0.00, 0.00, 0.00, 0.00
184, 5540.77, 76115.22, 13088.98, 33106.66, -29883.99, -4060.98, 10101.98, -28655.58, -333.47, 42466.84, 13847.31, -35907.14, 0.00, 0.00, 0.00, 0.00, 0.00, 0.00, 0.00
185, 5539.52, 76118.66, 13090.77, 33107.34, -29882.45, -4059.12, 10107.32, -28651.94, -333.47, 42466.84, 13847.31, -35907.14, 0.00, 0.00, 0.00, 0.00, 0.00, 0.00, 0.00
186, 5539.52, 76118.66, 13090.77, 33107.34, -29882.45, -4059.12, 10107.32, -28651.94, -332.66, 42488.18, 13859.74, -35924.64, 0.00, 0.00, 0.00, 0.00, 0.00, 0.00, 0.00
187, 5553.34, 76135.74, 13110.24, 33125.02, -29863.63, -4046.43, 10120.09, -28640.83, -332.66, 42488.18, 13859.74, -35924.64, 0.00, 0.00, 0.00, 0.00, 0.00, 0.00, 0.00
188, 5553.34, 76135.74, 13110.24, 33125.02, -29863.63, -4046.43, 10120.09, -28640.83, -321.73, 42477.05, 13886.04, -35887.38, 0.00, 0.00, 0.00, 0.00, 0.00, 0.00, 0.00
189, 5548.53, 76118.38, 13096.60, 33115.58, -29879.32, -4055.21, 10104.69, -28654.69, -321.73, 42477.05, 13886.04, -35887.38, 0.00, 0.00, 0.00, 0.00, 0.00, 0.00, 0.00
190, 5548.53, 76118.38, 13096.60, 33115.58, -29879.32, -4055.21, 10104.69, -28654.69, -349.11, 42469.27, 13794.38, -35919.54, 0.00, 0.00, 0.00, 0.00, 0.00, 0.00, 0.00
191, 5532.73, 76103.44, 13074.97, 33094.35, -29889.11, -4067.64, 10092.57, -28659.63, -349.11, 42469.27, 13794.38, -35919.54, 0.00, 0.00, 0.00, 0.00, 0.00, 0.00, 0.00
192, 5532.73, 76103.44, 13074.97, 33094.35, -29889.11, -4067.64, 10092.57, -28659.63, -341.02, 42463.48, 13790.91, -35907.25, 0.00, 0.00, 0.00, 0.00, -0.12, 0.47, 0.88
193, 5533.33, 76102.99, 13084.67, 33114.22, -29883.28, -4062.47, 10096.66, -28663.18, -341.02, 42463.48, 13790.91, -35907.25, 0.00, 0.00, 0.00, 0.00, 0.00, 0.00, 0.00
194, 5533.33, 76102.99, 13084.67, 33114.22, -29883.28, -4062.47, 10096.66, -28663.18, -348.13, 42473.32, 13788.46, -35918.80, 0.00, 0.00, 0.00, 0.00, 0.00, 0.00, 0.00
195, 5532.86, 76099.23, 13083.55, 33129.33, -29855.11, -4044.32, 10114.70, -28650.06, -348.13, 42473.32, 13788.46, -35918.80, 0.00, 0.00, 0.00, 0.00, 0.00, 0.00, 0.00
196, 5532.86, 76099.23, 13083.55, 33129.33, -29855.11, -4044.32, 10114.70, -28650.06, -346.32, 42464.80, 13752.51, -35902.09, 0.00, 0.00, 0.00, 0.00, 0.00, 0.00, 0.00
197, 5507.11, 76076.20, 13059.23, 33124.95, -29874.94, -4056.93, 10103.55, -28657.42, -346.32, 42464.80, 13752.51, -35902.09, 0.00, 0.00, 0.00, 0.00, 0.00, 0.00, 0.00
198, 5507.11, 76076.20, 13059.23, 33124.95, -29874.94, -4056.93, 10103.55, -28657.42, -338.05, 42475.15, 13706.11, -35905.13, 0.00, 0.00, 0.00, 0.00, 0.00, 0.00, 0.00
199, 5493.23, 76063.19, 13048.90, 33140.64, -29849.26, -4041.78, 10124.47, -28638.57, -338.05, 42475.15, 13706.11, -35905.13, 0.00, 0.00, 0.00, 0.00, 0.00, 0.00, 0.00
200, 5493.23, 76063.19, 13048.90, 33140.64, -29849.26, -4041.78, 10124.47, -28638.57, -341.78, 42472.87, 13576.25, -35905.84, 0.00, 0.00, 0.00, 0.00, 0.00, 0.00, 0.00
201, 5427.94, 76001.85, 12991.03, 33137.18, -29866.18, -4052.30, 10105.54, -28656.90, -341.78, 42472.87, 13576.25, -35905.84, 0.00, 0.00, 0.00, 0.00, 0.00, 0.00, 0.00
202, 5427.94, 76001.85, 12991.03, 33137.18, -29866.18, -4052.30, 10105.54, -28656.90, -340.89, 42481.41, 13411.52, -35909.57, 0.00, 0.00, 0.00, 0.00, -0.12, 0.47, 0.87
203, 5388.20, 75975.32, 12968.03, 33162.70, -29832.40, -4024.05, 10133.88, -28629.66, -340.89, 42481.41, 13411.52, -35909.57, 0.00, 0.00, 0.00, 0.00, 0.00, 0.00, 0.00
204, 5388.20, 75975.32, 12968.03, 33162.70, -29832.40, -4024.05, 10133.88, -28629.66, -329.60, 42484.74, 13236.46, -35887.85, 0.00, 0.00, 0.00, 0.00, 0.00, 0.00, 0.00
205, 5329.39, 75921.52, 12920.18, 33158.75, -29834.66, -4029.91, 10126.84, -28636.65, -329.60, 42484.74, 13236.46, -35887.85, 0.00, 0.00, 0.00, 0.00, 0.00, 0.00, 0.00
206, 5329.39, 75921.52, 12920.18, 33158.75, -29834.66, -4029.91, 10126.84, -28636.65, -325.91, 42489.84, 13084.17, -35885.70, 0.00, 0.00, 0.00, 0.00, 0.00, 0.00, 0.00
207, 5309.61, 75906.01, 12902.50, 33182.91, -29817.92, -4011.22, 10145.93, -28619.73, -325.91, 42489.84, 13084.17, -35885.70, 0.00, 0.00, 0.00, 0.00, 0.00, 0.00, 0.00
208, 5309.61, 75906.01, 12902.50, 33182.91, -29817.92, -4011.22, 10145.93, -28619.73, -331.07, 42488.07, 12944.05, -35888.83, 0.00, 0.00, 0.00, 0.00, 0.00, 0.00, 0.00
209, 5270.92, 75866.73, 12867.97, 33164.89, -29826.41, -4020.92, 10130.59, -28635.67, -331.07, 42488.07, 12944.05, -35888.83, 0.00, 0.00, 0.00, 0.00, 0.00, 0.00, 0.00
210, 5270.92, 75866.73, 12867.97, 33164.89, -29826.41, -4020.92, 10130.59, -28635.67, -321.69, 42488.07, 12916.76, -35892.09, 0.00, 0.00, 0.00, 0.00, 0.00, 0.00, 0.00
211, 5273.87, 75876.99, 12878.00, 33190.04, -29807.12, -4006.04, 10149.97, -28617.47, -321.69, 42488.07, 12916.76, -35892.09, 0.00, 0.00, 0.00, 0.00, -0.11, 0.47, 0.88
212, 5273.87, 75876.99, 12878.00, 33190.04, -29807.12, -4006.04, 10149.97, -28617.47, -320.17, 42498.06, 12927.49, -35879.64, 0.00, 0.00, 0.00, 0.00, 0.00, 0.00, 0.00
213, 5274.52, 75877.35, 12877.11, 33190.60, -29819.57, -4014.73, 10140.47, -28626.44, -320.17, 42498.06, 12927.49, -35879.64, 0.00, 0.00, 0.00, 0.00, 0.00, 0.00, 0.00
214, 5274.52, 75877.35, 12877.11, 33190.60, -29819.57, -4014.73, 10140.47, -28626.44, -322.67, 42489.75, 12982.18, -35879.36, 0.00, 0.00, 0.00, 0.00, 0.00, 0.00, 0.00
215, 5295.17, 75892.57, 12891.88, 33188.59, -29824.27, -4015.18, 10144.45, -28621.81, -322.67, 42489.75, 12982.18, -35879.36, 0.00, 0.00, 0.00, 0.00, 0.00, 0.00, 0.00
216, 5295.17, 75892.57, 12891.88, 33188.59, -29824.27, -4015.18, 10144.45, -28621.81, -327.81, 42492.50, 13080.84, -35888.86, 0.00, 0.00, 0.00, 0.00, 0.00, 0.00, 0.00
217, 5317.59, 75902.25, 12909.94, 33182.93, -29839.09, -4023.38, 10128.63, -28638.60, -327.81, 42492.50, 13080.84, -35888.86, 0.00, 0.00, 0.00, 0.00, 0.00, 0.00, 0.00
218, 5317.59, 75902.25, 12909.94, 33182.93, -29839.09, -4023.38, 10128.63, -28638.60, -328.59, 42481.90, 13131.85, -35891.51, 0.00, 0.00, 0.00, 0.00, 0.00, 0.00, 0.00
219, 5345.04, 75931.58, 12933.64, 33177.97, -29835.60, -4020.72, 10136.00, -28628.67, -328.59, 42481.90, 13131.85, -35891.51, 0.00, 0.00, 0.00, 0.00, 0.00, 0.00, 0.00
220, 5345.04, 75931.58, 12933.64, 33177.97, -29835.60, -4020.72, 10136.00, -28628.67, -332.42, 42494.40, 13211.42, -35887.78, 0.00, 0.00, 0.00, 0.00, 0.00, 0.00, 0.00
221, 5354.65, 75936.83, 12938.93, 33167.75, -29850.17, -4030.24, 10124.98, -28641.72, -332.42, 42494.40, 13211.42, -35887.78, 0.00, 0.00, 0.00, 0.00, -0.11, 0.47, 0.88
222, 5354.65, 75936.83, 12938.93, 33167.75, -29850.17, -4030.24, 10124.98, -28641.72, -326.89, 42480.05, 13268.31, -35880.45, 0.00, 0.00, 0.00, 0.00, 0.00, 0.00, 0.00
223, 5373.43, 75963.85, 12963.99, 33164.27, -29844.29, -4029.64, 10131.64, -28633.03, -326.89, 42480.05, 13268.31, -35880.45, 0.00, 0.00, 0.00, 0.00, 0.00, 0.00, 0.00
224, 5373.43, 75963.85, 12963.99, 33164.27, -29844.29, -4029.64, 10131.64, -28633.03, -329.80, 42494.38, 13330.42, -35894.09, 0.00, 0.00, 0.00, 0.00, 0.00, 0.00, 0.00
225, 5386.14, 75963.14, 12955.43, 33143.99, -29863.90, -4042.22, 10115.80, -28644.52, -329.80, 42494.38, 13330.42, -35894.09, 0.00, 0.00, 0.00, 0.00, 0.00, 0.00, 0.00
226, 5386.14, 75963.14, 12955.43, 33143.99, -29863.90, -4042.22, 10115.80, -28644.52, -333.71, 42473.63, 13362.34, -35896.01, 0.00, 0.00, 0.00, 0.00, 0.00, 0.00, 0.00
227, 5407.29, 75984.62, 12977.27, 33148.60, -29863.52, -4041.11, 10119.68, -28642.22, -333.71, 42473.63, 13362.34, -35896.01, 0.00, 0.00, 0.00, 0.00, 0.00, 0.00, 0.00
228, 5407.29, 75984.62, 12977.27, 33148.60, -29863.52, -4041.11, 10119.68, -28642.22, -334.83, 42489.50, 13424.35, -35886.46, 0.00, 0.00, 0.00, 0.00, 0.00, 0.00, 0.00
229, 5420.36, 75997.41, 12989.56, 33138.23, -29862.82, -4040.01, 10120.20, -28643.18, -334.83, 42489.50, 13424.35, -35886.46, 0.00, 0.00, 0.00, 0.00, 0.00, 0.00, 0.00
230, 5420.36, 75997.41, 12989.56, 33138.23, -29862.82, -4040.01, 10120.20, -28643.18, -331.19, 42476.32, 13451.57, -35885.99, 0.00, 0.00, 0.00, 0.00, 0.00, 0.00, 0.00
231, 5433.66, 76012.76, 13000.76, 33138.47, -29862.94, -4042.56, 10119.82, -28641.28, -331.19, 42476.32, 13451.57, -35885.99, 0.00, 0.00, 0.00, 0.00, -0.12, 0.46, 0.87
232, 5433.66, 76012.76, 13000.76, 33138.47, -29862.94, -4042.56, 10119.82, -28641.28, -327.63, 42496.34, 13498.17, -35890.29, 0.00, 0.00, 0.00, 0.00, 0.00, 0.00, 0.00
233, 5446.96, 76028.54, 13016.85, 33140.30, -29856.10, -4039.41, 10123.89, -28638.60, -327.63, 42496.34, 13498.17, -35890.29, 0.00, 0.00, 0.00, 0.00, 0.00, 0.00, 0.00
234, 5446.96, 76028.54, 13016.85, 33140.30, -29856.10, -4039.41, 10123.89, -28638.60, -326.16, 42480.83, 13522.83, -35887.82, 0.00, 0.00, 0.00, 0.00, 0.00, 0.00, 0.00
235, 5447.32, 76033.55, 13021.10, 33136.10, -29859.98, -4042.29, 10118.10, -28644.18, -326.16, 42480.83, 13522.83, -35887.82, 0.00, 0.00, 0.00, 0.00, 0.00, 0.00, 0.00
236, 5447.32, 76033.55, 13021.10, 33136.10, -29859.98, -4042.29, 10118.10, -28644.18, -326.89, 42495.61, 13544.33, -35899.58, 0.00, 0.00, 0.00, 0.00, 0.00, 0.00, 0.00
237, 5466.19, 76045.51, 13033.79, 33140.13, -29854.46, -4037.15, 10129.25, -28634.17, -326.89, 42495.61, 13544.33, -35899.58, 0.00, 0.00, 0.00, 0.00, 0.00, 0.00, 0.00
238, 5466.19, 76045.51, 13033.79, 33140.13, -29854.46, -4037.15, 10129.25, -28634.17, -324.86, 42481.99, 13556.80, -35880.79, 0.00, 0.00, 0.00, 0.00, 0.00, 0.00, 0.00
239, 5466.61, 76037.50, 13027.22, 33130.25, -29865.62, -4047.74, 10120.02, -28645.86, -324.86, 42481.99, 13556.80, -35880.79, 0.00, 0.00, 0.00, 0.00, 0.00, 0.00, 0.00
240, 5466.61, 76037.50, 13027.22, 33130.25, -29865.62, -4047.74, 10120.02, -28645.86, -330.16, 42491.38, 13573.72, -35895.07, 0.00, 0.00, 0.00, 0.00, 0.00, 0.00, 0.00
241, 5479.91, 76057.10, 13045.73, 33140.08, -29852.18, -4034.60, 10133.48, -28633.05, -330.16, 42491.38, 13573.72, -35895.07, 0.00, 0.00, 0.00, 0.00, -0.11, 0.46, 0.88
242, 5479.91, 76057.10, 13045.73, 33140.08, -29852.18, -4034.60, 10133.48, -28633.05, -328.62, 42478.46, 13579.20, -35886.46, 0.00, 0.00, 0.00, 0.00, 0.00, 0.00, 0.00
243, 5468.73, 76046.51, 13035.60, 33127.81, -29866.91, -4047.77, 10114.72, -28650.62, -328.62, 42478.46, 13579.20, -35886.46, 0.00, 0.00, 0.00, 0.00, 0.00, 0.00, 0.00
244, 5468.73, 76046.51, 13035.60, 33127.81, -29866.91, -4047.77, 10114.72, -28650.62, -332.75, 42484.36, 13593.84, -35906.42, 0.00, 0.00, 0.00, 0.00, 0.00, 0.00, 0.00
245, 5487.55, 76065.40, 13050.16, 33137.22, -29854.26, -4039.18, 10128.29, -28638.35, -332.75, 42484.36, 13593.84, -35906.42, 0.00, 0.00, 0.00, 0.00, 0.00, 0.00, 0.00
246, 5487.55, 76065.40, 13050.16, 33137.22, -29854.26, -4039.18, 10128.29, -28638.35, -328.53, 42479.62, 13605.77, -35883.45, 0.00, 0.00, 0.00, 0.00, 0.00, 0.00, 0.00
247, 5488.69, 76061.87, 13048.77, 33131.61, -29859.11, -4043.01, 10121.99, -28643.04, -328.53, 42479.62, 13605.77, -35883.45, 0.00, 0.00, 0.00, 0.00, 0.00, 0.00, 0.00
248, 5488.69, 76061.87, 13048.77, 33131.61, -29859.11, -4043.01, 10121.99, -28643.04, -326.54, 42487.91, 13618.56, -35888.68, 0.00, 0.00, 0.00, 0.00, 0.00, 0.00, 0.00
249, 5501.48, 76081.11, 13066.70, 33144.91, -29846.62, -4031.11, 10137.50, -28627.42, -326.54, 42487.91, 13618.56, -35888.68, 0.00, 0.00, 0.00, 0.00, 0.00, 0.00, 0.00
250, 5501.48, 76081.11, 13066.70, 33144.91, -29846.62, -4031.11, 10137.50, -28627.42, -329.93, 42478.41, 13625.85, -35895.61, 0.00, 0.00, 0.00, 0.00, -0.11, 0.46, 0.89
251, 5491.71, 76063.84, 13048.99, 33124.82, -29866.09, -4048.19, 10116.24, -28650.62, -329.93, 42478.41, 13625.85, -35895.61, 0.00, 0.00, 0.00, 0.00, 0.00, 0.00, 0.00
252, 5491.71, 76063.84, 13048.99, 33124.82, -29866.09, -4048.19, 10116.24, -28650.62, -333.58, 42481.70, 13631.59, -35899.05, 0.00, 0.00, 0.00, 0.00, 0.00, 0.00, 0.00
253, 5507.16, 76086.30, 13069.53, 33143.41, -29847.56, -4032.63, 10135.46, -28631.78, -333.58, 42481.70, 13631.59, -35899.05, 0.00, 0.00, 0.00, 0.00, 0.00, 0.00, 0.00
254, 5507.16, 76086.30, 13069.53, 33143.41, -29847.56, -4032.63, 10135.46, -28631.78, -330.11, 42480.88, 13637.63, -35888.16, 0.00, 0.00, 0.00, 0.00, 0.00, 0.00, 0.00
255, 5500.07, 76070.70, 13056.73, 33127.39, -29861.77, -4047.92, 10119.89, -28646.93, -330.11, 42480.88, 13637.63, -35888.16, 0.00, 0.00, 0.00, 0.00, 0.00, 0.00, 0.00
0, 5500.07, 76070.70, 13056.73, 33127.39, -29861.77, -4047.92, 10119.89, -28646.93, -328.26, 42480.81, 13646.72, -35885.70, 0.00, 0.00, 0.00, 0.00, 0.00, 0.00, 0.00
1, 5517.71, 76093.07, 13078.56, 33147.17, -29841.37, -4031.45, 10142.19, -28628.94, -328.26, 42480.81, 13646.72, -35885.70, 0.00, 0.00, 0.00, 0.00, 0.00, 0.00, 0.00
2, 5517.71, 76093.07, 13078.56, 33147.17, -29841.37, -4031.45, 10142.19, -28628.94, -329.49, 42484.05, 13650.39, -35895.61, 0.00, 0.00, 0.00, 0.00, 0.00, 0.00, 0.00
3, 5501.19, 76074.72, 13062.25, 33128.61, -29864.84, -4046.29, 10117.94, -28649.59, -329.49, 42484.05, 13650.39, -35895.61, 0.00, 0.00, 0.00, 0.00, 0.00, 0.00, 0.00
4, 5501.19, 76074.72, 13062.25, 33128.61, -29864.84, -4046.29, 10117.94, -28649.59, -335.70, 42475.91, 13643.26, -35899.79, 0.00, 0.00, 0.00, 0.00, -0.11, 0.46, 0.89
5, 5510.33, 76090.79, 13076.75, 33143.81, -29851.49, -4033.75, 10137.88, -28632.38, -335.70, 42475.91, 13643.26, -35899.79, 0.00, 0.00, 0.00, 0.00, 0.00, 0.00, 0.00
6, 5510.33, 76090.79, 13076.75, 33143.81, -29851.49, -4033.75, 10137.88, -28632.38, -333.47, 42481.61, 13656.89, -35887.00, 0.00, 0.00, 0.00, 0.00, 0.00, 0.00, 0.00
7, 5506.55, 76076.28, 13065.53, 33130.18, -29859.16, -4045.11, 10120.89, -28646.22, -333.47, 42481.61, 13656.89, -35887.00, 0.00, 0.00, 0.00, 0.00, 0.00, 0.00, 0.00
8, 5506.55, 76076.28, 13065.53, 33130.18, -29859.16, -4045.11, 10120.89, -28646.22, -334.40, 42474.23, 13645.61, -35893.52, 0.00, 0.00, 0.00, 0.00, 0.00, 0.00, 0.00
9, 5513.33, 76086.14, 13074.34, 33139.61, -29848.79, -4036.52, 10138.37, -28632.70, -334.40, 42474.23, 13645.61, -35893.52, 0.00, 0.00, 0.00, 0.00, 0.00, 0.00, 0.00
10, 5513.33, 76086.14, 13074.34, 33139.61, -29848.79, -4036.52, 10138.37, -28632.70, -333.69, 42485.97, 13657.90, -35892.83, 0.00, 0.00, 0.00, 0.00, 0.00, 0.00, 0.00
11, 5498.55, 76071.66, 13059.95, 33124.77, -29862.78, -4046.45, 10122.90, -28645.88, -333.69, 42485.97, 13657.90, -35892.83, 0.00, 0.00, 0.00, 0.00, 0.00, 0.00, 0.00
12, 5498.55, 76071.66, 13059.95, 33124.77, -29862.78, -4046.45, 10122.90, -28645.88, -334.47, 42470.46, 13647.55, -35892.86, 0.00, 0.00, 0.00, 0.00, 0.00, 0.00, 0.00
13, 5509.55, 76082.99, 13070.96, 33139.19, -29853.30, -4037.28, 10135.73, -28633.21, -334.47, 42470.46, 13647.55, -35892.86, 0.00, 0.00, 0.00, 0.00, 0.00, 0.00, 0.00
14, 5509.55, 76082.99, 13070.96, 33139.19, -29853.30, -4037.28, 10135.73, -28633.21, -331.61, 42482.89, 13660.54, -35901.32, 0.00, 0.00, 0.00, 0.00, -0.12, 0.47, 0.88
15, 5502.31, 76072.84, 13060.17, 33122.38, -29862.02, -4047.57, 10123.42, -28646.80, -331.61, 42482.89, 13660.54, -35901.32, 0.00, 0.00, 0.00, 0.00, 0.00, 0.00, 0.00
16, 5502.31, 76072.84, 13060.17, 33122.38, -29862.02, -4047.57, 10123.42, -28646.80, -334.45, 42468.87, 13647.06, -35891.38, 0.00, 0.00, 0.00, 0.00, 0.00, 0.00, 0.00
17, 5503.56, 76070.94, 13061.22, 33129.06, -29857.86, -4042.78, 10129.14, -28638.66, -334.45, 42468.87, 13647.06, -35891.38, 0.00, 0.00, 0.00, 0.00, 0.00, 0.00, 0.00
18, 5503.56, 76070.94, 13061.22, 33129.06, -29857.86, -4042.78, 10129.14, -28638.66, -334.65, 42484.83, 13658.03, -35897.28, 0.00, 0.00, 0.00, 0.00, 0.00, 0.00, 0.00
19, 5491.35, 76066.38, 13057.82, 33120.57, -29865.17, -4048.19, 10120.11, -28645.30, -334.65, 42484.83, 13658.03, -35897.28, 0.00, 0.00, 0.00, 0.00, 0.00, 0.00, 0.00
20, 5491.35, 76066.38, 13057.82, 33120.57, -29865.17, -4048.19, 10120.11, -28645.30, -331.92, 42473.21, 13654.17, -35888.86, 0.00, 0.00, 0.00, 0.00, 0.00, 0.00, 0.00
21, 5499.36, 76071.37, 13061.33, 33123.32, -29858.55, -4046.25, 10129.50, -28640.50, -331.92, 42473.21, 13654.17, -35888.86, 0.00, 0.00, 0.00, 0.00, 0.00, 0.00, 0.00
22, 5499.36, 76071.37, 13061.33, 33123.32, -29858.55, -4046.25, 10129.50, -28640.50, -328.08, 42490.96, 13672.09, -35904.84, 0.00, 0.00, 0.00, 0.00, 0.00, 0.00, 0.00
23, 5507.42, 76077.63, 13064.82, 33125.69, -29853.10, -4045.46, 10128.56, -28639.13, -328.08, 42490.96, 13672.09, -35904.84, 0.00, 0.00, 0.00, 0.00, 0.00, 0.00, 0.00
24, 5507.42, 76077.63, 13064.82, 33125.69, -29853.10, -4045.46, 10128.56, -28639.13, -327.48, 42472.71, 13660.85, -35890.13, 0.00, 0.00, 0.00, 0.00, -0.11, 0.47, 0.88
25, 5502.60, 76073.40, 13061.91, 33122.60, -29858.17, -4047.32, 10128.87, -28641.64, -327.48, 42472.71, 13660.85, -35890.13, 0.00, 0.00, 0.00, 0.00, 0.00, 0.00, 0.00
26, 5502.60, 76073.40, 13061.91, 33122.60, -29858.17, -4047.32, 10128.87, -28641.64, -324.79, 42495.11, 13672.07, -35884.85, 0.00, 0.00, 0.00, 0.00, 0.00, 0.00, 0.00
27, 5508.23, 76080.17, 13069.38, 33130.52, -29854.96, -4038.47, 10134.50, -28637.59, -324.79, 42495.11, 13672.07, -35884.85, 0.00, 0.00, 0.00, 0.00, 0.00, 0.00, 0.00
28, 5508.23, 76080.17, 13069.38, 33130.52, -29854.96, -4038.47, 10134.50, -28637.59, -326.89, 42473.39, 13665.10, -35889.39, 0.00, 0.00, 0.00, 0.00, 0.00, 0.00, 0.00
29, 5502.44, 76081.05, 13070.00, 33126.67, -29854.38, -4042.16, 10134.42, -28637.48, -326.89, 42473.39, 13665.10, -35889.39, 0.00, 0.00, 0.00, 0.00, 0.00, 0.00, 0.00
30, 5502.44, 76081.05, 13070.00, 33126.67, -29854.38, -4042.16, 10134.42, -28637.48, -322.31, 42493.32, 13682.20, -35887.13, 0.00, 0.00, 0.00, 0.00, 0.00, 0.00, 0.00
31, 5519.92, 76088.42, 13076.15, 33135.97, -29847.91, -4038.02, 10137.39, -28632.00, -322.31, 42493.32, 13682.20, -35887.13, 0.00, 0.00, 0.00, 0.00, 0.00, 0.00, 0.00
32, 5519.92, 76088.42, 13076.15, 33135.97, -29847.91, -4038.02, 10137.39, -28632.00, -328.64, 42475.11, 13668.85, -35883.27, 0.00, 0.00, 0.00, 0.00, 0.00, 0.00, 0.00
33, 5508.25, 76077.27, 13066.67, 33125.73, -29854.11, -4046.40, 10126.93, -28644.18, -328.64, 42475.11, 13668.85, -35883.27, 0.00, 0.00, 0.00, 0.00, -0.12, 0.47, 0.88
34, 5508.25, 76077.27, 13066.67, 33125.73, -29854.11, -4046.40, 10126.93, -28644.18, -326.69, 42488.61, 13678.62, -35893.10, 0.00, 0.00, 0.00, 0.00, 0.00, 0.00, 0.00
35, 5515.18, 76091.30, 13080.58, 33137.38, -29843.60, -4037.28, 10141.08, -28632.31, -326.69, 42488.61, 13678.62, -35893.10, 0.00, 0.00, 0.00, 0.00, 0.00, 0.00, 0.00
36, 5515.18, 76091.30, 13080.58, 33137.38, -29843.60, -4037.28, 10141.08, -28632.31, -329.33, 42476.49, 13672.07, -35894.29, 0.00, 0.00, 0.00, 0.00, 0.00, 0.00, 0.00
37, 5512.01, 76075.99, 13066.74, 33129.33, -29859.16, -4044.57, 10129.94, -28644.63, -329.33, 42476.49, 13672.07, -35894.29, 0.00, 0.00, 0.00, 0.00, 0.00, 0.00, 0.00
38, 5512.01, 76075.99, 13066.74, 33129.33, -29859.16, -4044.57, 10129.94, -28644.63, -330.69, 42488.27, 13678.02, -35895.69, 0.00, 0.00, 0.00, 0.00, 0.00, 0.00, 0.00
39, 5526.45, 76089.60, 13081.27, 33140.77, -29845.72, -4033.44, 10145.68, -28631.29, -330.69, 42488.27, 13678.02, -35895.69, 0.00, 0.00, 0.00, 0.00, 0.00, 0.00, 0.00
40, 5526.45, 76089.60, 13081.27, 33140.77, -29845.72, -4033.44, 10145.68, -28631.29, -329.20, 42478.01, 13675.49, -35877.81, 0.00, 0.00, 0.00, 0.00, 0.00, 0.00, 0.00
41, 5508.23, 76072.64, 13065.49, 33124.37, -29860.92, -4047.36, 10125.97, -28644.77, -329.20, 42478.01, 13675.49, -35877.81, 0.00, 0.00, 0.00, 0.00, 0.00, 0.00, 0.00
42, 5508.23, 76072.64, 13065.49, 33124.37, -29860.92, -4047.36, 10125.97, -28644.77, -328.41, 42485.34, 13676.25, -35891.20, 0.00, 0.00, 0.00, 0.00, 0.00, 0.00, 0.00
43, 5512.36, 76081.63, 13073.07, 33134.67, -29848.99, -4037.04, 10141.90, -28634.04, -328.41, 42485.34, 13676.25, -35891.20, 0.00, 0.00, 0.00, 0.00, -0.12, 0.47, 0.89
44, 5512.36, 76081.63, 13073.07, 33134.67, -29848.99, -4037.04, 10141.90, -28634.04, -327.12, 42482.68, 13675.02, -35889.99, 0.00, 0.00, 0.00, 0.00, 0.00, 0.00, 0.00
45, 5491.85, 76060.64, 13056.53, 33115.36, -29862.53, -4051.77, 10121.61, -28651.07, -327.12, 42482.68, 13675.02, -35889.99, 0.00, 0.00, 0.00, 0.00, 0.00, 0.00, 0.00
46, 5491.85, 76060.64, 13056.53, 33115.36, -29862.53, -4051.77, 10121.61, -28651.07, -331.43, 42479.02, 13668.09, -35891.78, 0.00, 0.00, 0.00, 0.00, 0.00, 0.00, 0.00
47, 5509.35, 76071.70, 13066.29, 33131.25, -29852.74, -4040.26, 10138.01, -28636.90, -331.43, 42479.02, 13668.09, -35891.78, 0.00, 0.00, 0.00, 0.00, 0.00, 0.00, 0.00
48, 5509.35, 76071.70, 13066.29, 33131.25, -29852.74, -4040.26, 10138.01, -28636.90, -330.67, 42481.95, 13671.13, -35890.06, 0.00, 0.00, 0.00, 0.00, 0.00, 0.00, 0.00
49, 5489.59, 76051.85, 13045.55, 33109.73, -29872.64, -4056.37, 10121.00, -28655.23, -330.67, 42481.95, 13671.13, -35890.06, 0.00, 0.00, 0.00, 0.00, 0.00, 0.00, 0.00
50, 5489.59, 76051.85, 13045.55, 33109.73, -29872.64, -4056.37, 10121.00, -28655.23, -337.13, 42479.00, 13661.59, -35898.46, 0.00, 0.00, 0.00, 0.00, 0.00, 0.00, 0.00
51, 5502.44, 76074.07, 13067.43, 33130.00, -29851.16, -4038.62, 10142.55, -28633.81, -337.13, 42479.00, 13661.59, -35898.46, 0.00, 0.00, 0.00, 0.00, 0.00, 0.00, 0.00
52, 5502.44, 76074.07, 13067.43, 33130.00, -29851.16, -4038.62, 10142.55, -28633.81, -330.07, 42485.25, 13675.33, -35888.61, 0.00, 0.00, 0.00, 0.00, 0.00, 0.00, 0.00
53, 5487.00, 76057.55, 13050.54, 33113.68, -29861.95, -4050.45, 10126.70, -28647.36, -330.07, 42485.25, 13675.33, -35888.61, 0.00, 0.00, 0.00, 0.00, -0.12, 0.46, 0.88
54, 5487.00, 76057.55, 13050.54, 33113.68, -29861.95, -4050.45, 10126.70, -28647.36, -326.96, 42481.01, 13668.25, -35880.85, 0.00, 0.00, 0.00, 0.00, 0.00, 0.00, 0.00
55, 5500.70, 76071.05, 13062.16, 33123.32, -29848.59, -4041.82, 10143.33, -28631.15, -326.96, 42481.01, 13668.25, -35880.85, 0.00, 0.00, 0.00, 0.00, 0.00, 0.00, 0.00
56, 5500.70, 76071.05, 13062.16, 33123.32, -29848.59, -4041.82, 10143.33, -28631.15, -324.79, 42491.63, 13682.17, -35888.90, 0.00, 0.00, 0.00, 0.00, 0.00, 0.00, 0.00
57, 5490.73, 76057.28, 13051.09, 33114.87, -29863.67, -4049.26, 10132.00, -28644.25, -324.79, 42491.63, 13682.17, -35888.90, 0.00, 0.00, 0.00, 0.00, 0.00, 0.00, 0.00
58, 5490.73, 76057.28, 13051.09, 33114.87, -29863.67, -4049.26, 10132.00, -28644.25, -324.08, 42481.01, 13669.59, -35882.71, 0.00, 0.00, 0.00, 0.00, 0.00, 0.00, 0.00
59, 5491.11, 76069.48, 13062.96, 33126.31, -29853.17, -4041.04, 10143.51, -28633.48, -324.08, 42481.01, 13669.59, -35882.71, 0.00, 0.00, 0.00, 0.00, 0.00, 0.00, 0.00
60, 5491.11, 76069.48, 13062.96, 33126.31, -29853.17, -4041.04, 10143.51, -28633.48, -335.99, 42482.55, 13677.46, -35890.66, 0.00, 0.00, 0.00, 0.00, 0.00, 0.00, 0.00
61, 5495.85, 76056.77, 13052.61, 33119.74, -29864.19, -4049.53, 10128.80, -28650.15, -335.99, 42482.55, 13677.46, -35890.66, 0.00, 0.00, 0.00, 0.00, 0.00, 0.00, 0.00
62, 5495.85, 76056.77, 13052.61, 33119.74, -29864.19, -4049.53, 10128.80, -28650.15, -334.36, 42469.36, 13667.96, -35890.95, 0.00, 0.00, 0.00, 0.00, 0.00, 0.00, 0.00
63, 5505.41, 76067.43, 13061.26, 33126.13, -29855.20, -4043.03, 10138.73, -28637.79, -334.36, 42469.36, 13667.96, -35890.95, 0.00, 0.00, 0.00, 0.00, -0.12, 0.47, 0.88
64, 5505.41, 76067.43, 13061.26, 33126.13, -29855.20, -4043.03, 10138.73, -28637.79, -336.10, 42488.81, 13677.90, -35894.17, 0.00, 0.00, 0.00, 0.00, 0.00, 0.00, 0.00
65, 5501.19, 76062.31, 13058.87, 33121.93, -29858.00, -4047.01, 10129.99, -28648.32, -336.10, 42488.81, 13677.90, -35894.17, 0.00, 0.00, 0.00, 0.00, 0.00, 0.00, 0.00
66, 5501.19, 76062.31, 13058.87, 33121.93, -29858.00, -4047.01, 10129.99, -28648.32, -335.61, 42468.80, 13673.21, -35891.07, 0.00, 0.00, 0.00, 0.00, 0.00, 0.00, 0.00
67, 5506.55, 76071.16, 13067.10, 33132.39, -29854.31, -4040.46, 10142.84, -28636.50, -335.61, 42468.80, 13673.21, -35891.07, 0.00, 0.00, 0.00, 0.00, 0.00, 0.00, 0.00
68, 5506.55, 76071.16, 13067.10, 33132.39, -29854.31, -4040.46, 10142.84, -28636.50, -330.40, 42489.12, 13685.77, -35881.61, 0.00, 0.00, 0.00, 0.00, 0.00, 0.00, 0.00
69, 5506.64, 76067.39, 13063.79, 33125.48, -29857.59, -4042.98, 10138.95, -28639.31, -330.40, 42489.12, 13685.77, -35881.61, 0.00, 0.00, 0.00, 0.00, 0.00, 0.00, 0.00
70, 5506.64, 76067.39, 13063.79, 33125.48, -29857.59, -4042.98, 10138.95, -28639.31, -334.65, 42471.58, 13668.18, -35884.59, 0.00, 0.00, 0.00, 0.00, 0.00, 0.00, 0.00
71, 5506.46, 76062.65, 13056.32, 33122.36, -29863.43, -4046.92, 10135.64, -28646.91, -334.65, 42471.58, 13668.18, -35884.59, 0.00, 0.00, 0.00, 0.00, 0.00, 0.00, 0.00
72, 5506.46, 76062.65, 13056.32, 33122.36, -29863.43, -4046.92, 10135.64, -28646.91, -338.29, 42483.00, 13680.05, -35899.94, 0.00, 0.00, 0.00, 0.00, -0.11, 0.47, 0.88
73, 5505.97, 76068.10, 13064.15, 33126.56, -29856.52, -4042.72, 10137.07, -28645.39, -338.29, 42483.00, 13680.05, -35899.94, 0.00, 0.00, 0.00, 0.00, 0.00, 0.00, 0.00
74, 5505.97, 76068.10, 13064.15, 33126.56, -29856.52, -4042.72, 10137.07, -28645.39, -333.47, 42471.13, 13671.44, -35886.71, 0.00, 0.00, 0.00, 0.00, 0.00, 0.00, 0.00
75, 5491.76, 76064.39, 13058.00, 33118.04, -29860.57, -4048.59, 10132.11, -28644.23, -333.47, 42471.13, 13671.44, -35886.71, 0.00, 0.00, 0.00, 0.00, 0.00, 0.00, 0.00
76, 5491.76, 76064.39, 13058.00, 33118.04, -29860.57, -4048.59, 10132.11, -28644.23, -339.03, 42482.57, 13678.75, -35890.57, 0.00, 0.00, 0.00, 0.00, 0.00, 0.00, 0.00
77, 5509.59, 76070.45, 13062.18, 33123.59, -29855.94, -4040.30, 10141.70, -28638.73, -339.03, 42482.57, 13678.75, -35890.57, 0.00, 0.00, 0.00, 0.00, 0.00, 0.00, 0.00
78, 5509.59, 76070.45, 13062.18, 33123.59, -29855.94, -4040.30, 10141.70, -28638.73, -337.24, 42471.69, 13667.89, -35884.09, 0.00, 0.00, 0.00, 0.00, 0.00, 0.00, 0.00
79, 5498.69, 76065.11, 13056.19, 33114.60, -29862.18, -4048.68, 10138.44, -28644.23, -337.24, 42471.69, 13667.89, -35884.09, 0.00, 0.00, 0.00, 0.00, 0.00, 0.00, 0.00
80, 5498.69, 76065.11, 13056.19, 33114.60, -29862.18, -4048.68, 10138.44, -28644.23, -335.07, 42483.89, 13682.75, -35902.20, 0.00, 0.00, 0.00, 0.00, 0.00, 0.00, 0.00
81, 5498.40, 76071.45, 13064.15, 33120.88, -29852.14, -4043.74, 10144.41, -28634.93, -335.07, 42483.89, 13682.75, -35902.20, 0.00, 0.00, 0.00, 0.00, 0.00, 0.00, 0.00
82, 5498.40, 76071.45, 13064.15, 33120.88, -29852.14, -4043.74, 10144.41, -28634.93, -329.42, 42478.57, 13673.86, -35882.48, 0.00, 0.00, 0.00, 0.00, -0.11, 0.48, 0.88
83, 5484.25, 76053.95, 13046.42, 33106.02, -29865.30, -4051.34, 10130.75, -28644.47, -329.42, 42478.57, 13673.86, -35882.48, 0.00, 0.00, 0.00, 0.00, 0.00, 0.00, 0.00
84, 5484.25, 76053.95, 13046.42, 33106.02, -29865.30, -4051.34, 10130.75, -28644.47, -333.38, 42487.51, 13672.49, -35878.77, 0.00, 0.00, 0.00, 0.00, 0.00, 0.00, 0.00
85, 5498.95, 76067.45, 13060.79, 33124.57, -29851.67, -4038.31, 10147.45, -28632.18, -333.38, 42487.51, 13672.49, -35878.77, 0.00, 0.00, 0.00, 0.00, 0.00, 0.00, 0.00
86, 5498.95, 76067.45, 13060.79, 33124.57, -29851.67, -4038.31, 10147.45, -28632.18, -334.18, 42478.64, 13670.17, -35890.13, 0.00, 0.00, 0.00, 0.00, 0.00, 0.00, 0.00
87, 5486.24, 76054.65, 13046.20, 33108.79, -29863.76, -4051.41, 10132.07, -28647.65, -334.18, 42478.64, 13670.17, -35890.13, 0.00, 0.00, 0.00, 0.00, 0.00, 0.00, 0.00
88, 5486.24, 76054.65, 13046.20, 33108.79, -29863.76, -4051.41, 10132.07, -28647.65, -337.65, 42483.07, 13670.06, -35884.65, 0.00, 0.00, 0.00, 0.00, 0.00, 0.00, 0.00
89, 5497.66, 76071.88, 13062.36, 33123.27, -29852.61, -4041.33, 10145.66, -28632.83, -337.65, 42483.07, 13670.06, -35884.65, 0.00, 0.00, 0.00, 0.00, 0.00, 0.00, 0.00
90, 5497.66, 76071.88, 13062.36, 33123.27, -29852.61, -4041.33, 10145.66, -28632.83, -330.52, 42476.94, 13679.65, -35879.89, 0.00, 0.00, 0.00, 0.00, 0.00, 0.00, 0.00
91, 5486.97, 76055.79, 13046.31, 33106.44, -29867.05, -4054.85, 10132.94, -28648.65, -330.52, 42476.94, 13679.65, -35879.89, 0.00, 0.00, 0.00, 0.00, 0.00, 0.00, 0.00
92, 5486.97, 76055.79, 13046.31, 33106.44, -29867.05, -4054.85, 10132.94, -28648.65, -332.77, 42482.15, 13673.21, -35891.58, 0.00, 0.00, 0.00, 0.00, -0.12, 0.47, 0.87
93, 5503.83, 76070.78, 13059.97, 33123.47, -29848.61, -4039.41, 10150.11, -28627.64, -332.77, 42482.15, 13673.21, -35891.58, 0.00, 0.00, 0.00, 0.00, 0.00, 0.00, 0.00
94, 5503.83, 76070.78, 13059.97, 33123.47, -29848.61, -4039.41, 10150.11, -28627.64, -333.56, 42478.10, 13670.04, -35894.91, 0.00, 0.00, 0.00, 0.00, 0.00, 0.00, 0.00
95, 5477.05, 76043.18, 13035.87, 33094.02, -29874.96, -4060.89, 10120.11, -28657.44, -333.56, 42478.10, 13670.04, -35894.91, 0.00, 0.00, 0.00, 0.00, 0.00, 0.00, 0.00
96, 5477.05, 76043.18, 13035.87, 33094.02, -29874.96, -4060.89, 10120.11, -28657.44, -337.35, 42472.07, 13663.80, -35881.95, 0.00, 0.00, 0.00, 0.00, 0.00, 0.00, 0.00
97, 5494.51, 76065.51, 13057.89, 33120.64, -29852.14, -4042.02, 10145.21, -28635.58, -337.35, 42472.07, 13663.80, -35881.95, 0.00, 0.00, 0.00, 0.00, 0.00, 0.00, 0.00
98, 5494.51, 76065.51, 13057.89, 33120.64, -29852.14, -4042.02, 10145.21, -28635.58, -337.82, 42480.11, 13667.15, -35894.82, 0.00, 0.00, 0.00, 0.00, 0.00, 0.00, 0.00
99, 5484.72, 76049.02, 13040.39, 33100.34, -29868.34, -4058.05, 10125.74, -28649.17, -337.82, 42480.11, 13667.15, -35894.82, 0.00, 0.00, 0.00, 0.00, 0.00, 0.00, 0.00
100, 5484.72, 76049.02, 13040.39, 33100.34, -29868.34, -4058.05, 10125.74, -28649.17, -339.88, 42471.35, 13665.92, -35886.21, 0.00, 0.00, 0.00, 0.00, 0.00, 0.00, 0.00
101, 5497.43, 76067.88, 13060.84, 33122.04, -29852.32, -4040.21, 10147.87, -28631.13, -339.88, 42471.35, 13665.92, -35886.21, 0.00, 0.00, 0.00, 0.00, 0.00, 0.00, 0.00
102, 5497.43, 76067.88, 13060.84, 33122.04, -29852.32, -4040.21, 10147.87, -28631.13, -335.32, 42483.47, 13671.31, -35896.74, 0.00, 0.00, 0.00, 0.00, -0.12, 0.47, 0.88
103, 5488.65, 76054.89, 13048.17, 33107.74, -29863.03, -4053.58, 10132.36, -28648.83, -335.32, 42483.47, 13671.31, -35896.74, 0.00, 0.00, 0.00, 0.00, 0.00, 0.00, 0.00
104, 5488.65, 76054.89, 13048.17, 33107.74, -29863.03, -4053.58, 10132.36, -28648.83, -337.15, 42472.61, 13661.65, -35885.93, 0.00, 0.00, 0.00, 0.00, 0.00, 0.00, 0.00
105, 5491.94, 76068.51, 13058.40, 33120.93, -29854.44, -4041.42, 10145.46, -28630.01, -337.15, 42472.61, 13661.65, -35885.93, 0.00, 0.00, 0.00, 0.00, 0.00, 0.00, 0.00
106, 5491.94, 76068.51, 13058.40, 33120.93, -29854.44, -4041.42, 10145.46, -28630.01, -333.49, 42484.96, 13673.41, -35878.55, 0.00, 0.00, 0.00, 0.00, 0.00, 0.00, 0.00
107, 5493.61, 76055.95, 13047.85, 33109.48, -29861.77, -4050.96, 10132.43, -28644.92, -333.49, 42484.96, 13673.41, -35878.55, 0.00, 0.00, 0.00, 0.00, 0.00, 0.00, 0.00
108, 5493.61, 76055.95, 13047.85, 33109.48, -29861.77, -4050.96, 10132.43, -28644.92, -337.89, 42474.17, 13661.65, -35894.48, 0.00, 0.00, 0.00, 0.00, 0.00, 0.00, 0.00
109, 5503.33, 76070.74, 13064.39, 33123.63, -29847.56, -4039.00, 10149.14, -28632.79, -337.89, 42474.17, 13661.65, -35894.48, 0.00, 0.00, 0.00, 0.00, 0.00, 0.00, 0.00
110, 5503.33, 76070.74, 13064.39, 33123.63, -29847.56, -4039.00, 10149.14, -28632.79, -335.61, 42485.59, 13691.87, -35880.98, 0.00, 0.00, 0.00, 0.00, 0.00, 0.00, 0.00
111, 5499.27, 76065.87, 13061.40, 33125.29, -29852.83, -4043.27, 10139.18, -28642.80, -335.61, 42485.59, 13691.87, -35880.98, 0.00, 0.00, 0.00, 0.00, -0.12, 0.47, 0.88
112, 5499.27, 76065.87, 13061.40, 33125.29, -29852.83, -4043.27, 10139.18, -28642.80, -343.10, 42466.57, 13659.40, -35887.51, 0.00, 0.00, 0.00, 0.00, 0.00, 0.00, 0.00
113, 5491.76, 76066.38, 13052.05, 33113.71, -29863.74, -4049.31, 10137.72, -28641.12, -343.10, 42466.57, 13659.40, -35887.51, 0.00, 0.00, 0.00, 0.00, 0.00, 0.00, 0.00
114, 5491.76, 76066.38, 13052.05, 33113.71, -29863.74, -4049.31, 10137.72, -28641.12, -339.32, 42483.69, 13685.73, -35888.05, 0.00, 0.00, 0.00, 0.00, 0.00, 0.00, 0.00
115, 5491.00, 76063.14, 13054.87, 33106.17, -29863.34, -4050.83, 10136.63, -28644.61, -339.32, 42483.69, 13685.73, -35888.05, 0.00, 0.00, 0.00, 0.00, 0.00, 0.00, 0.00
116, 5491.00, 76063.14, 13054.87, 33106.17, -29863.34, -4050.83, 10136.63, -28644.61, -341.13, 42465.92, 13651.75, -35892.30, 0.00, 0.00, 0.00, 0.00, 0.00, 0.00, 0.00
117, 5490.62, 76064.84, 13051.97, 33104.88, -29865.06, -4053.44, 10133.52, -28643.54, -341.13, 42465.92, 13651.75, -35892.30, 0.00, 0.00, 0.00, 0.00, 0.00, 0.00, 0.00
118, 5490.62, 76064.84, 13051.97, 33104.88, -29865.06, -4053.44, 10133.52, -28643.54, -335.68, 42484.56, 13684.70, -35892.77, 0.00, 0.00, 0.00, 0.00, 0.00, 0.00, 0.00
119, 5498.86, 76068.73, 13056.97, 33104.07, -29859.96, -4051.28, 10138.77, -28639.87, -335.68, 42484.56, 13684.70, -35892.77, 0.00, 0.00, 0.00, 0.00, 0.00, 0.00, 0.00
120, 5498.86, 76068.73, 13056.97, 33104.07, -29859.96, -4051.28, 10138.77, -28639.87, -337.96, 42471.35, 13672.88, -35884.56, 0.00, 0.00, 0.00, 0.00, 0.00, 0.00, 0.00
121, 5496.50, 76064.99, 13055.43, 33107.67, -29863.38, -4051.07, 10135.71, -28642.96, -337.96, 42471.35, 13672.88, -35884.56, 0.00, 0.00, 0.00, 0.00, -0.12, 0.47, 0.88
122, 5496.50, 76064.99, 13055.43, 33107.67, -29863.38, -4051.07, 10135.71, -28642.96, -341.58, 42484.32, 13689.57, -35883.38, 0.00, 0.00, 0.00, 0.00, 0.00, 0.00, 0.00
123, 5495.89, 76073.87, 13063.63, 33114.04, -29856.74, -4044.91, 10141.72, -28640.41, -341.58, 42484.32, 13689.57, -35883.38, 0.00, 0.00, 0.00, 0.00, 0.00, 0.00, 0.00
124, 5495.89, 76073.87, 13063.63, 33114.04, -29856.74, -4044.91, 10141.72, -28640.41, -341.76, 42466.70, 13674.28, -35895.00, 0.00, 0.00, 0.00, 0.00, 0.00, 0.00, 0.00
125, 5494.46, 76064.70, 13052.88, 33106.80, -29865.21, -4052.01, 10135.76, -28646.17, -341.76, 42466.70, 13674.28, -35895.00, 0.00, 0.00, 0.00, 0.00, 0.00, 0.00, 0.00
126, 5494.46, 76064.70, 13052.88, 33106.80, -29865.21, -4052.01, 10135.76, -28646.17, -340.48, 42485.57, 13686.26, -35888.23, 0.00, 0.00, 0.00, 0.00, 0.00, 0.00, 0.00
127, 5503.16, 76077.27, 13064.13, 33117.89, -29854.49, -4043.27, 10145.95, -28637.30, -340.48, 42485.57, 13686.26, -35888.23, 0.00, 0.00, 0.00, 0.00, 0.00, 0.00, 0.00
128, 5503.16, 76077.27, 13064.13, 33117.89, -29854.49, -4043.27, 10145.95, -28637.30, -335.05, 42470.75, 13680.07, -35880.79, 0.00, 0.00, 0.00, 0.00, 0.00, 0.00, 0.00
129, 5494.77, 76069.69, 13058.63, 33112.48, -29859.67, -4046.16, 10138.53, -28643.87, -335.05, 42470.75, 13680.07, -35880.79, 0.00, 0.00, 0.00, 0.00, 0.00, 0.00, 0.00
130, 5494.77, 76069.69, 13058.63, 33112.48, -29859.67, -4046.16, 10138.53, -28643.87, -336.01, 42481.77, 13686.62, -35883.89, 0.00, 0.00, 0.00, 0.00, 0.00, 0.00, 0.00
131, 5504.90, 76082.07, 13072.33, 33124.30, -29848.83, -4036.17, 10150.98, -28630.75, -336.01, 42481.77, 13686.62, -35883.89, 0.00, 0.00, 0.00, 0.00, -0.11, 0.47, 0.88
132, 5504.90, 76082.07, 13072.33, 33124.30, -29848.83, -4036.17, 10150.98, -28630.75, -336.21, 42474.64, 13679.40, -35882.86, 0.00, 0.00, 0.00, 0.00, 0.00, 0.00, 0.00
133, 5496.54, 76062.83, 13055.12, 33109.55, -29860.77, -4047.43, 10135.24, -28644.21, -336.21, 42474.64, 13679.40, -35882.86, 0.00, 0.00, 0.00, 0.00, 0.00, 0.00, 0.00
134, 5496.54, 76062.83, 13055.12, 33109.55, -29860.77, -4047.43, 10135.24, -28644.21, -336.13, 42485.50, 13688.99, -35883.47, 0.00, 0.00, 0.00, 0.00, 0.00, 0.00, 0.00
135, 5508.88, 76082.81, 13074.92, 33129.24, -29843.69, -4032.19, 10155.96, -28625.45, -336.13, 42485.50, 13688.99, -35883.47, 0.00, 0.00, 0.00, 0.00, 0.00, 0.00, 0.00
136, 5508.88, 76082.81, 13074.92, 33129.24, -29843.69, -4032.19, 10155.96, -28625.45, -334.00, 42478.77, 13684.36, -35874.73, 0.00, 0.00, 0.00, 0.00, 0.00, 0.00, 0.00
137, 5495.67, 76067.88, 13060.33, 33111.25, -29857.62, -4046.69, 10138.04, -28640.70, -334.00, 42478.77, 13684.36, -35874.73, 0.00, 0.00, 0.00, 0.00, 0.00, 0.00, 0.00
138, 5495.67, 76067.88, 13060.33, 33111.25, -29857.62, -4046.69, 10138.04, -28640.70, -335.77, 42483.51, 13688.07, -35880.65, 0.00, 0.00, 0.00, 0.00, 0.00, 0.00, 0.00
139, 5517.60, 76088.13, 13078.09, 33126.51, -29844.27, -4034.42, 10155.76, -28627.62, -335.77, 42483.51, 13688.07, -35880.65, 0.00, 0.00, 0.00, 0.00, 0.00, 0.00, 0.00
140, 5517.60, 76088.13, 13078.09, 33126.51, -29844.27, -4034.42, 10155.76, -28627.62, -336.57, 42478.62, 13685.37, -35884.03, 0.00, 0.00, 0.00, 0.00, 0.00, 0.00, 0.00
141, 5502.37, 76074.18, 13062.29, 33109.28, -29858.93, -4049.15, 10131.96, -28645.64, -336.57, 42478.62, 13685.37, -35884.03, 0.00, 0.00, 0.00, 0.00, -0.12, 0.46, 0.88
142, 5502.37, 76074.18, 13062.29, 33109.28, -29858.93, -4049.15, 10131.96, -28645.64, -338.54, 42474.64, 13685.35, -35893.82, 0.00, 0.00, 0.00, 0.00, 0.00, 0.00, 0.00
143, 5520.17, 76093.47, 13078.23, 33124.99, -29844.14, -4032.95, 10154.80, -28626.93, -338.54, 42474.64, 13685.35, -35893.82, 0.00, 0.00, 0.00, 0.00, 0.00, 0.00, 0.00
144, 5520.17, 76093.47, 13078.23, 33124.99, -29844.14, -4032.95, 10154.80, -28626.93, -337.65, 42477.90, 13688.39, -35873.23, 0.00, 0.00, 0.00, 0.00, 0.00, 0.00, 0.00
145, 5504.90, 76082.45, 13066.83, 33113.28, -29858.20, -4045.26, 10137.86, -28639.78, -337.65, 42477.90, 13688.39, -35873.23, 0.00, 0.00, 0.00, 0.00, 0.00, 0.00, 0.00
146, 5504.90, 76082.45, 13066.83, 33113.28, -29858.20, -4045.26, 10137.86, -28639.78, -330.74, 42481.86, 13692.23, -35889.01, 0.00, 0.00, 0.00, 0.00, 0.00, 0.00, 0.00
147, 5524.48, 76105.79, 13086.70, 33130.05, -29839.49, -4031.14, 10158.62, -28621.21, -330.74, 42481.86, 13692.23, -35889.01, 0.00, 0.00, 0.00, 0.00, 0.00, 0.00, 0.00
148, 5524.48, 76105.79, 13086.70, 33130.05, -29839.49, -4031.14, 10158.62, -28621.21, -330.78, 42485.95, 13702.11, -35868.80, 0.00, 0.00, 0.00, 0.00, 0.00, 0.00, 0.00
149, 5509.53, 76087.15, 13067.70, 33109.66, -29854.20, -4046.05, 10137.01, -28639.11, -330.78, 42485.95, 13702.11, -35868.80, 0.00, 0.00, 0.00, 0.00, 0.00, 0.00, 0.00
150, 5509.53, 76087.15, 13067.70, 33109.66, -29854.20, -4046.05, 10137.01, -28639.11, -336.86, 42482.51, 13689.95, -35877.52, 0.00, 0.00, 0.00, 0.00, -0.12, 0.47, 0.88
151, 5517.86, 76099.59, 13080.87, 33126.83, -29843.67, -4032.57, 10153.55, -28624.13, -336.86, 42482.51, 13689.95, -35877.52, 0.00, 0.00, 0.00, 0.00, 0.00, 0.00, 0.00
152, 5517.86, 76099.59, 13080.87, 33126.83, -29843.67, -4032.57, 10153.55, -28624.13, -336.53, 42482.15, 13700.41, -35882.02, 0.00, 0.00, 0.00, 0.00, 0.00, 0.00, 0.00
153, 5501.30, 76083.34, 13067.17, 33110.93, -29857.95, -4044.84, 10140.23, -28639.36, -336.53, 42482.15, 13700.41, -35882.02, 0.00, 0.00, 0.00, 0.00, 0.00, 0.00, 0.00
154, 5501.30, 76083.34, 13067.17, 33110.93, -29857.95, -4044.84, 10140.23, -28639.36, -335.05, 42474.50, 13689.71, -35889.57, 0.00, 0.00, 0.00, 0.00, 0.00, 0.00, 0.00
155, 5512.45, 76094.19, 13077.33, 33123.79, -29846.51, -4034.02, 10151.87, -28621.99, -335.05, 42474.50, 13689.71, -35889.57, 0.00, 0.00, 0.00, 0.00, 0.00, 0.00, 0.00
156, 5512.45, 76094.19, 13077.33, 33123.79, -29846.51, -4034.02, 10151.87, -28621.99, -333.80, 42486.51, 13700.37, -35875.55, 0.00, 0.00, 0.00, 0.00, 0.00, 0.00, 0.00
157, 5503.74, 76081.06, 13065.89, 33112.03, -29854.35, -4042.29, 10140.38, -28634.80, -333.80, 42486.51, 13700.37, -35875.55, 0.00, 0.00, 0.00, 0.00, 0.00, 0.00, 0.00
158, 5503.74, 76081.06, 13065.89, 33112.03, -29854.35, -4042.29, 10140.38, -28634.80, -329.00, 42481.57, 13692.86, -35872.22, 0.00, 0.00, 0.00, 0.00, 0.00, 0.00, 0.00
159, 5509.03, 76089.59, 13074.74, 33118.82, -29847.22, -4035.67, 10149.48, -28624.65, -329.00, 42481.57, 13692.86, -35872.22, 0.00, 0.00, 0.00, 0.00, 0.00, 0.00, 0.00
160, 5509.03, 76089.59, 13074.74, 33118.82, -29847.22, -4035.67, 10149.48, -28624.65, -335.81, 42486.39, 13698.31, -35889.79, 0.00, 0.00, 0.00, 0.00, -0.12, 0.48, 0.88
161, 5508.25, 76088.87, 13071.52, 33115.67, -29856.79, -4040.90, 10141.84, -28634.73, -335.81, 42486.39, 13698.31, -35889.79, 0.00, 0.00, 0.00, 0.00, 0.00, 0.00, 0.00
162, 5508.25, 76088.87, 13071.52, 33115.67, -29856.79, -4040.90, 10141.84, -28634.73, -334.78, 42472.16, 13696.63, -35879.67, 0.00, 0.00, 0.00, 0.00, 0.00, 0.00, 0.00
163, 5515.78, 76096.60, 13077.74, 33120.23, -29855.49, -4038.92, 10145.81, -28630.06, -334.78, 42472.16, 13696.63, -35879.67, 0.00, 0.00, 0.00, 0.00, 0.00, 0.00, 0.00
164, 5515.78, 76096.60, 13077.74, 33120.23, -29855.49, -4038.92, 10145.81, -28630.06, -336.33, 42486.51, 13706.78, -35883.60, 0.00, 0.00, 0.00, 0.00, 0.00, 0.00, 0.00
165, 5522.80, 76101.41, 13084.98, 33123.38, -29848.99, -4034.71, 10148.18, -28628.36, -336.33, 42486.51, 13706.78, -35883.60, 0.00, 0.00, 0.00, 0.00, 0.00, 0.00, 0.00
166, 5522.80, 76101.41, 13084.98, 33123.38, -29848.99, -4034.71, 10148.18, -28628.36, -333.73, 42476.00, 13699.32, -35877.32, 0.00, 0.00, 0.00, 0.00, 0.00, 0.00, 0.00
167, 5517.62, 76097.72, 13080.69, 33119.59, -29854.40, -4038.22, 10145.79, -28627.67, -333.73, 42476.00, 13699.32, -35877.32, 0.00, 0.00, 0.00, 0.00, 0.00, 0.00, 0.00
168, 5517.62, 76097.72, 13080.69, 33119.59, -29854.40, -4038.22, 10145.79, -28627.67, -332.12, 42495.85, 13707.86, -35893.48, 0.00, 0.00, 0.00, 0.00, 0.00, 0.00, 0.00
169, 5517.93, 76099.15, 13083.50, 33125.48, -29850.22, -4033.60, 10145.64, -28624.87, -332.12, 42495.85, 13707.86, -35893.48, 0.00, 0.00, 0.00, 0.00, 0.00, 0.00, 0.00
170, 5517.93, 76099.15, 13083.50, 33125.48, -29850.22, -4033.60, 10145.64, -28624.87, -329.38, 42477.50, 13697.30, -35871.46, 0.00, 0.00, 0.00, 0.00, -0.12, 0.47, 0.88
171, 5512.32, 76094.59, 13077.38, 33118.98, -29858.13, -4038.13, 10144.72, -28626.48, -329.38, 42477.50, 13697.30, -35871.46, 0.00, 0.00, 0.00, 0.00, 0.00, 0.00, 0.00
172, 5512.32, 76094.59, 13077.38, 33118.98, -29858.13, -4038.13, 10144.72, -28626.48, -331.61, 42490.91, 13706.22, -35873.83, 0.00, 0.00, 0.00, 0.00, 0.00, 0.00, 0.00
173, 5519.81, 76097.95, 13080.55, 33123.88, -29853.84, -4031.47, 10153.12, -28619.98, -331.61, 42490.91, 13706.22, -35873.83, 0.00, 0.00, 0.00, 0.00, 0.00, 0.00, 0.00
174, 5519.81, 76097.95, 13080.55, 33123.88, -29853.84, -4031.47, 10153.12, -28619.98, -326.47, 42482.89, 13698.85, -35871.38, 0.00, 0.00, 0.00, 0.00, 0.00, 0.00, 0.00
175, 5507.04, 76094.12, 13074.05, 33116.52, -29862.20, -4039.00, 10141.03, -28626.55, -326.47, 42482.89, 13698.85, -35871.38, 0.00, 0.00, 0.00, 0.00, 0.00, 0.00, 0.00
176, 5507.04, 76094.12, 13074.05, 33116.52, -29862.20, -4039.00, 10141.03, -28626.55, -326.60, 42493.50, 13714.63, -35890.53, 0.00, 0.00, 0.00, 0.00, 0.00, 0.00, 0.00
177, 5522.22, 76108.07, 13087.24, 33125.51, -29852.59, -4029.75, 10151.65, -28613.32, -326.60, 42493.50, 13714.63, -35890.53, 0.00, 0.00, 0.00, 0.00, 0.00, 0.00, 0.00
178, 5522.22, 76108.07, 13087.24, 33125.51, -29852.59, -4029.75, 10151.65, -28613.32, -321.35, 42486.38, 13711.48, -35865.61, 0.00, 0.00, 0.00, 0.00, 0.00, 0.00, 0.00
179, 5514.13, 76098.59, 13077.27, 33113.44, -29862.22, -4038.33, 10140.74, -28624.20, -321.35, 42486.38, 13711.48, -35865.61, 0.00, 0.00, 0.00, 0.00, 0.00, 0.00, 0.00
180, 5514.13, 76098.59, 13077.27, 33113.44, -29862.22, -4038.33, 10140.74, -28624.20, -326.11, 42495.87, 13711.21, -35876.29, 0.00, 0.00, 0.00, 0.00, -0.12, 0.47, 0.88
181, 5515.90, 76104.55, 13082.83, 33123.59, -29859.22, -4031.09, 10143.58, -28619.33, -326.11, 42495.87, 13711.21, -35876.29, 0.00, 0.00, 0.00, 0.00, 0.00, 0.00, 0.00
182, 5515.90, 76104.55, 13082.83, 33123.59, -29859.22, -4031.09, 10143.58, -28619.33, -329.98, 42479.62, 13699.05, -35874.75, 0.00, 0.00, 0.00, 0.00, 0.00, 0.00, 0.00
183, 5503.07, 76083.52, 13064.86, 33107.61, -29881.60, -4047.30, 10131.02, -28633.10, -329.98, 42479.62, 13699.05, -35874.75, 0.00, 0.00, 0.00, 0.00, 0.00, 0.00, 0.00
184, 5503.07, 76083.52, 13064.86, 33107.61, -29881.60, -4047.30, 10131.02, -28633.10, -331.28, 42487.51, 13698.60, -35886.26, 0.00, 0.00, 0.00, 0.00, 0.00, 0.00, 0.00
185, 5515.74, 76098.08, 13079.64, 33122.63, -29869.55, -4033.91, 10144.38, -28618.68, -331.28, 42487.51, 13698.60, -35886.26, 0.00, 0.00, 0.00, 0.00, 0.00, 0.00, 0.00
186, 5515.74, 76098.08, 13079.64, 33122.63, -29869.55, -4033.91, 10144.38, -28618.68, -329.26, 42484.43, 13691.40, -35873.18, 0.00, 0.00, 0.00, 0.00, 0.00, 0.00, 0.00
187, 5505.59, 76084.58, 13067.32, 33111.88, -29883.88, -4045.20, 10129.05, -28634.13, -329.26, 42484.43, 13691.40, -35873.18, 0.00, 0.00, 0.00, 0.00, 0.00, 0.00, 0.00
188, 5505.59, 76084.58, 13067.32, 33111.88, -29883.88, -4045.20, 10129.05, -28634.13, -330.38, 42484.09, 13696.99, -35875.93, 0.00, 0.00, 0.00, 0.00, 0.00, 0.00, 0.00
189, 5522.94, 76106.63, 13086.37, 33128.66, -29865.04, -4028.59, 10145.99, -28611.95, -330.38, 42484.09, 13696.99, -35875.93, 0.00, 0.00, 0.00, 0.00, -0.12, 0.47, 0.88
190, 5522.94, 76106.63, 13086.37, 33128.66, -29865.04, -4028.59, 10145.99, -28611.95, -327.23, 42490.04, 13701.46, -35884.41, 0.00, 0.00, 0.00, 0.00, 0.00, 0.00, 0.00
191, 5507.72, 76087.95, 13070.18, 33112.12, -29883.81, -4043.01, 10126.12, -28631.00, -327.23, 42490.04, 13701.46, -35884.41, 0.00, 0.00, 0.00, 0.00, 0.00, 0.00, 0.00
192, 5507.72, 76087.95, 13070.18, 33112.12, -29883.81, -4043.01, 10126.12, -28631.00, -329.15, 42488.05, 13691.36, -35880.47, 0.00, 0.00, 0.00, 0.00, 0.00, 0.00, 0.00
193, 5523.07, 76105.90, 13084.62, 33126.65, -29874.54, -4030.62, 10143.60, -28612.82, -329.15, 42488.05, 13691.36, -35880.47, 0.00, 0.00, 0.00, 0.00, 0.00, 0.00, 0.00
194, 5523.07, 76105.90, 13084.62, 33126.65, -29874.54, -4030.62, 10143.60, -28612.82, -324.82, 42490.13, 13706.80, -35862.19, 0.00, 0.00, 0.00, 0.00, 0.00, 0.00, 0.00
195, 5504.74, 76089.16, 13067.37, 33108.52, -29890.34, -4045.71, 10124.78, -28632.70, -324.82, 42490.13, 13706.80, -35862.19, 0.00, 0.00, 0.00, 0.00, 0.00, 0.00, 0.00
196, 5504.74, 76089.16, 13067.37, 33108.52, -29890.34, -4045.71, 10124.78, -28632.70, -329.20, 42482.77, 13693.53, -35882.04, 0.00, 0.00, 0.00, 0.00, 0.00, 0.00, 0.00
197, 5523.50, 76106.99, 13085.34, 33125.78, -29875.07, -4031.94, 10143.20, -28615.06, -329.20, 42482.77, 13693.53, -35882.04, 0.00, 0.00, 0.00, 0.00, 0.00, 0.00, 0.00
198, 5523.50, 76106.99, 13085.34, 33125.78, -29875.07, -4031.94, 10143.20, -28615.06, -327.25, 42494.93, 13706.33, -35875.98, 0.00, 0.00, 0.00, 0.00, 0.00, 0.00, 0.00
199, 5515.20, 76091.44, 13068.39, 33109.93, -29893.60, -4044.66, 10123.06, -28630.46, -327.25, 42494.93, 13706.33, -35875.98, 0.00, 0.00, 0.00, 0.00, -0.12, 0.46, 0.87
200, 5515.20, 76091.44, 13068.39, 33109.93, -29893.60, -4044.66, 10123.06, -28630.46, -333.82, 42481.88, 13690.58, -35870.12, 0.00, 0.00, 0.00, 0.00, 0.00, 0.00, 0.00
201, 5521.17, 76101.88, 13076.84, 33120.86, -29887.79, -4037.31, 10133.32, -28618.05, -333.82, 42481.88, 13690.58, -35870.12, 0.00, 0.00, 0.00, 0.00, 0.00, 0.00, 0.00
202, 5521.17, 76101.88, 13076.84, 33120.86, -29887.79, -4037.31, 10133.32, -28618.05, -335.41, 42491.65, 13697.80, -35875.38, 0.00, 0.00, 0.00, 0.00, 0.00, 0.00, 0.00
203, 5513.88, 76091.41, 13068.04, 33108.45, -29900.13, -4048.08, 10116.71, -28634.86, -335.41, 42491.65, 13697.80, -35875.38, 0.00, 0.00, 0.00, 0.00, 0.00, 0.00, 0.00
204, 5513.88, 76091.41, 13068.04, 33108.45, -29900.13, -4048.08, 10116.71, -28634.86, -334.20, 42475.64, 13689.91, -35885.86, 0.00, 0.00, 0.00, 0.00, 0.00, 0.00, 0.00
205, 5523.38, 76104.58, 13079.93, 33122.60, -29890.63, -4039.34, 10130.70, -28623.15, -334.20, 42475.64, 13689.91, -35885.86, 0.00, 0.00, 0.00, 0.00, 0.00, 0.00, 0.00
206, 5523.38, 76104.58, 13079.93, 33122.60, -29890.63, -4039.34, 10130.70, -28623.15, -336.15, 42484.18, 13701.69, -35894.02, 0.00, 0.00, 0.00, 0.00, 0.00, 0.00, 0.00
207, 5517.57, 76098.10, 13072.51, 33113.64, -29902.36, -4046.76, 10118.68, -28634.15, -336.15, 42484.18, 13701.69, -35894.02, 0.00, 0.00, 0.00, 0.00, 0.00, 0.00, 0.00
208, 5517.57, 76098.10, 13072.51, 33113.64, -29902.36, -4046.76, 10118.68, -28634.15, -337.96, 42471.31, 13690.53, -35874.10, 0.00, 0.00, 0.00, 0.00, 0.00, 0.00, 0.00
209, 5527.09, 76105.83, 13078.90, 33120.57, -29895.01, -4040.01, 10127.24, -28622.68, -337.96, 42471.31, 13690.53, -35874.10, 0.00, 0.00, 0.00, 0.00, -0.12, 0.47, 0.88
210, 5527.09, 76105.83, 13078.90, 33120.57, -29895.01, -4040.01, 10127.24, -28622.68, -333.58, 42487.98, 13705.60, -35879.69, 0.00, 0.00, 0.00, 0.00, 0.00, 0.00, 0.00
211, 5528.23, 76105.77, 13081.02, 33118.07, -29894.56, -4041.98, 10125.36, -28625.10, -333.58, 42487.98, 13705.60, -35879.69, 0.00, 0.00, 0.00, 0.00, 0.00, 0.00, 0.00
212, 5528.23, 76105.77, 13081.02, 33118.07, -29894.56, -4041.98, 10125.36, -28625.10, -330.85, 42480.16, 13694.33, -35874.08, 0.00, 0.00, 0.00, 0.00, 0.00, 0.00, 0.00
213, 5523.56, 76105.79, 13080.42, 33118.91, -29895.41, -4038.45, 10127.87, -28619.64, -330.85, 42480.16, 13694.33, -35874.08, 0.00, 0.00, 0.00, 0.00, 0.00, 0.00, 0.00
214, 5523.56, 76105.79, 13080.42, 33118.91, -29895.41, -4038.45, 10127.87, -28619.64, -330.56, 42494.71, 13706.25, -35874.75, 0.00, 0.00, 0.00, 0.00, 0.00, 0.00, 0.00
215, 5518.51, 76109.03, 13083.44, 33122.18, -29890.32, -4038.02, 10130.21, -28617.18, -330.56, 42494.71, 13706.25, -35874.75, 0.00, 0.00, 0.00, 0.00, 0.00, 0.00, 0.00
216, 5518.51, 76109.03, 13083.44, 33122.18, -29890.32, -4038.02, 10130.21, -28617.18, -324.97, 42477.63, 13700.37, -35869.25, 0.00, 0.00, 0.00, 0.00, 0.00, 0.00, 0.00
217, 5523.21, 76103.35, 13081.00, 33123.74, -29896.60, -4039.59, 10128.27, -28618.86, -324.97, 42477.63, 13700.37, -35869.25, 0.00, 0.00, 0.00, 0.00, 0.00, 0.00, 0.00
218, 5523.21, 76103.35, 13081.00, 33123.74, -29896.60, -4039.59, 10128.27, -28618.86, -330.60, 42490.80, 13707.86, -35885.95, 0.00, 0.00, 0.00, 0.00, 0.00, 0.00, 0.00
219, 5511.65, 76095.46, 13075.70, 33117.55, -29897.45, -4042.47, 10128.33, -28619.89, -330.60, 42490.80, 13707.86, -35885.95, 0.00, 0.00, 0.00, 0.00, -0.12, 0.47, 0.88
220, 5511.65, 76095.46, 13075.70, 33117.55, -29897.45, -4042.47, 10128.33, -28619.89, -329.93, 42477.59, 13689.48, -35868.96, 0.00, 0.00, 0.00, 0.00, 0.00, 0.00, 0.00
221, 5499.09, 76085.23, 13064.55, 33111.00, -29905.54, -4048.88, 10119.13, -28624.58, -329.93, 42477.59, 13689.48, -35868.96, 0.00, 0.00, 0.00, 0.00, 0.00, 0.00, 0.00
222, 5499.09, 76085.23, 13064.55, 33111.00, -29905.54, -4048.88, 10119.13, -28624.58, -327.90, 42496.36, 13700.14, -35883.42, 0.00, 0.00, 0.00, 0.00, 0.00, 0.00, 0.00
223, 5511.87, 76093.05, 13073.67, 33118.82, -29898.54, -4041.28, 10127.28, -28613.58, -327.90, 42496.36, 13700.14, -35883.42, 0.00, 0.00, 0.00, 0.00, 0.00, 0.00, 0.00
224, 5511.87, 76093.05, 13073.67, 33118.82, -29898.54, -4041.28, 10127.28, -28613.58, -327.56, 42476.76, 13688.72, -35874.13, 0.00, 0.00, 0.00, 0.00, 0.00, 0.00, 0.00
225, 5502.13, 76078.98, 13058.72, 33109.66, -29914.17, -4051.72, 10111.86, -28628.67, -327.56, 42476.76, 13688.72, -35874.13, 0.00, 0.00, 0.00, 0.00, 0.00, 0.00, 0.00
226, 5502.13, 76078.98, 13058.72, 33109.66, -29914.17, -4051.72, 10111.86, -28628.67, -334.58, 42489.05, 13690.22, -35877.41, 0.00, 0.00, 0.00, 0.00, 0.00, 0.00, 0.00
227, 5510.80, 76090.25, 13066.65, 33117.19, -29905.54, -4044.82, 10121.05, -28618.64, -334.58, 42489.05, 13690.22, -35877.41, 0.00, 0.00, 0.00, 0.00, 0.00, 0.00, 0.00
228, 5510.80, 76090.25, 13066.65, 33117.19, -29905.54, -4044.82, 10121.05, -28618.64, -340.37, 42464.49, 13679.29, -35883.07, 0.00, 0.00, 0.00, 0.00, -0.12, 0.47, 0.88
229, 5501.01, 76075.10, 13053.84, 33103.16, -29924.94, -4060.33, 10101.04, -28639.87, -340.37, 42464.49, 13679.29, -35883.07, 0.00, 0.00, 0.00, 0.00, 0.00, 0.00, 0.00
230, 5501.01, 76075.10, 13053.84, 33103.16, -29924.94, -4060.33, 10101.04, -28639.87, -342.21, 42476.14, 13690.91, -35893.84, 0.00, 0.00, 0.00, 0.00, 0.00, 0.00, 0.00
231, 5519.03, 76098.70, 13073.11, 33121.86, -29908.22, -4044.77, 10121.72, -28619.40, -342.21, 42476.14, 13690.91, -35893.84, 0.00, 0.00, 0.00, 0.00, 0.00, 0.00, 0.00
232, 5519.03, 76098.70, 13073.11, 33121.86, -29908.22, -4044.77, 10121.72, -28619.40, -337.24, 42470.88, 13692.95, -35888.41, 0.00, 0.00, 0.00, 0.00, 0.00, 0.00, 0.00
233, 5505.03, 76087.99, 13060.26, 33104.95, -29918.70, -4059.03, 10103.84, -28636.58, -337.24, 42470.88, 13692.95, -35888.41, 0.00, 0.00, 0.00, 0.00, 0.00, 0.00, 0.00
234, 5505.03, 76087.99, 13060.26, 33104.95, -29918.70, -4059.03, 10103.84, -28636.58, -335.16, 42483.02, 13703.00, -35885.66, 0.00, 0.00, 0.00, 0.00, 0.00, 0.00, 0.00
235, 5528.35, 76113.03, 13084.04, 33126.58, -29896.64, -4043.21, 10125.67, -28614.17, -335.16, 42483.02, 13703.00, -35885.66, 0.00, 0.00, 0.00, 0.00, 0.00, 0.00, 0.00
236, 5528.35, 76113.03, 13084.04, 33126.58, -29896.64, -4043.21, 10125.67, -28614.17, -326.72, 42483.20, 13709.82, -35873.88, 0.00, 0.00, 0.00, 0.00, 0.00, 0.00, 0.00
237, 5518.09, 76100.06, 13074.45, 33112.14, -29911.95, -4053.96, 10112.64, -28627.93, -326.72, 42483.20, 13709.82, -35873.88, 0.00, 0.00, 0.00, 0.00, 0.00, 0.00, 0.00
238, 5518.09, 76100.06, 13074.45, 33112.14, -29911.95, -4053.96, 10112.64, -28627.93, -329.73, 42486.80, 13709.75, -35874.59, 0.00, 0.00, 0.00, 0.00, -0.11, 0.47, 0.88
239, 5529.78, 76114.86, 13090.05, 33129.48, -29895.12, -4040.21, 10132.20, -28611.46, -329.73, 42486.80, 13709.75, -35874.59, 0.00, 0.00, 0.00, 0.00, 0.00, 0.00, 0.00
240, 5529.78, 76114.86, 13090.05, 33129.48, -29895.12, -4040.21, 10132.20, -28611.46, -330.87, 42484.23, 13709.13, -35877.63, 0.00, 0.00, 0.00, 0.00, 0.00, 0.00, 0.00
241, 5504.14, 76091.26, 13069.38, 33110.58, -29914.26, -4057.02, 10108.82, -28631.27, -330.87, 42484.23, 13709.13, -35877.63, 0.00, 0.00, 0.00, 0.00, 0.00, 0.00, 0.00
242, 5504.14, 76091.26, 13069.38, 33110.58, -29914.26, -4057.02, 10108.82, -28631.27, -336.42, 42474.97, 13698.18, -35886.75, 0.00, 0.00, 0.00, 0.00, 0.00, 0.00, 0.00
243, 5510.73, 76096.80, 13076.02, 33120.57, -29904.38, -4047.99, 10121.94, -28618.86, -336.42, 42474.97, 13698.18, -35886.75, 0.00, 0.00, 0.00, 0.00, 0.00, 0.00, 0.00
244, 5510.73, 76096.80, 13076.02, 33120.57, -29904.38, -4047.99, 10121.94, -28618.86, -336.08, 42478.48, 13699.23, -35879.00, 0.00, 0.00, 0.00, 0.00, 0.00, 0.00, 0.00
245, 5499.98, 76081.31, 13059.27, 33106.35, -29920.07, -4061.13, 10104.51, -28630.57, -336.08, 42478.48, 13699.23, -35879.00, 0.00, 0.00, 0.00, 0.00, 0.00, 0.00, 0.00
246, 5499.98, 76081.31, 13059.27, 33106.35, -29920.07, -4061.13, 10104.51, -28630.57, -332.44, 42475.36, 13692.68, -35886.39, 0.00, 0.00, 0.00, 0.00, 0.00, 0.00, 0.00
247, 5505.28, 76092.58, 13069.67, 33121.51, -29905.63, -4050.11, 10119.37, -28615.22, -332.44, 42475.36, 13692.68, -35886.39, 0.00, 0.00, 0.00, 0.00, 0.00, 0.00, 0.00
248, 5505.28, 76092.58, 13069.67, 33121.51, -29905.63, -4050.11, 10119.37, -28615.22, -330.69, 42484.20, 13698.18, -35877.28, 0.00, 0.00, 0.00, 0.00, -0.12, 0.47, 0.88
249, 5494.01, 76074.05, 13051.47, 33104.39, -29923.89, -4060.91, 10103.90, -28631.53, -330.69, 42484.20, 13698.18, -35877.28, 0.00, 0.00, 0.00, 0.00, 0.00, 0.00, 0.00
250, 5494.01, 76074.05, 13051.47, 33104.39, -29923.89, -4060.91, 10103.90, -28631.53, -336.62, 42472.00, 13683.85, -35882.57, 0.00, 0.00, 0.00, 0.00, 0.00, 0.00, 0.00
251, 5498.73, 76083.84, 13061.98, 33117.50, -29910.61, -4051.32, 10119.48, -28614.01, -336.62, 42472.00, 13683.85, -35882.57, 0.00, 0.00, 0.00, 0.00, 0.00, 0.00, 0.00
252, 5498.73, 76083.84, 13061.98, 33117.50, -29910.61, -4051.32, 10119.48, -28614.01, -333.60, 42490.39, 13695.38, -35882.19, 0.00, 0.00, 0.00, 0.00, 0.00, 0.00, 0.00
253, 5488.31, 76068.35, 13048.52, 33103.40, -29920.02, -4060.98, 10103.77, -28627.91, -333.60, 42490.39, 13695.38, -35882.19, 0.00, 0.00, 0.00, 0.00, 0.00, 0.00, 0.00
254, 5488.31, 76068.35, 13048.52, 33103.40, -29920.02, -4060.98, 10103.77, -28627.91, -335.03, 42477.86, 13681.12, -35872.52, 0.00, 0.00, 0.00, 0.00, 0.00, 0.00, 0.00
255, 5495.15, 76076.51, 13057.26, 33117.17, -29915.73, -4053.06, 10114.25, -28618.21, -335.03, 42477.86, 13681.12, -35872.52, 0.00, 0.00, 0.00, 0.00, 0.00, 0.00, 0.00
0, 5495.15, 76076.51, 13057.26, 33117.17, -29915.73, -4053.06, 10114.25, -28618.21, -341.51, 42482.53, 13692.79, -35892.30, 0.00, 0.00, 0.00, 0.00, 0.00, 0.00, 0.00
1, 5490.48, 76076.62, 13054.96, 33107.56, -29916.13, -4062.18, 10106.70, -28627.22, -341.51, 42482.53, 13692.79, -35892.30, 0.00, 0.00, 0.00, 0.00, 0.00, 0.00, 0.00
2, 5490.48, 76076.62, 13054.96, 33107.56, -29916.13, -4062.18, 10106.70, -28627.22, -335.72, 42470.64, 13690.42, -35875.89, 0.00, 0.00, 0.00, 0.00, -0.12, 0.48, 0.88
3, 5497.12, 76086.32, 13062.85, 33115.27, -29911.75, -4058.36, 10113.18, -28619.53, -335.72, 42470.64, 13690.42, -35875.89, 0.00, 0.00, 0.00, 0.00, 0.00, 0.00, 0.00
4, 5497.12, 76086.32, 13062.85, 33115.27, -29911.75, -4058.36, 10113.18, -28619.53, -339.72, 42479.85, 13706.20, -35885.66, 0.00, 0.00, 0.00, 0.00, 0.00, 0.00, 0.00
5, 5498.86, 76081.20, 13058.16, 33110.58, -29913.38, -4062.50, 10109.02, -28624.36, -339.72, 42479.85, 13706.20, -35885.66, 0.00, 0.00, 0.00, 0.00, 0.00, 0.00, 0.00
6, 5498.86, 76081.20, 13058.16, 33110.58, -29913.38, -4062.50, 10109.02, -28624.36, -337.98, 42467.38, 13691.63, -35885.21, 0.00, 0.00, 0.00, 0.00, 0.00, 0.00, 0.00
7, 5500.29, 76084.66, 13064.10, 33115.41, -29906.92, -4058.72, 10112.13, -28620.69, -337.98, 42467.38, 13691.63, -35885.21, 0.00, 0.00, 0.00, 0.00, 0.00, 0.00, 0.00
8, 5500.29, 76084.66, 13064.10, 33115.41, -29906.92, -4058.72, 10112.13, -28620.69, -336.37, 42489.61, 13712.79, -35881.19, 0.00, 0.00, 0.00, 0.00, 0.00, 0.00, 0.00
9, 5502.37, 76092.17, 13068.48, 33117.55, -29904.71, -4056.17, 10118.10, -28613.56, -336.37, 42489.61, 13712.79, -35881.19, 0.00, 0.00, 0.00, 0.00, 0.00, 0.00, 0.00
10, 5502.37, 76092.17, 13068.48, 33117.55, -29904.71, -4056.17, 10118.10, -28613.56, -339.21, 42474.64, 13696.70, -35877.75, 0.00, 0.00, 0.00, 0.00, 0.00, 0.00, 0.00
11, 5499.47, 76081.98, 13055.70, 33107.83, -29917.81, -4067.41, 10106.70, -28623.53, -339.21, 42474.64, 13696.70, -35877.75, 0.00, 0.00, 0.00, 0.00, -0.11, 0.47, 0.87
12, 5499.47, 76081.98, 13055.70, 33107.83, -29917.81, -4067.41, 10106.70, -28623.53, -345.16, 42481.19, 13704.35, -35886.53, 0.00, 0.00, 0.00, 0.00, 0.00, 0.00, 0.00
13, 5504.81, 76095.10, 13068.57, 33115.61, -29908.24, -4059.21, 10116.06, -28618.75, -345.16, 42481.19, 13704.35, -35886.53, 0.00, 0.00, 0.00, 0.00, 0.00, 0.00, 0.00
14, 5504.81, 76095.10, 13068.57, 33115.61, -29908.24, -4059.21, 10116.06, -28618.75, -342.09, 42465.72, 13696.01, -35890.75, 0.00, 0.00, 0.00, 0.00, 0.00, 0.00, 0.00
15, 5498.46, 76088.60, 13059.79, 33107.29, -29916.07, -4069.40, 10103.77, -28626.48, -342.09, 42465.72, 13696.01, -35890.75, 0.00, 0.00, 0.00, 0.00, 0.00, 0.00, 0.00
16, 5498.46, 76088.60, 13059.79, 33107.29, -29916.07, -4069.40, 10103.77, -28626.48, -339.75, 42479.78, 13705.89, -35886.02, 0.00, 0.00, 0.00, 0.00, 0.00, 0.00, 0.00
17, 5505.48, 76093.59, 13067.34, 33118.40, -29905.31, -4060.33, 10114.19, -28616.87, -339.75, 42479.78, 13705.89, -35886.02, 0.00, 0.00, 0.00, 0.00, 0.00, 0.00, 0.00
18, 5505.48, 76093.59, 13067.34, 33118.40, -29905.31, -4060.33, 10114.19, -28616.87, -341.31, 42467.55, 13692.79, -35888.32, 0.00, 0.00, 0.00, 0.00, 0.00, 0.00, 0.00
19, 5490.37, 76075.43, 13052.14, 33101.79, -29925.05, -4074.39, 10098.23, -28631.00, -341.31, 42467.55, 13692.79, -35888.32, 0.00, 0.00, 0.00, 0.00, 0.00, 0.00, 0.00
20, 5490.37, 76075.43, 13052.14, 33101.79, -29925.05, -4074.39, 10098.23, -28631.00, -343.64, 42479.40, 13697.57, -35884.36, 0.00, 0.00, 0.00, 0.00, 0.00, 0.00, 0.00
21, 5504.54, 76094.99, 13069.56, 33122.36, -29905.76, -4059.48, 10120.11, -28611.75, -343.64, 42479.40, 13697.57, -35884.36, 0.00, 0.00, 0.00, 0.00, -0.11, 0.47, 0.88
22, 5504.54, 76094.99, 13069.56, 33122.36, -29905.76, -4059.48, 10120.11, -28611.75, -337.91, 42473.14, 13698.04, -35887.00, 0.00, 0.00, 0.00, 0.00, 0.00, 0.00, 0.00
23, 5491.15, 76077.60, 13050.98, 33100.92, -29921.81, -4075.04, 10102.67, -28630.33, -337.91, 42473.14, 13698.04, -35887.00, 0.00, 0.00, 0.00, 0.00, 0.00, 0.00, 0.00
24, 5491.15, 76077.60, 13050.98, 33100.92, -29921.81, -4075.04, 10102.67, -28630.33, -340.39, 42481.88, 13698.76, -35879.15, 0.00, 0.00, 0.00, 0.00, 0.00, 0.00, 0.00
25, 5501.93, 76093.16, 13065.26, 33116.37, -29904.20, -4063.75, 10117.74, -28612.71, -340.39, 42481.88, 13698.76, -35879.15, 0.00, 0.00, 0.00, 0.00, 0.00, 0.00, 0.00
26, 5501.93, 76093.16, 13065.26, 33116.37, -29904.20, -4063.75, 10117.74, -28612.71, -340.86, 42473.57, 13695.20, -35883.22, 0.00, 0.00, 0.00, 0.00, 0.00, 0.00, 0.00
27, 5482.95, 76070.25, 13043.27, 33095.36, -29922.12, -4080.40, 10093.04, -28635.02, -340.86, 42473.57, 13695.20, -35883.22, 0.00, 0.00, 0.00, 0.00, 0.00, 0.00, 0.00
28, 5482.95, 76070.25, 13043.27, 33095.36, -29922.12, -4080.40, 10093.04, -28635.02, -339.08, 42476.74, 13693.91, -35885.01, 0.00, 0.00, 0.00, 0.00, 0.00, 0.00, 0.00
29, 5495.04, 76082.92, 13056.10, 33113.35, -29912.76, -4065.40, 10116.98, -28613.99, -339.08, 42476.74, 13693.91, -35885.01, 0.00, 0.00, 0.00, 0.00, 0.00, 0.00, 0.00
30, 5495.04, 76082.92, 13056.10, 33113.35, -29912.76, -4065.40, 10116.98, -28613.99, -341.38, 42474.48, 13689.57, -35885.12, 0.00, 0.00, 0.00, 0.00, 0.00, 0.00, 0.00
31, 5478.81, 76061.71, 13037.95, 33096.38, -29928.83, -4082.57, 10094.94, -28636.74, -341.38, 42474.48, 13689.57, -35885.12, 0.00, 0.00, 0.00, 0.00, -0.12, 0.46, 0.88
32, 5478.81, 76061.71, 13037.95, 33096.38, -29928.83, -4082.57, 10094.94, -28636.74, -344.28, 42471.46, 13688.30, -35887.47, 0.00, 0.00, 0.00, 0.00, 0.00, 0.00, 0.00
33, 5493.72, 76079.84, 13054.74, 33114.93, -29909.67, -4067.46, 10113.25, -28616.89, -344.28, 42471.46, 13688.30, -35887.47, 0.00, 0.00, 0.00, 0.00, 0.00, 0.00, 0.00
34, 5493.72, 76079.84, 13054.74, 33114.93, -29909.67, -4067.46, 10113.25, -28616.89, -339.10, 42479.67, 13692.30, -35883.58, 0.00, 0.00, 0.00, 0.00, 0.00, 0.00, 0.00
35, 5480.25, 76063.12, 13039.43, 33098.80, -29923.51, -4082.08, 10096.28, -28635.33, -339.10, 42479.67, 13692.30, -35883.58, 0.00, 0.00, 0.00, 0.00, 0.00, 0.00, 0.00
36, 5480.25, 76063.12, 13039.43, 33098.80, -29923.51, -4082.08, 10096.28, -28635.33, -340.37, 42476.45, 13690.06, -35891.43, 0.00, 0.00, 0.00, 0.00, 0.00, 0.00, 0.00
37, 5495.06, 76083.88, 13060.01, 33119.76, -29905.63, -4064.20, 10119.68, -28614.28, -340.37, 42476.45, 13690.06, -35891.43, 0.00, 0.00, 0.00, 0.00, 0.00, 0.00, 0.00
38, 5495.06, 76083.88, 13060.01, 33119.76, -29905.63, -4064.20, 10119.68, -28614.28, -336.66, 42484.07, 13699.07, -35878.37, 0.00, 0.00, 0.00, 0.00, 0.00, 0.00, 0.00
39, 5488.67, 76068.39, 13042.44, 33104.83, -29920.09, -4079.28, 10099.28, -28628.09, -336.66, 42484.07, 13699.07, -35878.37, 0.00, 0.00, 0.00, 0.00, 0.00, 0.00, 0.00
40, 5488.67, 76068.39, 13042.44, 33104.83, -29920.09, -4079.28, 10099.28, -28628.09, -338.67, 42475.27, 13690.00, -35880.67, 0.00, 0.00, 0.00, 0.00, 0.00, 0.00, 0.00
41, 5497.46, 76083.80, 13057.91, 33120.50, -29906.16, -4068.20, 10116.98, -28615.26, -338.67, 42475.27, 13690.00, -35880.67, 0.00, 0.00, 0.00, 0.00, -0.12, 0.46, 0.88
42, 5497.46, 76083.80, 13057.91, 33120.50, -29906.16, -4068.20, 10116.98, -28615.26, -347.95, 42476.00, 13690.51, -35887.40, 0.00, 0.00, 0.00, 0.00, 0.00, 0.00, 0.00
43, 5481.16, 76065.20, 13040.23, 33101.84, -29924.56, -4084.80, 10092.21, -28639.45, -347.95, 42476.00, 13690.51, -35887.40, 0.00, 0.00, 0.00, 0.00, 0.00, 0.00, 0.00
44, 5481.16, 76065.20, 13040.23, 33101.84, -29924.56, -4084.80, 10092.21, -28639.45, -346.14, 42467.06, 13683.27, -35892.07, 0.00, 0.00, 0.00, 0.00, 0.00, 0.00, 0.00
45, 5498.82, 76079.01, 13051.12, 33115.89, -29912.49, -4072.49, 10110.01, -28618.90, -346.14, 42467.06, 13683.27, -35892.07, 0.00, 0.00, 0.00, 0.00, 0.00, 0.00, 0.00
46, 5498.82, 76079.01, 13051.12, 33115.89, -29912.49, -4072.49, 10110.01, -28618.90, -341.09, 42483.07, 13696.77, -35881.75, 0.00, 0.00, 0.00, 0.00, 0.00, 0.00, 0.00
47, 5489.05, 76071.88, 13045.80, 33107.67, -29918.01, -4078.61, 10101.78, -28629.14, -341.09, 42483.07, 13696.77, -35881.75, 0.00, 0.00, 0.00, 0.00, 0.00, 0.00, 0.00
48, 5489.05, 76071.88, 13045.80, 33107.67, -29918.01, -4078.61, 10101.78, -28629.14, -336.37, 42476.00, 13686.84, -35885.23, 0.00, 0.00, 0.00, 0.00, 0.00, 0.00, 0.00
49, 5496.18, 76081.58, 13055.09, 33119.47, -29906.12, -4071.28, 10115.66, -28616.80, -336.37, 42476.00, 13686.84, -35885.23, 0.00, 0.00, 0.00, 0.00, 0.00, 0.00, 0.00
50, 5496.18, 76081.58, 13055.09, 33119.47, -29906.12, -4071.28, 10115.66, -28616.80, -338.43, 42486.91, 13698.71, -35885.25, 0.00, 0.00, 0.00, 0.00, -0.12, 0.47, 0.88
51, 5490.64, 76072.35, 13044.88, 33111.63, -29914.37, -4080.15, 10106.56, -28627.11, -338.43, 42486.91, 13698.71, -35885.25, 0.00, 0.00, 0.00, 0.00, 0.00, 0.00, 0.00
52, 5490.64, 76072.35, 13044.88, 33111.63, -29914.37, -4080.15, 10106.56, -28627.11, -342.56, 42467.13, 13684.21, -35877.70, 0.00, 0.00, 0.00, 0.00, 0.00, 0.00, 0.00
53, 5493.48, 76075.75, 13047.81, 33110.44, -29912.58, -4081.23, 10105.31, -28623.75, -342.56, 42467.13, 13684.21, -35877.70, 0.00, 0.00, 0.00, 0.00, 0.00, 0.00, 0.00
54, 5493.48, 76075.75, 13047.81, 33110.44, -29912.58, -4081.23, 10105.31, -28623.75, -343.86, 42480.14, 13695.11, -35888.70, 0.00, 0.00, 0.00, 0.00, 0.00, 0.00, 0.00
55, 5490.12, 76075.01, 13046.96, 33108.34, -29912.18, -4080.44, 10104.40, -28625.72, -343.86, 42480.14, 13695.11, -35888.70, 0.00, 0.00, 0.00, 0.00, 0.00, 0.00, 0.00
56, 5490.12, 76075.01, 13046.96, 33108.34, -29912.18, -4080.44, 10104.40, -28625.72, -339.88, 42468.13, 13686.73, -35870.14, 0.00, 0.00, 0.00, 0.00, 0.00, 0.00, 0.00
57, 5489.83, 76078.01, 13050.42, 33112.45, -29910.43, -4078.86, 10106.99, -28623.33, -339.88, 42468.13, 13686.73, -35870.14, 0.00, 0.00, 0.00, 0.00, 0.00, 0.00, 0.00
58, 5489.83, 76078.01, 13050.42, 33112.45, -29910.43, -4078.86, 10106.99, -28623.33, -341.53, 42484.47, 13696.23, -35898.02, 0.00, 0.00, 0.00, 0.00, 0.00, 0.00, 0.00
59, 5495.85, 76076.22, 13047.74, 33111.94, -29906.39, -4079.04, 10110.23, -28621.74, -341.53, 42484.47, 13696.23, -35898.02, 0.00, 0.00, 0.00, 0.00, 0.00, 0.00, 0.00
60, 5495.85, 76076.22, 13047.74, 33111.94, -29906.39, -4079.04, 10110.23, -28621.74, -340.17, 42471.11, 13686.13, -35873.68, 0.00, 0.00, 0.00, 0.00, -0.12, 0.47, 0.88
61, 5490.53, 76076.04, 13047.47, 33108.18, -29911.42, -4083.51, 10105.87, -28624.69, -340.17, 42471.11, 13686.13, -35873.68, 0.00, 0.00, 0.00, 0.00, 0.00, 0.00, 0.00
62, 5490.53, 76076.04, 13047.47, 33108.18, -29911.42, -4083.51, 10105.87, -28624.69, -341.89, 42481.61, 13697.80, -35889.43, 0.00, 0.00, 0.00, 0.00, 0.00, 0.00, 0.00
63, 5491.82, 76083.41, 13054.67, 33116.12, -29904.60, -4078.17, 10112.73, -28618.97, -341.89, 42481.61, 13697.80, -35889.43, 0.00, 0.00, 0.00, 0.00, 0.00, 0.00, 0.00
64, 5491.82, 76083.41, 13054.67, 33116.12, -29904.60, -4078.17, 10112.73, -28618.97, -346.36, 42466.75, 13685.62, -35881.07, 0.00, 0.00, 0.00, 0.00, 0.00, 0.00, 0.00
65, 5489.50, 76068.93, 13038.51, 33101.48, -29916.98, -4088.87, 10099.48, -28632.72, -346.36, 42466.75, 13685.62, -35881.07, 0.00, 0.00, 0.00, 0.00, 0.00, 0.00, 0.00
66, 5489.50, 76068.93, 13038.51, 33101.48, -29916.98, -4088.87, 10099.48, -28632.72, -344.42, 42477.70, 13698.18, -35893.73, 0.00, 0.00, 0.00, 0.00, 0.00, 0.00, 0.00
67, 5496.29, 76083.77, 13053.08, 33114.91, -29901.56, -4078.30, 10114.75, -28615.60, -344.42, 42477.70, 13698.18, -35893.73, 0.00, 0.00, 0.00, 0.00, 0.00, 0.00, 0.00
68, 5496.29, 76083.77, 13053.08, 33114.91, -29901.56, -4078.30, 10114.75, -28615.60, -344.04, 42468.13, 13686.51, -35871.57, 0.00, 0.00, 0.00, 0.00, 0.00, 0.00, 0.00
69, 5485.41, 76067.43, 13038.24, 33103.38, -29914.39, -4088.76, 10099.97, -28628.90, -344.04, 42468.13, 13686.51, -35871.57, 0.00, 0.00, 0.00, 0.00, 0.00, 0.00, 0.00
70, 5485.41, 76067.43, 13038.24, 33103.38, -29914.39, -4088.76, 10099.97, -28628.90, -343.48, 42477.43, 13693.35, -35893.04, 0.00, 0.00, 0.00, 0.00, -0.12, 0.46, 0.89
71, 5494.75, 76078.30, 13050.29, 33113.28, -29903.77, -4079.80, 10110.68, -28620.96, -343.48, 42477.43, 13693.35, -35893.04, 0.00, 0.00, 0.00, 0.00, 0.00, 0.00, 0.00
72, 5494.75, 76078.30, 13050.29, 33113.28, -29903.77, -4079.80, 10110.68, -28620.96, -343.73, 42466.88, 13689.26, -35888.23, 0.00, 0.00, 0.00, 0.00, 0.00, 0.00, 0.00
73, 5483.51, 76064.30, 13037.82, 33099.69, -29914.61, -4093.05, 10098.88, -28630.10, -343.73, 42466.88, 13689.26, -35888.23, 0.00, 0.00, 0.00, 0.00, 0.00, 0.00, 0.00
74, 5483.51, 76064.30, 13037.82, 33099.69, -29914.61, -4093.05, 10098.88, -28630.10, -345.80, 42474.26, 13691.45, -35890.24, 0.00, 0.00, 0.00, 0.00, 0.00, 0.00, 0.00
75, 5490.28, 76077.78, 13051.81, 33115.98, -29900.58, -4081.45, 10112.58, -28617.18, -345.80, 42474.26, 13691.45, -35890.24, 0.00, 0.00, 0.00, 0.00, 0.00, 0.00, 0.00
76, 5490.28, 76077.78, 13051.81, 33115.98, -29900.58, -4081.45, 10112.58, -28617.18, -345.38, 42464.45, 13689.06, -35882.77, 0.00, 0.00, 0.00, 0.00, 0.00, 0.00, 0.00
77, 5476.56, 76058.36, 13033.17, 33098.17, -29917.50, -4096.90, 10094.34, -28638.06, -345.38, 42464.45, 13689.06, -35882.77, 0.00, 0.00, 0.00, 0.00, 0.00, 0.00, 0.00
78, 5476.56, 76058.36, 13033.17, 33098.17, -29917.50, -4096.90, 10094.34, -28638.06, -346.45, 42469.59, 13689.44, -35886.17, 0.00, 0.00, 0.00, 0.00, 0.00, 0.00, 0.00
79, 5495.56, 76074.67, 13048.23, 33116.79, -29898.50, -4079.62, 10115.17, -28613.47, -346.45, 42469.59, 13689.44, -35886.17, 0.00, 0.00, 0.00, 0.00, 0.00, 0.00, 0.00
80, 5495.56, 76074.67, 13048.23, 33116.79, -29898.50, -4079.62, 10115.17, -28613.47, -346.85, 42469.21, 13687.45, -35887.25, 0.00, 0.00, 0.00, 0.00, -0.12, 0.46, 0.88
81, 5478.99, 76057.98, 13032.14, 33096.92, -29916.89, -4098.42, 10092.35, -28637.41, -346.85, 42469.21, 13687.45, -35887.25, 0.00, 0.00, 0.00, 0.00, 0.00, 0.00, 0.00
82, 5478.99, 76057.98, 13032.14, 33096.92, -29916.89, -4098.42, 10092.35, -28637.41, -348.46, 42465.63, 13683.71, -35891.71, 0.00, 0.00, 0.00, 0.00, 0.00, 0.00, 0.00
83, 5489.59, 76075.57, 13048.68, 33113.80, -29898.18, -4082.97, 10111.84, -28620.22, -348.46, 42465.63, 13683.71, -35891.71, 0.00, 0.00, 0.00, 0.00, 0.00, 0.00, 0.00
84, 5489.59, 76075.57, 13048.68, 33113.80, -29898.18, -4082.97, 10111.84, -28620.22, -345.45, 42470.82, 13690.00, -35891.45, 0.00, 0.00, 0.00, 0.00, 0.00, 0.00, 0.00
85, 5482.52, 76059.97, 13032.83, 33099.25, -29915.30, -4098.28, 10091.95, -28639.89, -345.45, 42470.82, 13690.00, -35891.45, 0.00, 0.00, 0.00, 0.00, 0.00, 0.00, 0.00
86, 5482.52, 76059.97, 13032.83, 33099.25, -29915.30, -4098.28, 10091.95, -28639.89, -347.35, 42461.07, 13680.14, -35889.01, 0.00, 0.00, 0.00, 0.00, 0.00, 0.00, 0.00
87, 5491.82, 76073.87, 13046.02, 33112.61, -29901.04, -4086.57, 10113.54, -28619.37, -347.35, 42461.07, 13680.14, -35889.01, 0.00, 0.00, 0.00, 0.00, 0.00, 0.00, 0.00
88, 5491.82, 76073.87, 13046.02, 33112.61, -29901.04, -4086.57, 10113.54, -28619.37, -346.16, 42477.88, 13693.06, -35893.44, 0.00, 0.00, 0.00, 0.00, 0.00, 0.00, 0.00
89, 5479.78, 76062.16, 13035.45, 33098.66, -29909.85, -4098.64, 10096.42, -28633.46, -346.16, 42477.88, 13693.06, -35893.44, 0.00, 0.00, 0.00, 0.00, -0.12, 0.46, 0.88
90, 5479.78, 76062.16, 13035.45, 33098.66, -29909.85, -4098.64, 10096.42, -28633.46, -346.21, 42466.66, 13684.70, -35883.82, 0.00, 0.00, 0.00, 0.00, 0.00, 0.00, 0.00
91, 5495.58, 76076.40, 13048.61, 33114.06, -29897.02, -4085.59, 10112.44, -28618.50, -346.21, 42466.66, 13684.70, -35883.82, 0.00, 0.00, 0.00, 0.00, 0.00, 0.00, 0.00
92, 5495.58, 76076.40, 13048.61, 33114.06, -29897.02, -4085.59, 10112.44, -28618.50, -345.45, 42475.80, 13699.00, -35878.77, 0.00, 0.00, 0.00, 0.00, 0.00, 0.00, 0.00
93, 5488.05, 76066.38, 13039.52, 33101.79, -29905.20, -4096.11, 10098.79, -28634.53, -345.45, 42475.80, 13699.00, -35878.77, 0.00, 0.00, 0.00, 0.00, 0.00, 0.00, 0.00
94, 5488.05, 76066.38, 13039.52, 33101.79, -29905.20, -4096.11, 10098.79, -28634.53, -349.20, 42456.89, 13685.53, -35895.45, 0.00, 0.00, 0.00, 0.00, 0.00, 0.00, 0.00
95, 5492.09, 76078.34, 13049.53, 33112.45, -29892.89, -4087.75, 10110.54, -28622.59, -349.20, 42456.89, 13685.53, -35895.45, 0.00, 0.00, 0.00, 0.00, 0.00, 0.00, 0.00
96, 5492.09, 76078.34, 13049.53, 33112.45, -29892.89, -4087.75, 10110.54, -28622.59, -343.21, 42476.56, 13701.62, -35894.75, 0.00, 0.00, 0.00, 0.00, 0.00, 0.00, 0.00
97, 5486.35, 76070.27, 13042.40, 33104.92, -29897.76, -4094.55, 10102.85, -28628.94, -343.21, 42476.56, 13701.62, -35894.75, 0.00, 0.00, 0.00, 0.00, 0.00, 0.00, 0.00
98, 5486.35, 76070.27, 13042.40, 33104.92, -29897.76, -4094.55, 10102.85, -28628.94, -346.63, 42463.73, 13687.98, -35879.02, 0.00, 0.00, 0.00, 0.00, 0.00, 0.00, 0.00
99, 5496.38, 76078.05, 13047.76, 33111.47, -29892.64, -4088.25, 10113.61, -28620.18, -346.63, 42463.73, 13687.98, -35879.02, 0.00, 0.00, 0.00, 0.00, -0.12, 0.47, 0.87
100, 5496.38, 76078.05, 13047.76, 33111.47, -29892.64, -4088.25, 10113.61, -28620.18, -344.11, 42481.59, 13702.47, -35890.87, 0.00, 0.00, 0.00, 0.00, 0.00, 0.00, 0.00
101, 5490.86, 76072.20, 13043.34, 33106.48, -29897.89, -4094.84, 10106.77, -28627.91, -344.11, 42481.59, 13702.47, -35890.87, 0.00, 0.00, 0.00, 0.00, 0.00, 0.00, 0.00
102, 5490.86, 76072.20, 13043.34, 33106.48, -29897.89, -4094.84, 10106.77, -28627.91, -345.18, 42463.48, 13689.86, -35886.48, 0.00, 0.00, 0.00, 0.00, 0.00, 0.00, 0.00
103, 5496.43, 76079.19, 13050.27, 33113.04, -29889.73, -4089.72, 10109.56, -28622.53, -345.18, 42463.48, 13689.86, -35886.48, 0.00, 0.00, 0.00, 0.00, 0.00, 0.00, 0.00
104, 5496.43, 76079.19, 13050.27, 33113.04, -29889.73, -4089.72, 10109.56, -28622.53, -344.44, 42474.73, 13703.74, -35886.39, 0.00, 0.00, 0.00, 0.00, 0.00, 0.00, 0.00
105, 5502.22, 76079.44, 13047.29, 33113.86, -29888.39, -4089.34, 10110.97, -28622.06, -344.44, 42474.73, 13703.74, -35886.39, 0.00, 0.00, 0.00, 0.00, 0.00, 0.00, 0.00
106, 5502.22, 76079.44, 13047.29, 33113.86, -29888.39, -4089.34, 10110.97, -28622.06, -341.74, 42464.11, 13691.27, -35881.21, 0.00, 0.00, 0.00, 0.00, 0.00, 0.00, 0.00
107, 5491.64, 76079.05, 13046.24, 33106.80, -29894.29, -4095.67, 10106.88, -28624.74, -341.74, 42464.11, 13691.27, -35881.21, 0.00, 0.00, 0.00, 0.00, 0.00, 0.00, 0.00
108, 5491.64, 76079.05, 13046.24, 33106.80, -29894.29, -4095.67, 10106.88, -28624.74, -344.95, 42475.49, 13702.36, -35887.36, 0.00, 0.00, 0.00, 0.00, 0.00, 0.00, 0.00
109, 5497.75, 76082.54, 13050.74, 33114.62, -29890.14, -4089.14, 10112.76, -28621.88, -344.95, 42475.49, 13702.36, -35887.36, 0.00, 0.00, 0.00, 0.00, -0.12, 0.47, 0.88
110, 5497.75, 76082.54, 13050.74, 33114.62, -29890.14, -4089.14, 10112.76, -28621.88, -340.39, 42460.56, 13691.43, -35891.04, 0.00, 0.00, 0.00, 0.00, 0.00, 0.00, 0.00
111, 5492.96, 76071.30, 13037.62, 33102.35, -29898.05, -4099.18, 10103.73, -28630.04, -340.39, 42460.56, 13691.43, -35891.04, 0.00, 0.00, 0.00, 0.00, 0.00, 0.00, 0.00
112, 5492.96, 76071.30, 13037.62, 33102.35, -29898.05, -4099.18, 10103.73, -28630.04, -342.76, 42477.66, 13698.96, -35880.83, 0.00, 0.00, 0.00, 0.00, 0.00, 0.00, 0.00
113, 5501.39, 76085.58, 13052.73, 33115.02, -29880.86, -4090.17, 10116.67, -28616.29, -342.76, 42477.66, 13698.96, -35880.83, 0.00, 0.00, 0.00, 0.00, 0.00, 0.00, 0.00
114, 5501.39, 76085.58, 13052.73, 33115.02, -29880.86, -4090.17, 10116.67, -28616.29, -338.63, 42469.25, 13696.12, -35881.88, 0.00, 0.00, 0.00, 0.00, 0.00, 0.00, 0.00
115, 5483.75, 76072.82, 13041.08, 33102.15, -29897.42, -4101.77, 10102.59, -28627.76, -338.63, 42469.25, 13696.12, -35881.88, 0.00, 0.00, 0.00, 0.00, 0.00, 0.00, 0.00
116, 5483.75, 76072.82, 13041.08, 33102.15, -29897.42, -4101.77, 10102.59, -28627.76, -339.93, 42480.25, 13696.84, -35886.80, 0.00, 0.00, 0.00, 0.00, 0.00, 0.00, 0.00
117, 5504.68, 76081.06, 13049.35, 33117.04, -29880.44, -4087.40, 10118.25, -28614.54, -339.93, 42480.25, 13696.84, -35886.80, 0.00, 0.00, 0.00, 0.00, 0.00, 0.00, 0.00
118, 5504.68, 76081.06, 13049.35, 33117.04, -29880.44, -4087.40, 10118.25, -28614.54, -333.26, 42466.50, 13698.42, -35884.05, 0.00, 0.00, 0.00, 0.00, 0.00, 0.00, 0.00
119, 5482.77, 76063.72, 13036.45, 33101.32, -29896.84, -4100.52, 10102.00, -28631.27, -333.26, 42466.50, 13698.42, -35884.05, 0.00, 0.00, 0.00, 0.00, -0.12, 0.47, 0.88
120, 5482.77, 76063.72, 13036.45, 33101.32, -29896.84, -4100.52, 10102.00, -28631.27, -344.26, 42469.50, 13693.39, -35883.22, 0.00, 0.00, 0.00, 0.00, 0.00, 0.00, 0.00
121, 5489.43, 76075.30, 13047.72, 33114.22, -29882.34, -4090.75, 10117.34, -28617.34, -344.26, 42469.50, 13693.39, -35883.22, 0.00, 0.00, 0.00, 0.00, 0.00, 0.00, 0.00
122, 5489.43, 76075.30, 13047.72, 33114.22, -29882.34, -4090.75, 10117.34, -28617.34, -339.59, 42467.26, 13691.25, -35879.69, 0.00, 0.00, 0.00, 0.00, 0.00, 0.00, 0.00
123, 5478.52, 76056.97, 13029.79, 33097.43, -29894.65, -4104.96, 10102.61, -28630.75, -339.59, 42467.26, 13691.25, -35879.69, 0.00, 0.00, 0.00, 0.00, 0.00, 0.00, 0.00
124, 5478.52, 76056.97, 13029.79, 33097.43, -29894.65, -4104.96, 10102.61, -28630.75, -340.08, 42473.43, 13693.55, -35886.33, 0.00, 0.00, 0.00, 0.00, 0.00, 0.00, 0.00
125, 5493.19, 76074.02, 13045.21, 33114.82, -29878.94, -4090.75, 10119.53, -28612.87, -340.08, 42473.43, 13693.55, -35886.33, 0.00, 0.00, 0.00, 0.00, 0.00, 0.00, 0.00
126, 5493.19, 76074.02, 13045.21, 33114.82, -29878.94, -4090.75, 10119.53, -28612.87, -335.01, 42472.67, 13694.44, -35884.92, 0.00, 0.00, 0.00, 0.00, 0.00, 0.00, 0.00
127, 5480.04, 76061.30, 13034.58, 33101.17, -29890.56, -4102.26, 10103.95, -28629.70, -335.01, 42472.67, 13694.44, -35884.92, 0.00, 0.00, 0.00, 0.00, 0.00, 0.00, 0.00
128, 5480.04, 76061.30, 13034.58, 33101.17, -29890.56, -4102.26, 10103.95, -28629.70, -336.13, 42475.29, 13695.23, -35877.72, 0.00, 0.00, 0.00, 0.00, -0.12, 0.47, 0.87
129, 5490.28, 76076.66, 13046.42, 33112.92, -29876.14, -4091.62, 10121.47, -28612.47, -336.13, 42475.29, 13695.23, -35877.72, 0.00, 0.00, 0.00, 0.00, 0.00, 0.00, 0.00
130, 5490.28, 76076.66, 13046.42, 33112.92, -29876.14, -4091.62, 10121.47, -28612.47, -335.57, 42475.71, 13699.56, -35876.80, 0.00, 0.00, 0.00, 0.00, 0.00, 0.00, 0.00
131, 5480.45, 76061.40, 13032.65, 33099.20, -29890.14, -4105.50, 10103.06, -28630.13, -335.57, 42475.71, 13699.56, -35876.80, 0.00, 0.00, 0.00, 0.00, 0.00, 0.00, 0.00
132, 5480.45, 76061.40, 13032.65, 33099.20, -29890.14, -4105.50, 10103.06, -28630.13, -339.17, 42468.27, 13694.71, -35887.16, 0.00, 0.00, 0.00, 0.00, 0.00, 0.00, 0.00
133, 5490.97, 76076.69, 13048.61, 33113.77, -29878.09, -4093.30, 10122.03, -28614.05, -339.17, 42468.27, 13694.71, -35887.16, 0.00, 0.00, 0.00, 0.00, 0.00, 0.00, 0.00
134, 5490.97, 76076.69, 13048.61, 33113.77, -29878.09, -4093.30, 10122.03, -28614.05, -341.49, 42473.43, 13696.37, -35873.45, 0.00, 0.00, 0.00, 0.00, 0.00, 0.00, 0.00
135, 5479.33, 76064.55, 13034.26, 33100.72, -29888.10, -4104.16, 10105.87, -28629.23, -341.49, 42473.43, 13696.37, -35873.45, 0.00, 0.00, 0.00, 0.00, 0.00, 0.00, 0.00
136, 5479.33, 76064.55, 13034.26, 33100.72, -29888.10, -4104.16, 10105.87, -28629.23, -336.51, 42472.20, 13696.57, -35885.46, 0.00, 0.00, 0.00, 0.00, 0.00, 0.00, 0.00
137, 5500.52, 76083.52, 13050.49, 33114.76, -29873.17, -4092.47, 10123.02, -28613.67, -336.51, 42472.20, 13696.57, -35885.46, 0.00, 0.00, 0.00, 0.00, 0.00, 0.00, 0.00
138, 5500.52, 76083.52, 13050.49, 33114.76, -29873.17, -4092.47, 10123.02, -28613.67, -339.32, 42472.83, 13707.30, -35882.82, 0.00, 0.00, 0.00, 0.00, -0.12, 0.47, 0.88
139, 5484.81, 76068.95, 13036.59, 33096.14, -29885.71, -4107.78, 10106.03, -28630.71, -339.32, 42472.83, 13707.30, -35882.82, 0.00, 0.00, 0.00, 0.00, 0.00, 0.00, 0.00
140, 5484.81, 76068.95, 13036.59, 33096.14, -29885.71, -4107.78, 10106.03, -28630.71, -338.03, 42462.19, 13697.37, -35879.78, 0.00, 0.00, 0.00, 0.00, 0.00, 0.00, 0.00
141, 5496.14, 76082.92, 13050.76, 33111.49, -29875.34, -4095.71, 10120.20, -28614.59, -338.03, 42462.19, 13697.37, -35879.78, 0.00, 0.00, 0.00, 0.00, 0.00, 0.00, 0.00
142, 5496.14, 76082.92, 13050.76, 33111.49, -29875.34, -4095.71, 10120.20, -28614.59, -342.05, 42472.29, 13702.13, -35885.10, 0.00, 0.00, 0.00, 0.00, 0.00, 0.00, 0.00
143, 5480.54, 76063.05, 13028.41, 33094.77, -29890.54, -4109.75, 10102.23, -28633.46, -342.05, 42472.29, 13702.13, -35885.10, 0.00, 0.00, 0.00, 0.00, 0.00, 0.00, 0.00
144, 5480.54, 76063.05, 13028.41, 33094.77, -29890.54, -4109.75, 10102.23, -28633.46, -341.22, 42460.64, 13688.83, -35891.47, 0.00, 0.00, 0.00, 0.00, 0.00, 0.00, 0.00
145, 5490.55, 76069.64, 13032.50, 33102.24, -29881.33, -4103.96, 10112.15, -28621.47, -341.22, 42460.64, 13688.83, -35891.47, 0.00, 0.00, 0.00, 0.00, 0.00, 0.00, 0.00
146, 5490.55, 76069.64, 13032.50, 33102.24, -29881.33, -4103.96, 10112.15, -28621.47, -340.62, 42475.93, 13699.12, -35890.87, 0.00, 0.00, 0.00, 0.00, 0.00, 0.00, 0.00
147, 5484.02, 76068.66, 13033.59, 33094.95, -29885.13, -4109.21, 10104.64, -28629.72, -340.62, 42475.93, 13699.12, -35890.87, 0.00, 0.00, 0.00, 0.00, 0.00, 0.00, 0.00
148, 5484.02, 76068.66, 13033.59, 33094.95, -29885.13, -4109.21, 10104.64, -28629.72, -339.41, 42456.33, 13689.15, -35878.59, 0.00, 0.00, 0.00, 0.00, -0.12, 0.47, 0.88
149, 5482.82, 76069.94, 13032.85, 33096.07, -29883.30, -4108.32, 10113.25, -28622.59, -339.41, 42456.33, 13689.15, -35878.59, 0.00, 0.00, 0.00, 0.00, 0.00, 0.00, 0.00
150, 5482.82, 76069.94, 13032.85, 33096.07, -29883.30, -4108.32, 10113.25, -28622.59, -336.30, 42476.63, 13706.89, -35880.98, 0.00, 0.00, 0.00, 0.00, 0.00, 0.00, 0.00
151, 5487.73, 76069.24, 13031.89, 33094.48, -29881.76, -4108.52, 10112.82, -28624.67, -336.30, 42476.63, 13706.89, -35880.98, 0.00, 0.00, 0.00, 0.00, 0.00, 0.00, 0.00
152, 5487.73, 76069.24, 13031.89, 33094.48, -29881.76, -4108.52, 10112.82, -28624.67, -340.73, 42459.39, 13688.61, -35882.64, 0.00, 0.00, 0.00, 0.00, 0.00, 0.00, 0.00
153, 5485.32, 76069.00, 13032.43, 33093.46, -29882.76, -4110.75, 10109.16, -28624.87, -340.73, 42459.39, 13688.61, -35882.64, 0.00, 0.00, 0.00, 0.00, 0.00, 0.00, 0.00
154, 5485.32, 76069.00, 13032.43, 33093.46, -29882.76, -4110.75, 10109.16, -28624.87, -336.26, 42476.36, 13709.96, -35887.07, 0.00, 0.00, 0.00, 0.00, 0.00, 0.00, 0.00
155, 5485.61, 76078.30, 13041.71, 33101.46, -29872.72, -4105.66, 10113.85, -28622.10, -336.26, 42476.36, 13709.96, -35887.07, 0.00, 0.00, 0.00, 0.00, 0.00, 0.00, 0.00
156, 5485.61, 76078.30, 13041.71, 33101.46, -29872.72, -4105.66, 10113.85, -28622.10, -338.72, 42459.95, 13699.41, -35877.59, 0.00, 0.00, 0.00, 0.00, 0.00, 0.00, 0.00
157, 5491.62, 76070.61, 13033.66, 33097.86, -29879.41, -4110.28, 10109.67, -28626.93, -338.72, 42459.95, 13699.41, -35877.59, 0.00, 0.00, 0.00, 0.00, 0.00, 0.00, 0.00
158, 5491.62, 76070.61, 13033.66, 33097.86, -29879.41, -4110.28, 10109.67, -28626.93, -339.25, 42476.79, 13707.23, -35886.80, 0.00, 0.00, 0.00, 0.00, -0.11, 0.47, 0.88
159, 5488.05, 76075.14, 13037.50, 33099.98, -29875.88, -4105.50, 10117.23, -28616.42, -339.25, 42476.79, 13707.23, -35886.80, 0.00, 0.00, 0.00, 0.00, 0.00, 0.00, 0.00
160, 5488.05, 76075.14, 13037.50, 33099.98, -29875.88, -4105.50, 10117.23, -28616.42, -337.53, 42465.43, 13697.84, -35875.98, 0.00, 0.00, 0.00, 0.00, 0.00, 0.00, 0.00
161, 5478.64, 76072.28, 13034.78, 33095.87, -29876.70, -4109.61, 10110.88, -28625.28, -337.53, 42465.43, 13697.84, -35875.98, 0.00, 0.00, 0.00, 0.00, 0.00, 0.00, 0.00
162, 5478.64, 76072.28, 13034.78, 33095.87, -29876.70, -4109.61, 10110.88, -28625.28, -337.40, 42482.82, 13707.54, -35891.13, 0.00, 0.00, 0.00, 0.00, 0.00, 0.00, 0.00
163, 5496.23, 76079.01, 13040.68, 33106.40, -29865.75, -4098.10, 10124.49, -28611.01, -337.40, 42482.82, 13707.54, -35891.13, 0.00, 0.00, 0.00, 0.00, 0.00, 0.00, 0.00
164, 5496.23, 76079.01, 13040.68, 33106.40, -29865.75, -4098.10, 10124.49, -28611.01, -336.13, 42475.46, 13698.22, -35853.54, 0.00, 0.00, 0.00, 0.00, 0.00, 0.00, 0.00
165, 5477.92, 76059.81, 13023.40, 33089.79, -29886.85, -4116.07, 10105.09, -28634.15, -336.13, 42475.46, 13698.22, -35853.54, 0.00, 0.00, 0.00, 0.00, 0.00, 0.00, 0.00
166, 5477.92, 76059.81, 13023.40, 33089.79, -29886.85, -4116.07, 10105.09, -28634.15, -345.18, 42472.83, 13697.26, -35884.11, 0.00, 0.00, 0.00, 0.00, 0.00, 0.00, 0.00
167, 5486.93, 76071.23, 13034.91, 33103.71, -29874.80, -4106.06, 10117.67, -28619.13, -345.18, 42472.83, 13697.26, -35884.11, 0.00, 0.00, 0.00, 0.00, -0.11, 0.47, 0.89
168, 5486.93, 76071.23, 13034.91, 33103.71, -29874.80, -4106.06, 10117.67, -28619.13, -348.22, 42456.55, 13691.14, -35884.88, 0.00, 0.00, 0.00, 0.00, 0.00, 0.00, 0.00
169, 5476.62, 76057.91, 13022.93, 33090.30, -29883.83, -4115.72, 10101.29, -28633.68, -348.22, 42456.55, 13691.14, -35884.88, 0.00, 0.00, 0.00, 0.00, 0.00, 0.00, 0.00
170, 5476.62, 76057.91, 13022.93, 33090.30, -29883.83, -4115.72, 10101.29, -28633.68, -342.41, 42474.35, 13700.14, -35886.21, 0.00, 0.00, 0.00, 0.00, 0.00, 0.00, 0.00
171, 5491.80, 76074.92, 13040.99, 33109.06, -29862.55, -4100.23, 10122.64, -28611.13, -342.41, 42474.35, 13700.14, -35886.21, 0.00, 0.00, 0.00, 0.00, 0.00, 0.00, 0.00
172, 5491.80, 76074.92, 13040.99, 33109.06, -29862.55, -4100.23, 10122.64, -28611.13, -341.69, 42464.29, 13701.04, -35864.89, 0.00, 0.00, 0.00, 0.00, 0.00, 0.00, 0.00
173, 5472.58, 76053.91, 13019.89, 33087.64, -29887.99, -4119.23, 10103.10, -28633.95, -341.69, 42464.29, 13701.04, -35864.89, 0.00, 0.00, 0.00, 0.00, 0.00, 0.00, 0.00
174, 5472.58, 76053.91, 13019.89, 33087.64, -29887.99, -4119.23, 10103.10, -28633.95, -347.59, 42462.55, 13694.15, -35891.11, 0.00, 0.00, 0.00, 0.00, 0.00, 0.00, 0.00
175, 5486.91, 76067.59, 13031.63, 33099.87, -29870.58, -4109.19, 10119.22, -28618.50, -347.59, 42462.55, 13694.15, -35891.11, 0.00, 0.00, 0.00, 0.00, 0.00, 0.00, 0.00
176, 5486.91, 76067.59, 13031.63, 33099.87, -29870.58, -4109.19, 10119.22, -28618.50, -343.57, 42463.39, 13697.01, -35894.91, 0.00, 0.00, 0.00, 0.00, 0.00, 0.00, 0.00
177, 5467.97, 76050.96, 13017.34, 33084.56, -29885.73, -4121.33, 10098.36, -28636.81, -343.57, 42463.39, 13697.01, -35894.91, 0.00, 0.00, 0.00, 0.00, -0.12, 0.47, 0.89
178, 5467.97, 76050.96, 13017.34, 33084.56, -29885.73, -4121.33, 10098.36, -28636.81, -340.62, 42469.88, 13696.52, -35873.68, 0.00, 0.00, 0.00, 0.00, 0.00, 0.00, 0.00
179, 5489.43, 76073.76, 13038.13, 33110.89, -29862.33, -4100.92, 10125.41, -28611.73, -340.62, 42469.88, 13696.52, -35873.68, 0.00, 0.00, 0.00, 0.00, 0.00, 0.00, 0.00
180, 5489.43, 76073.76, 13038.13, 33110.89, -29862.33, -4100.92, 10125.41, -28611.73, -339.08, 42473.61, 13701.60, -35871.84, 0.00, 0.00, 0.00, 0.00, 0.00, 0.00, 0.00
181, 5476.02, 76052.63, 13019.60, 33089.81, -29881.29, -4117.71, 10105.40, -28631.22, -339.08, 42473.61, 13701.60, -35871.84, 0.00, 0.00, 0.00, 0.00, 0.00, 0.00, 0.00
182, 5476.02, 76052.63, 13019.60, 33089.81, -29881.29, -4117.71, 10105.40, -28631.22, -338.96, 42464.87, 13698.18, -35882.75, 0.00, 0.00, 0.00, 0.00, 0.00, 0.00, 0.00
183, 5483.96, 76067.16, 13033.84, 33101.88, -29867.36, -4106.89, 10120.58, -28612.80, -338.96, 42464.87, 13698.18, -35882.75, 0.00, 0.00, 0.00, 0.00, 0.00, 0.00, 0.00
184, 5483.96, 76067.16, 13033.84, 33101.88, -29867.36, -4106.89, 10120.58, -28612.80, -340.95, 42471.64, 13698.89, -35879.76, 0.00, 0.00, 0.00, 0.00, 0.00, 0.00, 0.00
185, 5466.95, 76050.40, 13018.46, 33087.02, -29880.66, -4119.47, 10104.26, -28628.11, -340.95, 42471.64, 13698.89, -35879.76, 0.00, 0.00, 0.00, 0.00, 0.00, 0.00, 0.00
186, 5466.95, 76050.40, 13018.46, 33087.02, -29880.66, -4119.47, 10104.26, -28628.11, -341.20, 42461.56, 13691.02, -35869.68, 0.00, 0.00, 0.00, 0.00, 0.00, 0.00, 0.00
187, 5480.98, 76060.99, 13026.40, 33098.77, -29869.57, -4110.31, 10117.49, -28621.77, -341.20, 42461.56, 13691.02, -35869.68, 0.00, 0.00, 0.00, 0.00, -0.12, 0.46, 0.88
188, 5480.98, 76060.99, 13026.40, 33098.77, -29869.57, -4110.31, 10117.49, -28621.77, -343.93, 42467.96, 13697.89, -35882.77, 0.00, 0.00, 0.00, 0.00, 0.00, 0.00, 0.00
189, 5472.42, 76048.81, 13015.17, 33085.88, -29881.46, -4121.19, 10101.89, -28632.72, -343.93, 42467.96, 13697.89, -35882.77, 0.00, 0.00, 0.00, 0.00, 0.00, 0.00, 0.00
190, 5472.42, 76048.81, 13015.17, 33085.88, -29881.46, -4121.19, 10101.89, -28632.72, -340.75, 42461.36, 13688.39, -35890.24, 0.00, 0.00, 0.00, 0.00, 0.00, 0.00, 0.00
191, 5474.28, 76058.27, 13022.35, 33089.66, -29875.18, -4116.68, 10115.28, -28624.83, -340.75, 42461.36, 13688.39, -35890.24, 0.00, 0.00, 0.00, 0.00, 0.00, 0.00, 0.00
192, 5474.28, 76058.27, 13022.35, 33089.66, -29875.18, -4116.68, 10115.28, -28624.83, -343.35, 42473.66, 13697.75, -35874.46, 0.00, 0.00, 0.00, 0.00, 0.00, 0.00, 0.00
193, 5469.40, 76055.88, 13018.15, 33086.59, -29879.61, -4120.45, 10103.90, -28630.86, -343.35, 42473.66, 13697.75, -35874.46, 0.00, 0.00, 0.00, 0.00, 0.00, 0.00, 0.00
194, 5469.40, 76055.88, 13018.15, 33086.59, -29879.61, -4120.45, 10103.90, -28630.86, -340.69, 42464.82, 13689.26, -35873.34, 0.00, 0.00, 0.00, 0.00, 0.00, 0.00, 0.00
195, 5483.75, 76062.18, 13023.71, 33092.65, -29872.19, -4115.49, 10111.42, -28621.56, -340.69, 42464.82, 13689.26, -35873.34, 0.00, 0.00, 0.00, 0.00, 0.00, 0.00, 0.00
196, 5483.75, 76062.18, 13023.71, 33092.65, -29872.19, -4115.49, 10111.42, -28621.56, -340.80, 42472.52, 13706.20, -35884.09, 0.00, 0.00, 0.00, 0.00, 0.00, 0.00, 0.00
197, 5479.64, 76057.91, 13019.44, 33085.70, -29874.51, -4121.57, 10106.70, -28627.96, -340.80, 42472.52, 13706.20, -35884.09, 0.00, 0.00, 0.00, 0.00, -0.12, 0.47, 0.87
198, 5479.64, 76057.91, 13019.44, 33085.70, -29874.51, -4121.57, 10106.70, -28627.96, -334.52, 42459.57, 13692.81, -35877.25, 0.00, 0.00, 0.00, 0.00, 0.00, 0.00, 0.00
199, 5480.67, 76061.11, 13023.98, 33092.41, -29870.96, -4117.46, 10111.48, -28624.40, -334.52, 42459.57, 13692.81, -35877.25, 0.00, 0.00, 0.00, 0.00, 0.00, 0.00, 0.00
200, 5480.67, 76061.11, 13023.98, 33092.41, -29870.96, -4117.46, 10111.48, -28624.40, -341.04, 42465.81, 13698.56, -35877.23, 0.00, 0.00, 0.00, 0.00, 0.00, 0.00, 0.00
201, 5474.77, 76056.23, 13018.71, 33089.05, -29879.65, -4119.20, 10104.87, -28630.46, -341.04, 42465.81, 13698.56, -35877.23, 0.00, 0.00, 0.00, 0.00, 0.00, 0.00, 0.00
202, 5474.77, 76056.23, 13018.71, 33089.05, -29879.65, -4119.20, 10104.87, -28630.46, -340.84, 42456.42, 13686.53, -35879.49, 0.00, 0.00, 0.00, 0.00, 0.00, 0.00, 0.00
203, 5475.15, 76057.24, 13021.03, 33091.11, -29874.42, -4118.33, 10108.93, -28626.97, -340.84, 42456.42, 13686.53, -35879.49, 0.00, 0.00, 0.00, 0.00, 0.00, 0.00, 0.00
204, 5475.15, 76057.24, 13021.03, 33091.11, -29874.42, -4118.33, 10108.93, -28626.97, -336.66, 42473.45, 13700.50, -35888.45, 0.00, 0.00, 0.00, 0.00, 0.00, 0.00, 0.00
205, 5486.15, 76060.59, 13023.82, 33093.93, -29869.78, -4118.87, 10110.99, -28626.57, -336.66, 42473.45, 13700.50, -35888.45, 0.00, 0.00, 0.00, 0.00, 0.00, 0.00, 0.00
206, 5486.15, 76060.59, 13023.82, 33093.93, -29869.78, -4118.87, 10110.99, -28626.57, -337.60, 42457.67, 13692.52, -35861.11, 0.00, 0.00, 0.00, 0.00, 0.00, 0.00, 0.00
