%OpenBCI Raw EEG Data
%
%Sample Rate = 250.0 Hz
%First Column = SampleIndex
%Other Columns = EEG data in microvolts followed by Accel Data (in G) interleaved with Aux Data
0, 0.00, 0.00, 0.00, 0.00, 0.00, 0.00, 0.00, 0.00, -3559.09, 41648.29, 12309.33, -37130.40, 0.00, 0.00, 0.00, 0.00, -0.13, 0.42, 0.90
1, -1245.08, 58237.69, 12484.19, 35232.54, -26050.87, -18542.96, 11756.93, -28074.06, -3559.09, 41648.29, 12309.33, -37130.40, 0.00, 0.00, 0.00, 0.00, 0.00, 0.00, 0.00
2, -1245.08, 58237.69, 12484.19, 35232.54, -26050.87, -18542.96, 11756.93, -28074.06, -6762.03, 39808.10, 12633.07, -37163.89, 0.00, 0.00, 0.00, 0.00, 0.00, 0.00, 0.00
3, -1246.13, 58249.94, 12496.46, 35242.93, -26041.35, -18527.29, 11772.64, -28059.64, -6762.03, 39808.10, 12633.07, -37163.89, 0.00, 0.00, 0.00, 0.00, 0.00, 0.00, 0.00
4, -1246.13, 58249.94, 12496.46, 35242.93, -26041.35, -18527.29, 11772.64, -28059.64, -6758.54, 39812.66, 12643.67, -37167.57, 0.00, 0.00, 0.00, 0.00, 0.00, 0.00, 0.00
5, -1254.34, 58237.45, 12483.00, 35233.07, -26056.32, -18530.98, 11753.37, -28082.02, -6758.54, 39812.66, 12643.67, -37167.57, 0.00, 0.00, 0.00, 0.00, 0.00, 0.00, 0.00
6, -1254.34, 58237.45, 12483.00, 35233.07, -26056.32, -18530.98, 11753.37, -28082.02, -6771.24, 39792.21, 12619.88, -37181.50, 0.00, 0.00, 0.00, 0.00, -0.14, 0.42, 0.90
7, -1259.12, 58222.58, 12481.30, 35241.77, -26059.72, -18515.92, 11765.53, -28075.02, -6771.24, 39792.21, 12619.88, -37181.50, 0.00, 0.00, 0.00, 0.00, 0.00, 0.00, 0.00
8, -1259.12, 58222.58, 12481.30, 35241.77, -26059.72, -18515.92, 11765.53, -28075.02, -6758.90, 39813.73, 12628.09, -37185.46, 0.00, 0.00, 0.00, 0.00, 0.00, 0.00, 0.00
9, -1262.92, 58218.25, 12474.46, 35234.77, -26072.17, -18514.29, 11753.84, -28079.13, -6758.90, 39813.73, 12628.09, -37185.46, 0.00, 0.00, 0.00, 0.00, 0.00, 0.00, 0.00
10, -1262.92, 58218.25, 12474.46, 35234.77, -26072.17, -18514.29, 11753.84, -28079.13, -6769.83, 39794.44, 12602.99, -37181.05, 0.00, 0.00, 0.00, 0.00, 0.00, 0.00, 0.00
11, -1266.63, 58216.97, 12468.67, 35229.72, -26081.87, -18509.81, 11749.98, -28081.48, -6769.83, 39794.44, 12602.99, -37181.05, 0.00, 0.00, 0.00, 0.00, 0.00, 0.00, 0.00
12, -1266.63, 58216.97, 12468.67, 35229.72, -26081.87, -18509.81, 11749.98, -28081.48, -6757.42, 39821.11, 12619.86, -37164.96, 0.00, 0.00, 0.00, 0.00, 0.00, 0.00, 0.00
13, -1265.69, 58220.59, 12469.93, 35229.23, -26082.63, -18501.46, 11752.97, -28081.59, -6757.42, 39821.11, 12619.86, -37164.96, 0.00, 0.00, 0.00, 0.00, 0.00, 0.00, 0.00
14, -1265.69, 58220.59, 12469.93, 35229.23, -26082.63, -18501.46, 11752.97, -28081.59, -6772.06, 39788.79, 12599.92, -37196.27, 0.00, 0.00, 0.00, 0.00, 0.00, 0.00, 0.00
15, -1273.00, 58216.19, 12462.53, 35222.13, -26102.93, -18505.90, 11738.73, -28095.16, -6772.06, 39788.79, 12599.92, -37196.27, 0.00, 0.00, 0.00, 0.00, 0.00, 0.00, 0.00
16, -1273.00, 58216.19, 12462.53, 35222.13, -26102.93, -18505.90, 11738.73, -28095.16, -6759.82, 39805.62, 12616.13, -37186.80, 0.00, 0.00, 0.00, 0.00, -0.14, 0.41, 0.90
17, -1267.63, 58213.91, 12459.26, 35217.52, -26110.01, -18501.52, 11733.93, -28093.59, -6759.82, 39805.62, 12616.13, -37186.80, 0.00, 0.00, 0.00, 0.00, 0.00, 0.00, 0.00
18, -1267.63, 58213.91, 12459.26, 35217.52, -26110.01, -18501.52, 11733.93, -28093.59, -6765.67, 39789.23, 12596.17, -37200.48, 0.00, 0.00, 0.00, 0.00, 0.00, 0.00, 0.00
19, -1270.58, 58213.84, 12456.92, 35217.23, -26122.62, -18497.52, 11726.71, -28097.46, -6765.67, 39789.23, 12596.17, -37200.48, 0.00, 0.00, 0.00, 0.00, 0.00, 0.00, 0.00
20, -1270.58, 58213.84, 12456.92, 35217.23, -26122.62, -18497.52, 11726.71, -28097.46, -6751.86, 39809.15, 12616.04, -37187.13, 0.00, 0.00, 0.00, 0.00, 0.00, 0.00, 0.00
21, -1262.00, 58226.09, 12469.08, 35227.67, -26107.78, -18479.95, 11744.05, -28084.16, -6751.86, 39809.15, 12616.04, -37187.13, 0.00, 0.00, 0.00, 0.00, 0.00, 0.00, 0.00
22, -1262.00, 58226.09, 12469.08, 35227.67, -26107.78, -18479.95, 11744.05, -28084.16, -6757.56, 39793.52, 12604.21, -37207.34, 0.00, 0.00, 0.00, 0.00, 0.00, 0.00, 0.00
23, -1265.18, 58218.38, 12460.40, 35215.60, -26127.45, -18484.54, 11727.42, -28097.91, -6757.56, 39793.52, 12604.21, -37207.34, 0.00, 0.00, 0.00, 0.00, 0.00, 0.00, 0.00
24, -1265.18, 58218.38, 12460.40, 35215.60, -26127.45, -18484.54, 11727.42, -28097.91, -6741.24, 39815.21, 12620.02, -37190.66, 0.00, 0.00, 0.00, 0.00, 0.00, 0.00, 0.00
25, -1251.43, 58237.42, 12476.21, 35230.59, -26117.92, -18468.84, 11739.87, -28085.64, -6741.24, 39815.21, 12620.02, -37190.66, 0.00, 0.00, 0.00, 0.00, 0.00, 0.00, 0.00
26, -1251.43, 58237.42, 12476.21, 35230.59, -26117.92, -18468.84, 11739.87, -28085.64, -6748.08, 39798.96, 12613.02, -37194.02, 0.00, 0.00, 0.00, 0.00, -0.14, 0.41, 0.90
27, -1258.47, 58227.84, 12466.08, 35218.52, -26133.28, -18473.25, 11725.88, -28101.13, -6748.08, 39798.96, 12613.02, -37194.02, 0.00, 0.00, 0.00, 0.00, 0.00, 0.00, 0.00
28, -1258.47, 58227.84, 12466.08, 35218.52, -26133.28, -18473.25, 11725.88, -28101.13, -6755.10, 39795.83, 12612.60, -37213.20, 0.00, 0.00, 0.00, 0.00, 0.00, 0.00, 0.00
29, -1251.05, 58241.36, 12473.23, 35224.29, -26133.66, -18463.52, 11729.66, -28096.81, -6755.10, 39795.83, 12612.60, -37213.20, 0.00, 0.00, 0.00, 0.00, 0.00, 0.00, 0.00
30, -1251.05, 58241.36, 12473.23, 35224.29, -26133.66, -18463.52, 11729.66, -28096.81, -6743.05, 39800.27, 12616.46, -37199.67, 0.00, 0.00, 0.00, 0.00, 0.00, 0.00, 0.00
31, -1253.33, 58232.24, 12471.85, 35224.94, -26138.20, -18457.47, 11725.93, -28097.42, -6743.05, 39800.27, 12616.46, -37199.67, 0.00, 0.00, 0.00, 0.00, 0.00, 0.00, 0.00
32, -1253.33, 58232.24, 12471.85, 35224.94, -26138.20, -18457.47, 11725.93, -28097.42, -6736.23, 39813.55, 12627.21, -37198.31, 0.00, 0.00, 0.00, 0.00, 0.00, 0.00, 0.00
33, -1232.27, 58255.04, 12492.12, 35239.71, -26125.03, -18436.81, 11747.99, -28075.15, -6736.23, 39813.55, 12627.21, -37198.31, 0.00, 0.00, 0.00, 0.00, 0.00, 0.00, 0.00
34, -1232.27, 58255.04, 12492.12, 35239.71, -26125.03, -18436.81, 11747.99, -28075.15, -6733.40, 39811.96, 12623.93, -37205.68, 0.00, 0.00, 0.00, 0.00, 0.00, 0.00, 0.00
35, -1241.82, 58238.43, 12474.96, 35222.68, -26149.77, -18448.03, 11720.56, -28104.14, -6733.40, 39811.96, 12623.93, -37205.68, 0.00, 0.00, 0.00, 0.00, 0.00, 0.00, 0.00
36, -1241.82, 58238.43, 12474.96, 35222.68, -26149.77, -18448.03, 11720.56, -28104.14, -6739.16, 39804.57, 12615.55, -37202.89, 0.00, 0.00, 0.00, 0.00, -0.13, 0.41, 0.91
37, -1239.29, 58258.16, 12486.02, 35236.27, -26135.49, -18430.96, 11738.08, -28085.30, -6739.16, 39804.57, 12615.55, -37202.89, 0.00, 0.00, 0.00, 0.00, 0.00, 0.00, 0.00
38, -1239.29, 58258.16, 12486.02, 35236.27, -26135.49, -18430.96, 11738.08, -28085.30, -6728.43, 39820.91, 12622.61, -37192.63, 0.00, 0.00, 0.00, 0.00, 0.00, 0.00, 0.00
39, -1257.04, 58226.02, 12469.28, 35218.86, -26155.45, -18437.35, 11716.65, -28099.36, -6728.43, 39820.91, 12622.61, -37192.63, 0.00, 0.00, 0.00, 0.00, 0.00, 0.00, 0.00
40, -1257.04, 58226.02, 12469.28, 35218.86, -26155.45, -18437.35, 11716.65, -28099.36, -6727.45, 39819.25, 12616.17, -37203.88, 0.00, 0.00, 0.00, 0.00, 0.00, 0.00, 0.00
41, -1250.04, 58229.98, 12477.24, 35230.71, -26147.92, -18420.50, 11732.56, -28083.11, -6727.45, 39819.25, 12616.17, -37203.88, 0.00, 0.00, 0.00, 0.00, 0.00, 0.00, 0.00
42, -1250.04, 58229.98, 12477.24, 35230.71, -26147.92, -18420.50, 11732.56, -28083.11, -6722.80, 39823.03, 12623.01, -37204.12, 0.00, 0.00, 0.00, 0.00, 0.00, 0.00, 0.00
43, -1266.99, 58211.16, 12457.52, 35212.96, -26165.69, -18428.57, 11716.31, -28095.76, -6722.80, 39823.03, 12623.01, -37204.12, 0.00, 0.00, 0.00, 0.00, 0.00, 0.00, 0.00
44, -1266.99, 58211.16, 12457.52, 35212.96, -26165.69, -18428.57, 11716.31, -28095.76, -6721.12, 39819.50, 12600.10, -37203.47, 0.00, 0.00, 0.00, 0.00, 0.00, 0.00, 0.00
45, -1266.74, 58217.51, 12463.51, 35221.23, -26162.85, -18417.17, 11724.03, -28087.11, -6721.12, 39819.50, 12600.10, -37203.47, 0.00, 0.00, 0.00, 0.00, -0.14, 0.42, 0.91
46, -1266.74, 58217.51, 12463.51, 35221.23, -26162.85, -18417.17, 11724.03, -28087.11, -6717.97, 39826.38, 12607.25, -37206.76, 0.00, 0.00, 0.00, 0.00, 0.00, 0.00, 0.00
47, -1277.87, 58197.68, 12444.45, 35204.33, -26184.69, -18424.52, 11704.63, -28103.21, -6717.97, 39826.38, 12607.25, -37206.76, 0.00, 0.00, 0.00, 0.00, 0.00, 0.00, 0.00
48, -1277.87, 58197.68, 12444.45, 35204.33, -26184.69, -18424.52, 11704.63, -28103.21, -6719.05, 39824.10, 12597.80, -37215.59, 0.00, 0.00, 0.00, 0.00, 0.00, 0.00, 0.00
49, -1272.73, 58208.52, 12455.06, 35216.85, -26181.54, -18409.54, 11716.11, -28089.88, -6719.05, 39824.10, 12597.80, -37215.59, 0.00, 0.00, 0.00, 0.00, 0.00, 0.00, 0.00
50, -1272.73, 58208.52, 12455.06, 35216.85, -26181.54, -18409.54, 11716.11, -28089.88, -6724.10, 39822.11, 12601.11, -37196.12, 0.00, 0.00, 0.00, 0.00, 0.00, 0.00, 0.00
51, -1272.02, 58198.78, 12444.13, 35205.00, -26193.12, -18415.45, 11697.85, -28111.70, -6724.10, 39822.11, 12601.11, -37196.12, 0.00, 0.00, 0.00, 0.00, 0.00, 0.00, 0.00
52, -1272.02, 58198.78, 12444.13, 35205.00, -26193.12, -18415.45, 11697.85, -28111.70, -6729.82, 39804.07, 12591.32, -37220.82, 0.00, 0.00, 0.00, 0.00, 0.00, 0.00, 0.00
53, -1262.02, 58211.14, 12455.33, 35217.47, -26193.16, -18402.53, 11707.13, -28101.53, -6729.82, 39804.07, 12591.32, -37220.82, 0.00, 0.00, 0.00, 0.00, 0.00, 0.00, 0.00
54, -1262.02, 58211.14, 12455.33, 35217.47, -26193.16, -18402.53, 11707.13, -28101.53, -6718.58, 39824.01, 12606.23, -37217.98, 0.00, 0.00, 0.00, 0.00, 0.00, 0.00, 0.00
55, -1264.59, 58211.38, 12452.71, 35209.81, -26203.87, -18402.62, 11697.67, -28107.32, -6718.58, 39824.01, 12606.23, -37217.98, 0.00, 0.00, 0.00, 0.00, -0.14, 0.42, 0.91
56, -1264.59, 58211.38, 12452.71, 35209.81, -26203.87, -18402.62, 11697.67, -28107.32, -6711.02, 39830.81, 12595.10, -37220.50, 0.00, 0.00, 0.00, 0.00, 0.00, 0.00, 0.00
57, -1255.81, 58223.52, 12465.17, 35219.44, -26196.80, -18392.42, 11708.87, -28091.54, -6711.02, 39830.81, 12595.10, -37220.50, 0.00, 0.00, 0.00, 0.00, 0.00, 0.00, 0.00
58, -1255.81, 58223.52, 12465.17, 35219.44, -26196.80, -18392.42, 11708.87, -28091.54, -6709.79, 39832.93, 12616.98, -37206.22, 0.00, 0.00, 0.00, 0.00, 0.00, 0.00, 0.00
59, -1245.06, 58225.67, 12466.93, 35219.42, -26200.47, -18385.56, 11704.83, -28103.34, -6709.79, 39832.93, 12616.98, -37206.22, 0.00, 0.00, 0.00, 0.00, 0.00, 0.00, 0.00
60, -1245.06, 58225.67, 12466.93, 35219.42, -26200.47, -18385.56, 11704.83, -28103.34, -6717.26, 39812.81, 12602.81, -37219.77, 0.00, 0.00, 0.00, 0.00, 0.00, 0.00, 0.00
61, -1244.99, 58238.18, 12474.93, 35220.89, -26199.84, -18382.34, 11706.66, -28094.62, -6717.26, 39812.81, 12602.81, -37219.77, 0.00, 0.00, 0.00, 0.00, 0.00, 0.00, 0.00
62, -1244.99, 58238.18, 12474.93, 35220.89, -26199.84, -18382.34, 11706.66, -28094.62, -6688.96, 39856.49, 12630.30, -37210.47, 0.00, 0.00, 0.00, 0.00, 0.00, 0.00, 0.00
63, -1230.93, 58247.48, 12487.70, 35229.75, -26197.36, -18368.66, 11713.45, -28089.10, -6688.96, 39856.49, 12630.30, -37210.47, 0.00, 0.00, 0.00, 0.00, 0.00, 0.00, 0.00
64, -1230.93, 58247.48, 12487.70, 35229.75, -26197.36, -18368.66, 11713.45, -28089.10, -6702.75, 39827.23, 12616.42, -37212.68, 0.00, 0.00, 0.00, 0.00, 0.00, 0.00, 0.00
65, -1238.76, 58244.73, 12483.72, 35220.31, -26205.25, -18373.07, 11706.17, -28097.48, -6702.75, 39827.23, 12616.42, -37212.68, 0.00, 0.00, 0.00, 0.00, -0.13, 0.42, 0.90
66, -1238.76, 58244.73, 12483.72, 35220.31, -26205.25, -18373.07, 11706.17, -28097.48, -6686.28, 39844.49, 12638.28, -37216.37, 0.00, 0.00, 0.00, 0.00, 0.00, 0.00, 0.00
67, -1228.94, 58254.28, 12493.17, 35229.79, -26197.03, -18358.58, 11718.82, -28082.53, -6686.28, 39844.49, 12638.28, -37216.37, 0.00, 0.00, 0.00, 0.00, 0.00, 0.00, 0.00
68, -1228.94, 58254.28, 12493.17, 35229.79, -26197.03, -18358.58, 11718.82, -28082.53, -6686.90, 39837.76, 12620.73, -37215.95, 0.00, 0.00, 0.00, 0.00, 0.00, 0.00, 0.00
69, -1246.58, 58240.20, 12479.36, 35220.13, -26209.34, -18360.39, 11708.36, -28092.21, -6686.90, 39837.76, 12620.73, -37215.95, 0.00, 0.00, 0.00, 0.00, 0.00, 0.00, 0.00
70, -1246.58, 58240.20, 12479.36, 35220.13, -26209.34, -18360.39, 11708.36, -28092.21, -6685.23, 39855.86, 12620.20, -37203.63, 0.00, 0.00, 0.00, 0.00, 0.00, 0.00, 0.00
71, -1240.10, 58236.37, 12477.17, 35222.14, -26213.95, -18355.34, 11705.47, -28085.68, -6685.23, 39855.86, 12620.20, -37203.63, 0.00, 0.00, 0.00, 0.00, 0.00, 0.00, 0.00
72, -1240.10, 58236.37, 12477.17, 35222.14, -26213.95, -18355.34, 11705.47, -28085.68, -6686.37, 39837.94, 12604.86, -37220.14, 0.00, 0.00, 0.00, 0.00, 0.00, 0.00, 0.00
73, -1252.50, 58216.19, 12459.42, 35205.96, -26237.15, -18364.24, 11690.61, -28108.03, -6686.37, 39837.94, 12604.86, -37220.14, 0.00, 0.00, 0.00, 0.00, 0.00, 0.00, 0.00
74, -1252.50, 58216.19, 12459.42, 35205.96, -26237.15, -18364.24, 11690.61, -28108.03, -6697.39, 39831.70, 12601.13, -37243.30, 0.00, 0.00, 0.00, 0.00, 0.00, 0.00, 0.00
75, -1252.50, 58222.92, 12464.88, 35217.45, -26230.80, -18348.59, 11700.94, -28096.50, -6697.39, 39831.70, 12601.13, -37243.30, 0.00, 0.00, 0.00, 0.00, -0.13, 0.42, 0.89
76, -1252.50, 58222.92, 12464.88, 35217.45, -26230.80, -18348.59, 11700.94, -28096.50, -6688.51, 39832.46, 12593.08, -37217.40, 0.00, 0.00, 0.00, 0.00, 0.00, 0.00, 0.00
77, -1260.82, 58206.55, 12449.74, 35199.79, -26248.77, -18360.46, 11680.51, -28112.79, -6688.51, 39832.46, 12593.08, -37217.40, 0.00, 0.00, 0.00, 0.00, 0.00, 0.00, 0.00
78, -1260.82, 58206.55, 12449.74, 35199.79, -26248.77, -18360.46, 11680.51, -28112.79, -6680.62, 39844.29, 12600.88, -37226.89, 0.00, 0.00, 0.00, 0.00, 0.00, 0.00, 0.00
79, -1246.07, 58225.62, 12468.07, 35218.84, -26235.92, -18342.33, 11695.39, -28093.57, -6680.62, 39844.29, 12600.88, -37226.89, 0.00, 0.00, 0.00, 0.00, 0.00, 0.00, 0.00
80, -1246.07, 58225.62, 12468.07, 35218.84, -26235.92, -18342.33, 11695.39, -28093.57, -6685.56, 39837.69, 12604.93, -37233.56, 0.00, 0.00, 0.00, 0.00, 0.00, 0.00, 0.00
81, -1262.20, 58213.84, 12451.96, 35200.26, -26255.74, -18346.00, 11684.06, -28106.20, -6685.56, 39837.69, 12604.93, -37233.56, 0.00, 0.00, 0.00, 0.00, 0.00, 0.00, 0.00
82, -1262.20, 58213.84, 12451.96, 35200.26, -26255.74, -18346.00, 11684.06, -28106.20, -6675.66, 39855.55, 12606.88, -37224.73, 0.00, 0.00, 0.00, 0.00, 0.00, 0.00, 0.00
83, -1243.23, 58239.08, 12475.76, 35220.04, -26239.05, -18323.85, 11704.89, -28081.59, -6675.66, 39855.55, 12606.88, -37224.73, 0.00, 0.00, 0.00, 0.00, 0.00, 0.00, 0.00
84, -1243.23, 58239.08, 12475.76, 35220.04, -26239.05, -18323.85, 11704.89, -28081.59, -6663.64, 39851.55, 12622.28, -37210.51, 0.00, 0.00, 0.00, 0.00, -0.14, 0.42, 0.90
85, -1246.78, 58232.35, 12467.11, 35205.29, -26254.69, -18334.35, 11689.25, -28101.17, -6663.64, 39851.55, 12622.28, -37210.51, 0.00, 0.00, 0.00, 0.00, 0.00, 0.00, 0.00
86, -1246.78, 58232.35, 12467.11, 35205.29, -26254.69, -18334.35, 11689.25, -28101.17, -6663.81, 39851.73, 12624.53, -37219.12, 0.00, 0.00, 0.00, 0.00, 0.00, 0.00, 0.00
87, -1230.24, 58260.02, 12487.70, 35222.26, -26243.12, -18317.77, 11702.08, -28086.22, -6663.81, 39851.73, 12624.53, -37219.12, 0.00, 0.00, 0.00, 0.00, 0.00, 0.00, 0.00
88, -1230.24, 58260.02, 12487.70, 35222.26, -26243.12, -18317.77, 11702.08, -28086.22, -6662.07, 39854.28, 12630.01, -37238.43, 0.00, 0.00, 0.00, 0.00, 0.00, 0.00, 0.00
89, -1241.26, 58243.28, 12473.82, 35203.97, -26263.08, -18326.60, 11684.53, -28100.41, -6662.07, 39854.28, 12630.01, -37238.43, 0.00, 0.00, 0.00, 0.00, 0.00, 0.00, 0.00
90, -1241.26, 58243.28, 12473.82, 35203.97, -26263.08, -18326.60, 11684.53, -28100.41, -6658.67, 39869.18, 12618.36, -37212.25, 0.00, 0.00, 0.00, 0.00, 0.00, 0.00, 0.00
91, -1227.13, 58255.89, 12485.80, 35222.48, -26254.71, -18303.57, 11703.64, -28079.11, -6658.67, 39869.18, 12618.36, -37212.25, 0.00, 0.00, 0.00, 0.00, 0.00, 0.00, 0.00
92, -1227.13, 58255.89, 12485.80, 35222.48, -26254.71, -18303.57, 11703.64, -28079.11, -6652.13, 39874.64, 12623.82, -37209.68, 0.00, 0.00, 0.00, 0.00, 0.00, 0.00, 0.00
93, -1241.66, 58239.08, 12467.60, 35202.03, -26277.18, -18315.40, 11684.20, -28102.33, -6652.13, 39874.64, 12623.82, -37209.68, 0.00, 0.00, 0.00, 0.00, 0.00, 0.00, 0.00
94, -1241.66, 58239.08, 12467.60, 35202.03, -26277.18, -18315.40, 11684.20, -28102.33, -6666.01, 39854.03, 12606.81, -37222.70, 0.00, 0.00, 0.00, 0.00, -0.14, 0.42, 0.90
95, -1234.40, 58248.89, 12479.72, 35214.37, -26268.26, -18302.79, 11688.58, -28092.28, -6666.01, 39854.03, 12606.81, -37222.70, 0.00, 0.00, 0.00, 0.00, 0.00, 0.00, 0.00
96, -1234.40, 58248.89, 12479.72, 35214.37, -26268.26, -18302.79, 11688.58, -28092.28, -6661.27, 39863.33, 12617.80, -37229.40, 0.00, 0.00, 0.00, 0.00, 0.00, 0.00, 0.00
97, -1237.53, 58239.03, 12469.68, 35203.44, -26278.97, -18307.02, 11680.55, -28105.96, -6661.27, 39863.33, 12617.80, -37229.40, 0.00, 0.00, 0.00, 0.00, 0.00, 0.00, 0.00
98, -1237.53, 58239.03, 12469.68, 35203.44, -26278.97, -18307.02, 11680.55, -28105.96, -6659.30, 39858.57, 12606.03, -37223.25, 0.00, 0.00, 0.00, 0.00, 0.00, 0.00, 0.00
99, -1232.16, 58252.18, 12479.31, 35212.76, -26276.75, -18294.59, 11691.95, -28093.37, -6659.30, 39858.57, 12606.03, -37223.25, 0.00, 0.00, 0.00, 0.00, 0.00, 0.00, 0.00
100, -1232.16, 58252.18, 12479.31, 35212.76, -26276.75, -18294.59, 11691.95, -28093.37, -6647.14, 39876.05, 12622.19, -37226.74, 0.00, 0.00, 0.00, 0.00, 0.00, 0.00, 0.00
101, -1244.34, 58239.14, 12470.46, 35207.80, -26276.08, -18292.87, 11683.28, -28093.97, -6647.14, 39876.05, 12622.19, -37226.74, 0.00, 0.00, 0.00, 0.00, 0.00, 0.00, 0.00
102, -1244.34, 58239.14, 12470.46, 35207.80, -26276.08, -18292.87, 11683.28, -28093.97, -6655.61, 39861.36, 12600.10, -37214.78, 0.00, 0.00, 0.00, 0.00, 0.00, 0.00, 0.00
103, -1248.21, 58232.06, 12465.52, 35204.09, -26285.58, -18290.21, 11681.13, -28099.65, -6655.61, 39861.36, 12600.10, -37214.78, 0.00, 0.00, 0.00, 0.00, 0.00, 0.00, 0.00
104, -1248.21, 58232.06, 12465.52, 35204.09, -26285.58, -18290.21, 11681.13, -28099.65, -6648.39, 39880.90, 12617.74, -37208.84, 0.00, 0.00, 0.00, 0.00, -0.14, 0.42, 0.90
105, -1246.13, 58241.34, 12466.68, 35204.06, -26283.95, -18281.56, 11684.58, -28095.20, -6648.39, 39880.90, 12617.74, -37208.84, 0.00, 0.00, 0.00, 0.00, 0.00, 0.00, 0.00
106, -1246.13, 58241.34, 12466.68, 35204.06, -26283.95, -18281.56, 11684.58, -28095.20, -6642.98, 39869.50, 12606.12, -37227.59, 0.00, 0.00, 0.00, 0.00, 0.00, 0.00, 0.00
107, -1257.08, 58226.85, 12461.48, 35203.15, -26293.25, -18278.50, 11687.46, -28093.97, -6642.98, 39869.50, 12606.12, -37227.59, 0.00, 0.00, 0.00, 0.00, 0.00, 0.00, 0.00
108, -1257.08, 58226.85, 12461.48, 35203.15, -26293.25, -18278.50, 11687.46, -28093.97, -6638.65, 39885.46, 12611.23, -37221.91, 0.00, 0.00, 0.00, 0.00, 0.00, 0.00, 0.00
109, -1250.00, 58225.31, 12459.47, 35200.69, -26292.29, -18273.98, 11675.34, -28099.23, -6638.65, 39885.46, 12611.23, -37221.91, 0.00, 0.00, 0.00, 0.00, 0.00, 0.00, 0.00
110, -1250.00, 58225.31, 12459.47, 35200.69, -26292.29, -18273.98, 11675.34, -28099.23, -6647.56, 39871.04, 12599.37, -37213.86, 0.00, 0.00, 0.00, 0.00, 0.00, 0.00, 0.00
111, -1245.98, 58229.27, 12459.38, 35200.49, -26296.29, -18268.82, 11681.63, -28092.70, -6647.56, 39871.04, 12599.37, -37213.86, 0.00, 0.00, 0.00, 0.00, 0.00, 0.00, 0.00
112, -1245.98, 58229.27, 12459.38, 35200.49, -26296.29, -18268.82, 11681.63, -28092.70, -6637.48, 39892.59, 12607.99, -37211.23, 0.00, 0.00, 0.00, 0.00, 0.00, 0.00, 0.00
113, -1240.90, 58241.74, 12467.56, 35207.59, -26295.24, -18258.67, 11679.52, -28096.34, -6637.48, 39892.59, 12607.99, -37211.23, 0.00, 0.00, 0.00, 0.00, 0.00, 0.00, 0.00
114, -1240.90, 58241.74, 12467.56, 35207.59, -26295.24, -18258.67, 11679.52, -28096.34, -6638.83, 39875.04, 12606.99, -37220.77, 0.00, 0.00, 0.00, 0.00, -0.14, 0.42, 0.91
115, -1241.55, 58239.79, 12468.32, 35205.32, -26299.84, -18257.24, 11675.12, -28097.44, -6638.83, 39875.04, 12606.99, -37220.77, 0.00, 0.00, 0.00, 0.00, 0.00, 0.00, 0.00
116, -1241.55, 58239.79, 12468.32, 35205.32, -26299.84, -18257.24, 11675.12, -28097.44, -6625.28, 39897.32, 12620.33, -37201.97, 0.00, 0.00, 0.00, 0.00, 0.00, 0.00, 0.00
117, -1230.26, 58247.04, 12475.49, 35214.08, -26293.76, -18244.43, 11688.00, -28087.76, -6625.28, 39897.32, 12620.33, -37201.97, 0.00, 0.00, 0.00, 0.00, 0.00, 0.00, 0.00
118, -1230.26, 58247.04, 12475.49, 35214.08, -26293.76, -18244.43, 11688.00, -28087.76, -6643.43, 39869.77, 12602.67, -37222.05, 0.00, 0.00, 0.00, 0.00, 0.00, 0.00, 0.00
119, -1240.90, 58238.54, 12464.90, 35205.25, -26310.62, -18249.84, 11675.08, -28105.62, -6643.43, 39869.77, 12602.67, -37222.05, 0.00, 0.00, 0.00, 0.00, 0.00, 0.00, 0.00
120, -1240.90, 58238.54, 12464.90, 35205.25, -26310.62, -18249.84, 11675.08, -28105.62, -6625.91, 39900.14, 12617.96, -37222.87, 0.00, 0.00, 0.00, 0.00, 0.00, 0.00, 0.00
121, -1224.54, 58252.69, 12479.18, 35214.52, -26295.84, -18235.69, 11682.72, -28088.30, -6625.91, 39900.14, 12617.96, -37222.87, 0.00, 0.00, 0.00, 0.00, 0.00, 0.00, 0.00
122, -1224.54, 58252.69, 12479.18, 35214.52, -26295.84, -18235.69, 11682.72, -28088.30, -6630.76, 39891.05, 12608.69, -37197.41, 0.00, 0.00, 0.00, 0.00, 0.00, 0.00, 0.00
123, -1234.42, 58239.59, 12472.12, 35209.81, -26305.23, -18237.19, 11676.95, -28097.15, -6630.76, 39891.05, 12608.69, -37197.41, 0.00, 0.00, 0.00, 0.00, -0.14, 0.41, 0.90
124, -1234.42, 58239.59, 12472.12, 35209.81, -26305.23, -18237.19, 11676.95, -28097.15, -6621.17, 39897.89, 12620.31, -37206.33, 0.00, 0.00, 0.00, 0.00, 0.00, 0.00, 0.00
125, -1232.14, 58250.84, 12482.53, 35220.54, -26295.35, -18223.09, 11691.91, -28083.63, -6621.17, 39897.89, 12620.31, -37206.33, 0.00, 0.00, 0.00, 0.00, 0.00, 0.00, 0.00
126, -1232.14, 58250.84, 12482.53, 35220.54, -26295.35, -18223.09, 11691.91, -28083.63, -6615.76, 39896.77, 12616.69, -37217.22, 0.00, 0.00, 0.00, 0.00, 0.00, 0.00, 0.00
127, -1235.78, 58240.91, 12475.49, 35211.11, -26295.02, -18221.54, 11684.96, -28089.82, -6615.76, 39896.77, 12616.69, -37217.22, 0.00, 0.00, 0.00, 0.00, 0.00, 0.00, 0.00
128, -1235.78, 58240.91, 12475.49, 35211.11, -26295.02, -18221.54, 11684.96, -28089.82, -6618.87, 39906.40, 12620.24, -37196.74, 0.00, 0.00, 0.00, 0.00, 0.00, 0.00, 0.00
129, -1235.83, 58248.00, 12480.32, 35221.27, -26286.81, -18206.84, 11695.64, -28077.50, -6618.87, 39906.40, 12620.24, -37196.74, 0.00, 0.00, 0.00, 0.00, 0.00, 0.00, 0.00
130, -1235.83, 58248.00, 12480.32, 35221.27, -26286.81, -18206.84, 11695.64, -28077.50, -6612.32, 39905.15, 12618.59, -37203.27, 0.00, 0.00, 0.00, 0.00, 0.00, 0.00, 0.00
131, -1254.67, 58231.59, 12460.92, 35199.14, -26311.24, -18221.32, 11675.19, -28096.95, -6612.32, 39905.15, 12618.59, -37203.27, 0.00, 0.00, 0.00, 0.00, 0.00, 0.00, 0.00
132, -1254.67, 58231.59, 12460.92, 35199.14, -26311.24, -18221.32, 11675.19, -28096.95, -6606.55, 39914.65, 12611.05, -37199.92, 0.00, 0.00, 0.00, 0.00, 0.00, 0.00, 0.00
133, -1246.96, 58236.11, 12466.93, 35209.25, -26302.28, -18206.54, 11684.78, -28080.92, -6606.55, 39914.65, 12611.05, -37199.92, 0.00, 0.00, 0.00, 0.00, -0.14, 0.41, 0.90
134, -1246.96, 58236.11, 12466.93, 35209.25, -26302.28, -18206.54, 11684.78, -28080.92, -6607.38, 39908.17, 12613.22, -37210.51, 0.00, 0.00, 0.00, 0.00, 0.00, 0.00, 0.00
135, -1254.38, 58219.25, 12452.16, 35193.58, -26322.66, -18217.99, 11666.92, -28102.76, -6607.38, 39908.17, 12613.22, -37210.51, 0.00, 0.00, 0.00, 0.00, 0.00, 0.00, 0.00
136, -1254.38, 58219.25, 12452.16, 35193.58, -26322.66, -18217.99, 11666.92, -28102.76, -6604.90, 39908.99, 12604.93, -37197.68, 0.00, 0.00, 0.00, 0.00, 0.00, 0.00, 0.00
137, -1244.10, 58234.14, 12465.03, 35209.85, -26306.77, -18197.92, 11683.39, -28086.29, -6604.90, 39908.99, 12604.93, -37197.68, 0.00, 0.00, 0.00, 0.00, 0.00, 0.00, 0.00
138, -1244.10, 58234.14, 12465.03, 35209.85, -26306.77, -18197.92, 11683.39, -28086.29, -6610.95, 39906.65, 12609.09, -37216.66, 0.00, 0.00, 0.00, 0.00, 0.00, 0.00, 0.00
139, -1253.91, 58221.62, 12453.32, 35196.51, -26321.93, -18207.75, 11665.93, -28105.17, -6610.95, 39906.65, 12609.09, -37216.66, 0.00, 0.00, 0.00, 0.00, 0.00, 0.00, 0.00
140, -1253.91, 58221.62, 12453.32, 35196.51, -26321.93, -18207.75, 11665.93, -28105.17, -6614.06, 39902.36, 12599.92, -37218.09, 0.00, 0.00, 0.00, 0.00, 0.00, 0.00, 0.00
141, -1239.18, 58232.21, 12462.75, 35209.45, -26314.84, -18191.01, 11680.69, -28091.34, -6614.06, 39902.36, 12599.92, -37218.09, 0.00, 0.00, 0.00, 0.00, 0.00, 0.00, 0.00
142, -1239.18, 58232.21, 12462.75, 35209.45, -26314.84, -18191.01, 11680.69, -28091.34, -6600.16, 39918.74, 12614.59, -37199.31, 0.00, 0.00, 0.00, 0.00, 0.00, 0.00, 0.00
143, -1239.27, 58232.93, 12462.48, 35203.50, -26318.20, -18193.38, 11669.49, -28100.01, -6600.16, 39918.74, 12614.59, -37199.31, 0.00, 0.00, 0.00, 0.00, -0.14, 0.41, 0.90
144, -1239.27, 58232.93, 12462.48, 35203.50, -26318.20, -18193.38, 11669.49, -28100.01, -6598.06, 39912.37, 12613.60, -37199.96, 0.00, 0.00, 0.00, 0.00, 0.00, 0.00, 0.00
145, -1234.46, 58246.52, 12477.82, 35217.56, -26302.71, -18175.52, 11688.75, -28083.18, -6598.06, 39912.37, 12613.60, -37199.96, 0.00, 0.00, 0.00, 0.00, 0.00, 0.00, 0.00
146, -1234.46, 58246.52, 12477.82, 35217.56, -26302.71, -18175.52, 11688.75, -28083.18, -6590.84, 39933.56, 12627.57, -37199.71, 0.00, 0.00, 0.00, 0.00, 0.00, 0.00, 0.00
147, -1240.95, 58232.33, 12469.05, 35207.15, -26308.96, -18180.35, 11677.87, -28092.37, -6590.84, 39933.56, 12627.57, -37199.71, 0.00, 0.00, 0.00, 0.00, 0.00, 0.00, 0.00
148, -1240.95, 58232.33, 12469.05, 35207.15, -26308.96, -18180.35, 11677.87, -28092.37, -6598.50, 39918.27, 12616.58, -37208.41, 0.00, 0.00, 0.00, 0.00, 0.00, 0.00, 0.00
149, -1229.90, 58248.44, 12483.54, 35219.57, -26299.17, -18165.64, 11692.02, -28082.84, -6598.50, 39918.27, 12616.58, -37208.41, 0.00, 0.00, 0.00, 0.00, 0.00, 0.00, 0.00
150, -1229.90, 58248.44, 12483.54, 35219.57, -26299.17, -18165.64, 11692.02, -28082.84, -6581.67, 39934.95, 12638.41, -37184.74, 0.00, 0.00, 0.00, 0.00, 0.00, 0.00, 0.00
151, -1230.82, 58249.07, 12481.86, 35217.81, -26303.60, -18162.92, 11682.12, -28090.44, -6581.67, 39934.95, 12638.41, -37184.74, 0.00, 0.00, 0.00, 0.00, 0.00, 0.00, 0.00
152, -1230.82, 58249.07, 12481.86, 35217.81, -26303.60, -18162.92, 11682.12, -28090.44, -6586.70, 39920.95, 12620.98, -37209.46, 0.00, 0.00, 0.00, 0.00, 0.00, 0.00, 0.00
153, -1227.80, 58251.41, 12484.41, 35217.05, -26302.15, -18159.61, 11684.75, -28086.80, -6586.70, 39920.95, 12620.98, -37209.46, 0.00, 0.00, 0.00, 0.00, -0.14, 0.42, 0.91
154, -1227.80, 58251.41, 12484.41, 35217.05, -26302.15, -18159.61, 11684.75, -28086.80, -6577.58, 39940.64, 12638.41, -37203.94, 0.00, 0.00, 0.00, 0.00, 0.00, 0.00, 0.00
155, -1230.93, 58243.48, 12474.91, 35208.31, -26309.79, -18159.99, 11678.50, -28092.50, -6577.58, 39940.64, 12638.41, -37203.94, 0.00, 0.00, 0.00, 0.00, 0.00, 0.00, 0.00
156, -1230.93, 58243.48, 12474.91, 35208.31, -26309.79, -18159.99, 11678.50, -28092.50, -6594.57, 39917.78, 12609.04, -37204.25, 0.00, 0.00, 0.00, 0.00, 0.00, 0.00, 0.00
157, -1239.00, 58235.41, 12464.03, 35201.85, -26319.96, -18162.11, 11669.58, -28102.45, -6594.57, 39917.78, 12609.04, -37204.25, 0.00, 0.00, 0.00, 0.00, 0.00, 0.00, 0.00
158, -1239.00, 58235.41, 12464.03, 35201.85, -26319.96, -18162.11, 11669.58, -28102.45, -6587.98, 39936.17, 12615.17, -37200.54, 0.00, 0.00, 0.00, 0.00, 0.00, 0.00, 0.00
159, -1242.71, 58236.33, 12464.85, 35202.16, -26319.96, -18154.73, 11672.44, -28095.18, -6587.98, 39936.17, 12615.17, -37200.54, 0.00, 0.00, 0.00, 0.00, 0.00, 0.00, 0.00
160, -1242.71, 58236.33, 12464.85, 35202.16, -26319.96, -18154.73, 11672.44, -28095.18, -6582.45, 39931.41, 12602.34, -37202.82, 0.00, 0.00, 0.00, 0.00, 0.00, 0.00, 0.00
161, -1246.38, 58224.13, 12453.36, 35192.82, -26326.53, -18155.65, 11664.86, -28100.50, -6582.45, 39931.41, 12602.34, -37202.82, 0.00, 0.00, 0.00, 0.00, 0.00, 0.00, 0.00
162, -1246.38, 58224.13, 12453.36, 35192.82, -26326.53, -18155.65, 11664.86, -28100.50, -6580.24, 39940.15, 12609.38, -37200.68, 0.00, 0.00, 0.00, 0.00, -0.14, 0.41, 0.90
163, -1236.39, 58237.20, 12464.56, 35203.17, -26315.42, -18143.85, 11675.66, -28092.21, -6580.24, 39940.15, 12609.38, -37200.68, 0.00, 0.00, 0.00, 0.00, 0.00, 0.00, 0.00
164, -1236.39, 58237.20, 12464.56, 35203.17, -26315.42, -18143.85, 11675.66, -28092.21, -6582.03, 39928.28, 12606.34, -37204.79, 0.00, 0.00, 0.00, 0.00, 0.00, 0.00, 0.00
165, -1247.16, 58228.64, 12457.34, 35193.31, -26327.56, -18148.14, 11665.35, -28102.69, -6582.03, 39928.28, 12606.34, -37204.79, 0.00, 0.00, 0.00, 0.00, 0.00, 0.00, 0.00
166, -1247.16, 58228.64, 12457.34, 35193.31, -26327.56, -18148.14, 11665.35, -28102.69, -6577.65, 39942.95, 12618.03, -37193.50, 0.00, 0.00, 0.00, 0.00, 0.00, 0.00, 0.00
167, -1244.63, 58239.86, 12466.95, 35201.67, -26312.54, -18136.70, 11672.33, -28094.20, -6577.65, 39942.95, 12618.03, -37193.50, 0.00, 0.00, 0.00, 0.00, 0.00, 0.00, 0.00
168, -1244.63, 58239.86, 12466.95, 35201.67, -26312.54, -18136.70, 11672.33, -28094.20, -6566.74, 39939.95, 12618.99, -37208.34, 0.00, 0.00, 0.00, 0.00, 0.00, 0.00, 0.00
169, -1238.71, 58231.86, 12459.51, 35193.54, -26318.51, -18139.11, 11666.78, -28101.04, -6566.74, 39939.95, 12618.99, -37208.34, 0.00, 0.00, 0.00, 0.00, 0.00, 0.00, 0.00
170, -1238.71, 58231.86, 12459.51, 35193.54, -26318.51, -18139.11, 11666.78, -28101.04, -6555.65, 39955.46, 12629.32, -37198.96, 0.00, 0.00, 0.00, 0.00, 0.00, 0.00, 0.00
171, -1226.66, 58255.11, 12479.76, 35206.34, -26302.64, -18122.95, 11682.94, -28083.56, -6555.65, 39955.46, 12629.32, -37198.96, 0.00, 0.00, 0.00, 0.00, 0.00, 0.00, 0.00
172, -1226.66, 58255.11, 12479.76, 35206.34, -26302.64, -18122.95, 11682.94, -28083.56, -6560.95, 39948.71, 12627.24, -37183.49, 0.00, 0.00, 0.00, 0.00, -0.13, 0.41, 0.90
173, -1238.22, 58246.36, 12468.70, 35195.01, -26316.67, -18127.09, 11667.79, -28099.25, -6560.95, 39948.71, 12627.24, -37183.49, 0.00, 0.00, 0.00, 0.00, 0.00, 0.00, 0.00
174, -1238.22, 58246.36, 12468.70, 35195.01, -26316.67, -18127.09, 11667.79, -28099.25, -6551.12, 39962.70, 12638.10, -37183.94, 0.00, 0.00, 0.00, 0.00, 0.00, 0.00, 0.00
175, -1218.80, 58265.00, 12489.44, 35211.95, -26296.31, -18111.24, 11686.68, -28080.25, -6551.12, 39962.70, 12638.10, -37183.94, 0.00, 0.00, 0.00, 0.00, 0.00, 0.00, 0.00
176, -1218.80, 58265.00, 12489.44, 35211.95, -26296.31, -18111.24, 11686.68, -28080.25, -6553.08, 39955.57, 12635.53, -37200.25, 0.00, 0.00, 0.00, 0.00, 0.00, 0.00, 0.00
177, -1218.73, 58253.81, 12475.65, 35199.91, -26312.70, -18117.76, 11668.73, -28101.66, -6553.08, 39955.57, 12635.53, -37200.25, 0.00, 0.00, 0.00, 0.00, 0.00, 0.00, 0.00
178, -1218.73, 58253.81, 12475.65, 35199.91, -26312.70, -18117.76, 11668.73, -28101.66, -6550.71, 39959.66, 12631.89, -37190.02, 0.00, 0.00, 0.00, 0.00, 0.00, 0.00, 0.00
179, -1211.76, 58267.75, 12489.98, 35212.82, -26299.62, -18103.19, 11680.48, -28086.93, -6550.71, 39959.66, 12631.89, -37190.02, 0.00, 0.00, 0.00, 0.00, 0.00, 0.00, 0.00
180, -1211.76, 58267.75, 12489.98, 35212.82, -26299.62, -18103.19, 11680.48, -28086.93, -6550.83, 39955.62, 12627.66, -37188.34, 0.00, 0.00, 0.00, 0.00, 0.00, 0.00, 0.00
181, -1224.88, 58248.18, 12470.55, 35193.02, -26319.42, -18114.52, 11660.95, -28108.08, -6550.83, 39955.62, 12627.66, -37188.34, 0.00, 0.00, 0.00, 0.00, 0.00, 0.00, 0.00
182, -1224.88, 58248.18, 12470.55, 35193.02, -26319.42, -18114.52, 11660.95, -28108.08, -6552.99, 39953.70, 12621.99, -37204.57, 0.00, 0.00, 0.00, 0.00, -0.13, 0.41, 0.90
183, -1213.28, 58267.24, 12487.25, 35210.01, -26307.13, -18097.18, 11678.67, -28091.13, -6552.99, 39953.70, 12621.99, -37204.57, 0.00, 0.00, 0.00, 0.00, 0.00, 0.00, 0.00
184, -1213.28, 58267.24, 12487.25, 35210.01, -26307.13, -18097.18, 11678.67, -28091.13, -6557.80, 39949.92, 12623.21, -37200.21, 0.00, 0.00, 0.00, 0.00, 0.00, 0.00, 0.00
185, -1236.34, 58249.34, 12466.48, 35187.81, -26324.30, -18111.39, 11654.38, -28112.95, -6557.80, 39949.92, 12623.21, -37200.21, 0.00, 0.00, 0.00, 0.00, 0.00, 0.00, 0.00
186, -1236.34, 58249.34, 12466.48, 35187.81, -26324.30, -18111.39, 11654.38, -28112.95, -6550.02, 39955.73, 12618.59, -37201.95, 0.00, 0.00, 0.00, 0.00, 0.00, 0.00, 0.00
187, -1217.77, 58260.73, 12482.89, 35204.67, -26305.41, -18091.81, 11676.08, -28088.61, -6550.02, 39955.73, 12618.59, -37201.95, 0.00, 0.00, 0.00, 0.00, 0.00, 0.00, 0.00
188, -1217.77, 58260.73, 12482.89, 35204.67, -26305.41, -18091.81, 11676.08, -28088.61, -6540.25, 39966.73, 12633.27, -37201.59, 0.00, 0.00, 0.00, 0.00, 0.00, 0.00, 0.00
189, -1237.84, 58241.94, 12464.85, 35184.44, -26320.38, -18101.58, 11657.28, -28107.88, -6540.25, 39966.73, 12633.27, -37201.59, 0.00, 0.00, 0.00, 0.00, 0.00, 0.00, 0.00
190, -1237.84, 58241.94, 12464.85, 35184.44, -26320.38, -18101.58, 11657.28, -28107.88, -6539.25, 39958.26, 12620.62, -37192.30, 0.00, 0.00, 0.00, 0.00, 0.00, 0.00, 0.00
191, -1232.99, 58252.64, 12475.42, 35200.26, -26306.66, -18083.99, 11676.33, -28089.39, -6539.25, 39958.26, 12620.62, -37192.30, 0.00, 0.00, 0.00, 0.00, 0.00, 0.00, 0.00
192, -1232.99, 58252.64, 12475.42, 35200.26, -26306.66, -18083.99, 11676.33, -28089.39, -6529.73, 39979.02, 12630.59, -37180.61, 0.00, 0.00, 0.00, 0.00, -0.13, 0.41, 0.90
193, -1247.18, 58232.06, 12457.95, 35186.25, -26318.35, -18090.63, 11660.28, -28102.49, -6529.73, 39979.02, 12630.59, -37180.61, 0.00, 0.00, 0.00, 0.00, 0.00, 0.00, 0.00
194, -1247.18, 58232.06, 12457.95, 35186.25, -26318.35, -18090.63, 11660.28, -28102.49, -6535.63, 39964.58, 12609.56, -37211.63, 0.00, 0.00, 0.00, 0.00, 0.00, 0.00, 0.00
195, -1241.21, 58234.79, 12458.97, 35188.46, -26319.18, -18085.18, 11662.74, -28099.70, -6535.63, 39964.58, 12609.56, -37211.63, 0.00, 0.00, 0.00, 0.00, 0.00, 0.00, 0.00
196, -1241.21, 58234.79, 12458.97, 35188.46, -26319.18, -18085.18, 11662.74, -28099.70, -6534.31, 39970.75, 12616.44, -37191.07, 0.00, 0.00, 0.00, 0.00, 0.00, 0.00, 0.00
197, -1247.81, 58227.32, 12450.66, 35181.78, -26327.63, -18086.96, 11649.46, -28113.76, -6534.31, 39970.75, 12616.44, -37191.07, 0.00, 0.00, 0.00, 0.00, 0.00, 0.00, 0.00
198, -1247.81, 58227.32, 12450.66, 35181.78, -26327.63, -18086.96, 11649.46, -28113.76, -6536.59, 39957.32, 12601.56, -37202.29, 0.00, 0.00, 0.00, 0.00, 0.00, 0.00, 0.00
199, -1243.85, 58227.30, 12454.46, 35187.88, -26326.15, -18079.52, 11658.11, -28106.00, -6536.59, 39957.32, 12601.56, -37202.29, 0.00, 0.00, 0.00, 0.00, 0.00, 0.00, 0.00
200, -1243.85, 58227.30, 12454.46, 35187.88, -26326.15, -18079.52, 11658.11, -28106.00, -6529.66, 39972.79, 12614.70, -37202.73, 0.00, 0.00, 0.00, 0.00, 0.00, 0.00, 0.00
201, -1238.73, 58226.76, 12454.53, 35184.66, -26323.47, -18077.93, 11650.62, -28114.07, -6529.66, 39972.79, 12614.70, -37202.73, 0.00, 0.00, 0.00, 0.00, -0.13, 0.41, 0.90
202, -1238.73, 58226.76, 12454.53, 35184.66, -26323.47, -18077.93, 11650.62, -28114.07, -6537.46, 39957.86, 12601.44, -37215.72, 0.00, 0.00, 0.00, 0.00, 0.00, 0.00, 0.00
203, -1238.89, 58232.68, 12457.61, 35184.95, -26326.33, -18074.92, 11655.16, -28109.80, -6537.46, 39957.86, 12601.44, -37215.72, 0.00, 0.00, 0.00, 0.00, 0.00, 0.00, 0.00
204, -1238.89, 58232.68, 12457.61, 35184.95, -26326.33, -18074.92, 11655.16, -28109.80, -6528.77, 39980.23, 12615.32, -37190.66, 0.00, 0.00, 0.00, 0.00, 0.00, 0.00, 0.00
205, -1235.45, 58237.11, 12459.60, 35188.86, -26318.51, -18064.57, 11655.72, -28107.56, -6528.77, 39980.23, 12615.32, -37190.66, 0.00, 0.00, 0.00, 0.00, 0.00, 0.00, 0.00
206, -1235.45, 58237.11, 12459.60, 35188.86, -26318.51, -18064.57, 11655.72, -28107.56, -6527.33, 39968.76, 12604.35, -37197.35, 0.00, 0.00, 0.00, 0.00, 0.00, 0.00, 0.00
207, -1227.31, 58238.09, 12463.29, 35188.51, -26320.68, -18063.81, 11653.57, -28112.28, -6527.33, 39968.76, 12604.35, -37197.35, 0.00, 0.00, 0.00, 0.00, 0.00, 0.00, 0.00
208, -1227.31, 58238.09, 12463.29, 35188.51, -26320.68, -18063.81, 11653.57, -28112.28, -6520.34, 39984.52, 12623.84, -37199.05, 0.00, 0.00, 0.00, 0.00, 0.00, 0.00, 0.00
209, -1224.63, 58252.58, 12471.63, 35194.83, -26314.06, -18053.19, 11660.39, -28108.75, -6520.34, 39984.52, 12623.84, -37199.05, 0.00, 0.00, 0.00, 0.00, 0.00, 0.00, 0.00
210, -1224.63, 58252.58, 12471.63, 35194.83, -26314.06, -18053.19, 11660.39, -28108.75, -6531.56, 39960.56, 12615.03, -37210.20, 0.00, 0.00, 0.00, 0.00, 0.00, 0.00, 0.00
211, -1222.13, 58249.34, 12475.67, 35195.21, -26311.45, -18053.15, 11657.95, -28112.93, -6531.56, 39960.56, 12615.03, -37210.20, 0.00, 0.00, 0.00, 0.00, -0.13, 0.42, 0.90
212, -1222.13, 58249.34, 12475.67, 35195.21, -26311.45, -18053.15, 11657.95, -28112.93, -6517.57, 39983.25, 12632.98, -37206.09, 0.00, 0.00, 0.00, 0.00, 0.00, 0.00, 0.00
213, -1206.26, 58260.31, 12486.06, 35203.17, -26299.24, -18039.11, 11668.39, -28100.66, -6517.57, 39983.25, 12632.98, -37206.09, 0.00, 0.00, 0.00, 0.00, 0.00, 0.00, 0.00
214, -1206.26, 58260.31, 12486.06, 35203.17, -26299.24, -18039.11, 11668.39, -28100.66, -6522.62, 39972.07, 12620.46, -37202.80, 0.00, 0.00, 0.00, 0.00, 0.00, 0.00, 0.00
215, -1219.38, 58249.98, 12475.80, 35193.56, -26309.07, -18044.09, 11657.66, -28112.19, -6522.62, 39972.07, 12620.46, -37202.80, 0.00, 0.00, 0.00, 0.00, 0.00, 0.00, 0.00
216, -1219.38, 58249.98, 12475.80, 35193.56, -26309.07, -18044.09, 11657.66, -28112.19, -6516.36, 39981.97, 12630.77, -37188.77, 0.00, 0.00, 0.00, 0.00, 0.00, 0.00, 0.00
217, -1216.47, 58264.25, 12489.26, 35205.92, -26297.09, -18030.26, 11669.69, -28102.96, -6516.36, 39981.97, 12630.77, -37188.77, 0.00, 0.00, 0.00, 0.00, 0.00, 0.00, 0.00
218, -1216.47, 58264.25, 12489.26, 35205.92, -26297.09, -18030.26, 11669.69, -28102.96, -6517.81, 39974.17, 12619.64, -37210.02, 0.00, 0.00, 0.00, 0.00, 0.00, 0.00, 0.00
219, -1222.55, 58249.98, 12471.85, 35189.71, -26310.28, -18038.93, 11654.85, -28116.64, -6517.81, 39974.17, 12619.64, -37210.02, 0.00, 0.00, 0.00, 0.00, 0.00, 0.00, 0.00
220, -1222.55, 58249.98, 12471.85, 35189.71, -26310.28, -18038.93, 11654.85, -28116.64, -6513.07, 39985.41, 12625.54, -37201.15, 0.00, 0.00, 0.00, 0.00, 0.00, 0.00, 0.00
221, -1215.47, 58261.07, 12481.97, 35199.93, -26295.64, -18021.29, 11670.63, -28097.06, -6513.07, 39985.41, 12625.54, -37201.15, 0.00, 0.00, 0.00, 0.00, -0.14, 0.41, 0.90
222, -1215.47, 58261.07, 12481.97, 35199.93, -26295.64, -18021.29, 11670.63, -28097.06, -6515.80, 39982.80, 12611.43, -37210.71, 0.00, 0.00, 0.00, 0.00, 0.00, 0.00, 0.00
223, -1234.22, 58241.20, 12464.38, 35181.80, -26318.13, -18036.81, 11646.44, -28123.28, -6515.80, 39982.80, 12611.43, -37210.71, 0.00, 0.00, 0.00, 0.00, 0.00, 0.00, 0.00
224, -1234.22, 58241.20, 12464.38, 35181.80, -26318.13, -18036.81, 11646.44, -28123.28, -6508.34, 39986.62, 12619.93, -37194.42, 0.00, 0.00, 0.00, 0.00, 0.00, 0.00, 0.00
225, -1223.51, 58254.39, 12473.73, 35191.50, -26302.64, -18022.32, 11663.25, -28106.29, -6508.34, 39986.62, 12619.93, -37194.42, 0.00, 0.00, 0.00, 0.00, 0.00, 0.00, 0.00
226, -1223.51, 58254.39, 12473.73, 35191.50, -26302.64, -18022.32, 11663.25, -28106.29, -6511.58, 39976.27, 12612.69, -37212.79, 0.00, 0.00, 0.00, 0.00, 0.00, 0.00, 0.00
227, -1234.82, 58236.53, 12456.11, 35178.54, -26316.52, -18028.07, 11645.08, -28123.81, -6511.58, 39976.27, 12612.69, -37212.79, 0.00, 0.00, 0.00, 0.00, 0.00, 0.00, 0.00
228, -1234.82, 58236.53, 12456.11, 35178.54, -26316.52, -18028.07, 11645.08, -28123.81, -6511.47, 39983.07, 12604.98, -37215.09, 0.00, 0.00, 0.00, 0.00, 0.00, 0.00, 0.00
229, -1223.67, 58249.05, 12466.66, 35191.48, -26306.73, -18014.01, 11657.42, -28110.96, -6511.47, 39983.07, 12604.98, -37215.09, 0.00, 0.00, 0.00, 0.00, 0.00, 0.00, 0.00
230, -1223.67, 58249.05, 12466.66, 35191.48, -26306.73, -18014.01, 11657.42, -28110.96, -6518.26, 39978.22, 12607.59, -37209.77, 0.00, 0.00, 0.00, 0.00, 0.00, 0.00, 0.00
231, -1243.38, 58234.41, 12452.92, 35174.87, -26322.53, -18023.08, 11638.26, -28131.48, -6518.26, 39978.22, 12607.59, -37209.77, 0.00, 0.00, 0.00, 0.00, -0.14, 0.41, 0.91
232, -1243.38, 58234.41, 12452.92, 35174.87, -26322.53, -18023.08, 11638.26, -28131.48, -6512.38, 39978.51, 12609.27, -37209.08, 0.00, 0.00, 0.00, 0.00, 0.00, 0.00, 0.00
233, -1211.40, 58257.52, 12474.96, 35199.23, -26299.29, -18001.22, 11661.49, -28108.73, -6512.38, 39978.51, 12609.27, -37209.08, 0.00, 0.00, 0.00, 0.00, 0.00, 0.00, 0.00
234, -1211.40, 58257.52, 12474.96, 35199.23, -26299.29, -18001.22, 11661.49, -28108.73, -6511.33, 39982.38, 12616.98, -37213.60, 0.00, 0.00, 0.00, 0.00, 0.00, 0.00, 0.00
235, -1221.41, 58247.53, 12464.03, 35183.63, -26319.25, -18012.87, 11638.71, -28134.50, -6511.33, 39982.38, 12616.98, -37213.60, 0.00, 0.00, 0.00, 0.00, 0.00, 0.00, 0.00
236, -1221.41, 58247.53, 12464.03, 35183.63, -26319.25, -18012.87, 11638.71, -28134.50, -6517.79, 39968.18, 12607.55, -37222.74, 0.00, 0.00, 0.00, 0.00, 0.00, 0.00, 0.00
237, -1213.77, 58257.94, 12480.19, 35200.18, -26297.12, -17993.29, 11658.38, -28116.41, -6517.79, 39968.18, 12607.55, -37222.74, 0.00, 0.00, 0.00, 0.00, 0.00, 0.00, 0.00
238, -1213.77, 58257.94, 12480.19, 35200.18, -26297.12, -17993.29, 11658.38, -28116.41, -6512.76, 39982.42, 12614.72, -37210.94, 0.00, 0.00, 0.00, 0.00, 0.00, 0.00, 0.00
239, -1223.60, 58238.32, 12463.11, 35187.19, -26312.65, -18000.02, 11642.69, -28131.57, -6512.76, 39982.42, 12614.72, -37210.94, 0.00, 0.00, 0.00, 0.00, 0.00, 0.00, 0.00
240, -1223.60, 58238.32, 12463.11, 35187.19, -26312.65, -18000.02, 11642.69, -28131.57, -6507.58, 39985.35, 12610.97, -37210.98, 0.00, 0.00, 0.00, 0.00, -0.14, 0.41, 0.90
241, -1200.20, 58269.07, 12496.41, 35209.45, -26280.87, -17973.48, 11673.85, -28100.19, -6507.58, 39985.35, 12610.97, -37210.98, 0.00, 0.00, 0.00, 0.00, 0.00, 0.00, 0.00
242, -1200.20, 58269.07, 12496.41, 35209.45, -26280.87, -17973.48, 11673.85, -28100.19, -6493.94, 40004.37, 12639.26, -37203.92, 0.00, 0.00, 0.00, 0.00, 0.00, 0.00, 0.00
243, -1211.60, 58252.33, 12474.87, 35192.91, -26305.10, -17987.30, 11645.93, -28127.43, -6493.94, 40004.37, 12639.26, -37203.92, 0.00, 0.00, 0.00, 0.00, 0.00, 0.00, 0.00
244, -1211.60, 58252.33, 12474.87, 35192.91, -26305.10, -17987.30, 11645.93, -28127.43, -6515.98, 39971.94, 12586.62, -37209.71, 0.00, 0.00, 0.00, 0.00, 0.00, 0.00, 0.00
245, -1206.95, 58256.98, 12474.98, 35188.20, -26311.24, -17985.46, 11646.58, -28127.10, -6515.98, 39971.94, 12586.62, -37209.71, 0.00, 0.00, 0.00, 0.00, 0.00, 0.00, 0.00
246, -1206.95, 58256.98, 12474.98, 35188.20, -26311.24, -17985.46, 11646.58, -28127.10, -6505.52, 39992.03, 12602.43, -37214.40, 0.00, 0.00, 0.00, 0.00, 0.00, 0.00, 0.00
247, -1214.68, 58242.27, 12460.83, 35170.20, -26316.50, -17990.40, 11634.42, -28138.30, -6505.52, 39992.03, 12602.43, -37214.40, 0.00, 0.00, 0.00, 0.00, 0.00, 0.00, 0.00
248, -1214.68, 58242.27, 12460.83, 35170.20, -26316.50, -17990.40, 11634.42, -28138.30, -6517.81, 39970.59, 12588.37, -37226.76, 0.00, 0.00, 0.00, 0.00, 0.00, 0.00, 0.00
249, -1215.06, 58246.63, 12463.78, 35172.39, -26318.66, -17986.31, 11636.07, -28138.99, -6517.81, 39970.59, 12588.37, -37226.76, 0.00, 0.00, 0.00, 0.00, 0.00, 0.00, 0.00
250, -1215.06, 58246.63, 12463.78, 35172.39, -26318.66, -17986.31, 11636.07, -28138.99, -6503.33, 39992.63, 12616.87, -37212.23, 0.00, 0.00, 0.00, 0.00, -0.13, 0.41, 0.90
251, -1215.87, 58254.28, 12471.83, 35172.79, -26312.49, -17979.03, 11637.79, -28133.22, -6503.33, 39992.63, 12616.87, -37212.23, 0.00, 0.00, 0.00, 0.00, 0.00, 0.00, 0.00
252, -1215.87, 58254.28, 12471.83, 35172.79, -26312.49, -17979.03, 11637.79, -28133.22, -6504.67, 39984.90, 12600.48, -37208.97, 0.00, 0.00, 0.00, 0.00, 0.00, 0.00, 0.00
253, -1222.57, 58245.65, 12459.51, 35159.89, -26315.22, -17980.10, 11634.40, -28135.91, -6504.67, 39984.90, 12600.48, -37208.97, 0.00, 0.00, 0.00, 0.00, 0.00, 0.00, 0.00
254, -1222.57, 58245.65, 12459.51, 35159.89, -26315.22, -17980.10, 11634.40, -28135.91, -6502.81, 39991.63, 12612.78, -37223.75, 0.00, 0.00, 0.00, 0.00, 0.00, 0.00, 0.00
255, -1214.62, 58250.75, 12465.12, 35162.87, -26315.18, -17975.45, 11631.18, -28143.84, -6502.81, 39991.63, 12612.78, -37223.75, 0.00, 0.00, 0.00, 0.00, 0.00, 0.00, 0.00
0, -1214.62, 58250.75, 12465.12, 35162.87, -26315.18, -17975.45, 11631.18, -28143.84, -6509.48, 39971.69, 12600.17, -37230.45, 0.00, 0.00, 0.00, 0.00, 0.00, 0.00, 0.00
1, -1217.68, 58248.67, 12464.18, 35165.84, -26315.87, -17969.73, 11630.10, -28142.81, -6509.48, 39971.69, 12600.17, -37230.45, 0.00, 0.00, 0.00, 0.00, 0.00, 0.00, 0.00
2, -1217.68, 58248.67, 12464.18, 35165.84, -26315.87, -17969.73, 11630.10, -28142.81, -6495.84, 39999.32, 12617.42, -37212.48, 0.00, 0.00, 0.00, 0.00, 0.00, 0.00, 0.00
3, -1209.48, 58259.20, 12474.69, 35177.09, -26307.49, -17957.90, 11638.96, -28137.45, -6495.84, 39999.32, 12617.42, -37212.48, 0.00, 0.00, 0.00, 0.00, 0.00, 0.00, 0.00
4, -1209.48, 58259.20, 12474.69, 35177.09, -26307.49, -17957.90, 11638.96, -28137.45, -6507.24, 39977.17, 12601.40, -37221.38, 0.00, 0.00, 0.00, 0.00, -0.13, 0.41, 0.91
5, -1221.68, 58242.30, 12460.00, 35162.98, -26322.93, -17965.21, 11627.78, -28148.20, -6507.24, 39977.17, 12601.40, -37221.38, 0.00, 0.00, 0.00, 0.00, 0.00, 0.00, 0.00
6, -1221.68, 58242.30, 12460.00, 35162.98, -26322.93, -17965.21, 11627.78, -28148.20, -6498.50, 39998.42, 12612.89, -37217.93, 0.00, 0.00, 0.00, 0.00, 0.00, 0.00, 0.00
7, -1210.53, 58253.92, 12471.83, 35177.00, -26303.89, -17948.79, 11637.70, -28137.52, -6498.50, 39998.42, 12612.89, -37217.93, 0.00, 0.00, 0.00, 0.00, 0.00, 0.00, 0.00
8, -1210.53, 58253.92, 12471.83, 35177.00, -26303.89, -17948.79, 11637.70, -28137.52, -6502.97, 39981.48, 12602.47, -37211.77, 0.00, 0.00, 0.00, 0.00, 0.00, 0.00, 0.00
9, -1218.73, 58244.51, 12463.38, 35167.50, -26311.04, -17953.81, 11629.03, -28147.84, -6502.97, 39981.48, 12602.47, -37211.77, 0.00, 0.00, 0.00, 0.00, 0.00, 0.00, 0.00
10, -1218.73, 58244.51, 12463.38, 35167.50, -26311.04, -17953.81, 11629.03, -28147.84, -6487.88, 40002.67, 12614.09, -37214.09, 0.00, 0.00, 0.00, 0.00, 0.00, 0.00, 0.00
11, -1207.62, 58258.34, 12475.20, 35181.36, -26297.32, -17934.37, 11646.51, -28130.25, -6487.88, 40002.67, 12614.09, -37214.09, 0.00, 0.00, 0.00, 0.00, 0.00, 0.00, 0.00
12, -1207.62, 58258.34, 12475.20, 35181.36, -26297.32, -17934.37, 11646.51, -28130.25, -6500.20, 39996.68, 12602.79, -37206.94, 0.00, 0.00, 0.00, 0.00, 0.00, 0.00, 0.00
13, -1221.84, 58240.91, 12453.97, 35159.11, -26321.12, -17952.12, 11619.96, -28158.06, -6500.20, 39996.68, 12602.79, -37206.94, 0.00, 0.00, 0.00, 0.00, 0.00, 0.00, 0.00
14, -1221.84, 58240.91, 12453.97, 35159.11, -26321.12, -17952.12, 11619.96, -28158.06, -6504.45, 39990.53, 12606.94, -37216.30, 0.00, 0.00, 0.00, 0.00, -0.14, 0.41, 0.91
15, -1211.78, 58253.88, 12468.05, 35172.77, -26300.49, -17934.50, 11636.74, -28142.37, -6504.45, 39990.53, 12606.94, -37216.30, 0.00, 0.00, 0.00, 0.00, 0.00, 0.00, 0.00
16, -1211.78, 58253.88, 12468.05, 35172.77, -26300.49, -17934.50, 11636.74, -28142.37, -6497.67, 39995.50, 12602.76, -37214.49, 0.00, 0.00, 0.00, 0.00, 0.00, 0.00, 0.00
17, -1229.41, 58237.20, 12450.79, 35155.87, -26317.84, -17942.30, 11619.22, -28157.41, -6497.67, 39995.50, 12602.76, -37214.49, 0.00, 0.00, 0.00, 0.00, 0.00, 0.00, 0.00
18, -1229.41, 58237.20, 12450.79, 35155.87, -26317.84, -17942.30, 11619.22, -28157.41, -6497.25, 40000.25, 12601.38, -37214.43, 0.00, 0.00, 0.00, 0.00, 0.00, 0.00, 0.00
19, -1211.26, 58251.62, 12463.09, 35171.14, -26305.74, -17926.57, 11635.42, -28140.42, -6497.25, 40000.25, 12601.38, -37214.43, 0.00, 0.00, 0.00, 0.00, 0.00, 0.00, 0.00
20, -1211.26, 58251.62, 12463.09, 35171.14, -26305.74, -17926.57, 11635.42, -28140.42, -6498.75, 39997.64, 12597.20, -37213.75, 0.00, 0.00, 0.00, 0.00, 0.00, 0.00, 0.00
21, -1225.79, 58234.03, 12446.66, 35152.79, -26325.55, -17936.09, 11613.07, -28163.64, -6498.75, 39997.64, 12597.20, -37213.75, 0.00, 0.00, 0.00, 0.00, 0.00, 0.00, 0.00
22, -1225.79, 58234.03, 12446.66, 35152.79, -26325.55, -17936.09, 11613.07, -28163.64, -6498.77, 40003.50, 12594.58, -37203.89, 0.00, 0.00, 0.00, 0.00, 0.00, 0.00, 0.00
23, -1207.80, 58256.38, 12467.33, 35175.12, -26302.50, -17917.74, 11633.12, -28143.79, -6498.77, 40003.50, 12594.58, -37203.89, 0.00, 0.00, 0.00, 0.00, 0.00, 0.00, 0.00
24, -1207.80, 58256.38, 12467.33, 35175.12, -26302.50, -17917.74, 11633.12, -28143.79, -6496.69, 39998.36, 12599.23, -37217.87, 0.00, 0.00, 0.00, 0.00, -0.13, 0.41, 0.91
25, -1217.95, 58243.37, 12453.65, 35158.36, -26315.60, -17924.98, 11614.86, -28162.15, -6496.69, 39998.36, 12599.23, -37217.87, 0.00, 0.00, 0.00, 0.00, 0.00, 0.00, 0.00
26, -1217.95, 58243.37, 12453.65, 35158.36, -26315.60, -17924.98, 11614.86, -28162.15, -6492.67, 40001.13, 12599.45, -37200.79, 0.00, 0.00, 0.00, 0.00, 0.00, 0.00, 0.00
27, -1196.58, 58263.78, 12471.78, 35176.48, -26296.45, -17904.46, 11639.13, -28138.28, -6492.67, 40001.13, 12599.45, -37200.79, 0.00, 0.00, 0.00, 0.00, 0.00, 0.00, 0.00
28, -1196.58, 58263.78, 12471.78, 35176.48, -26296.45, -17904.46, 11639.13, -28138.28, -6484.51, 40022.32, 12603.25, -37198.51, 0.00, 0.00, 0.00, 0.00, 0.00, 0.00, 0.00
29, -1216.67, 58245.07, 12455.64, 35158.55, -26313.77, -17914.23, 11620.34, -28155.37, -6484.51, 40022.32, 12603.25, -37198.51, 0.00, 0.00, 0.00, 0.00, 0.00, 0.00, 0.00
30, -1216.67, 58245.07, 12455.64, 35158.55, -26313.77, -17914.23, 11620.34, -28155.37, -6486.03, 40009.64, 12596.30, -37206.60, 0.00, 0.00, 0.00, 0.00, 0.00, 0.00, 0.00
31, -1206.99, 58256.87, 12466.91, 35169.75, -26293.03, -17898.70, 11636.32, -28137.29, -6486.03, 40009.64, 12596.30, -37206.60, 0.00, 0.00, 0.00, 0.00, 0.00, 0.00, 0.00
32, -1206.99, 58256.87, 12466.91, 35169.75, -26293.03, -17898.70, 11636.32, -28137.29, -6481.71, 40027.08, 12600.33, -37197.84, 0.00, 0.00, 0.00, 0.00, 0.00, 0.00, 0.00
33, -1218.15, 58237.04, 12447.22, 35150.24, -26314.28, -17910.18, 11614.66, -28159.42, -6481.71, 40027.08, 12600.33, -37197.84, 0.00, 0.00, 0.00, 0.00, -0.14, 0.41, 0.91
34, -1218.15, 58237.04, 12447.22, 35150.24, -26314.28, -17910.18, 11614.66, -28159.42, -6489.25, 40001.33, 12586.18, -37196.09, 0.00, 0.00, 0.00, 0.00, 0.00, 0.00, 0.00
35, -1215.58, 58250.34, 12459.93, 35162.15, -26299.17, -17898.05, 11627.71, -28146.84, -6489.25, 40001.33, 12586.18, -37196.09, 0.00, 0.00, 0.00, 0.00, 0.00, 0.00, 0.00
36, -1215.58, 58250.34, 12459.93, 35162.15, -26299.17, -17898.05, 11627.71, -28146.84, -6482.05, 40024.73, 12598.38, -37200.05, 0.00, 0.00, 0.00, 0.00, 0.00, 0.00, 0.00
37, -1220.05, 58245.83, 12450.75, 35149.66, -26311.98, -17903.46, 11617.21, -28159.31, -6482.05, 40024.73, 12598.38, -37200.05, 0.00, 0.00, 0.00, 0.00, 0.00, 0.00, 0.00
38, -1220.05, 58245.83, 12450.75, 35149.66, -26311.98, -17903.46, 11617.21, -28159.31, -6487.79, 40010.87, 12582.38, -37211.47, 0.00, 0.00, 0.00, 0.00, 0.00, 0.00, 0.00
39, -1213.52, 58245.74, 12454.70, 35155.45, -26307.35, -17893.13, 11621.45, -28151.26, -6487.79, 40010.87, 12582.38, -37211.47, 0.00, 0.00, 0.00, 0.00, 0.00, 0.00, 0.00
40, -1213.52, 58245.74, 12454.70, 35155.45, -26307.35, -17893.13, 11621.45, -28151.26, -6484.04, 40020.73, 12597.20, -37190.69, 0.00, 0.00, 0.00, 0.00, 0.00, 0.00, 0.00
41, -1215.76, 58243.19, 12452.92, 35151.87, -26305.30, -17892.86, 11613.50, -28161.41, -6484.04, 40020.73, 12597.20, -37190.69, 0.00, 0.00, 0.00, 0.00, 0.00, 0.00, 0.00
42, -1215.76, 58243.19, 12452.92, 35151.87, -26305.30, -17892.86, 11613.50, -28161.41, -6488.17, 40012.86, 12584.99, -37202.22, 0.00, 0.00, 0.00, 0.00, 0.00, 0.00, 0.00
43, -1221.66, 58242.34, 12450.57, 35154.09, -26306.42, -17887.21, 11617.88, -28154.50, -6488.17, 40012.86, 12584.99, -37202.22, 0.00, 0.00, 0.00, 0.00, -0.14, 0.41, 0.91
44, -1221.66, 58242.34, 12450.57, 35154.09, -26306.42, -17887.21, 11617.88, -28154.50, -6478.59, 40034.45, 12591.94, -37203.05, 0.00, 0.00, 0.00, 0.00, 0.00, 0.00, 0.00
45, -1222.75, 58233.36, 12444.38, 35150.00, -26308.56, -17883.16, 11615.04, -28158.64, -6478.59, 40034.45, 12591.94, -37203.05, 0.00, 0.00, 0.00, 0.00, 0.00, 0.00, 0.00
46, -1222.75, 58233.36, 12444.38, 35150.00, -26308.56, -17883.16, 11615.04, -28158.64, -6481.85, 40015.54, 12577.06, -37181.14, 0.00, 0.00, 0.00, 0.00, 0.00, 0.00, 0.00
47, -1221.50, 58239.68, 12447.69, 35148.54, -26306.77, -17882.09, 11615.04, -28157.01, -6481.85, 40015.54, 12577.06, -37181.14, 0.00, 0.00, 0.00, 0.00, 0.00, 0.00, 0.00
48, -1221.50, 58239.68, 12447.69, 35148.54, -26306.77, -17882.09, 11615.04, -28157.01, -6472.93, 40038.54, 12596.15, -37190.48, 0.00, 0.00, 0.00, 0.00, 0.00, 0.00, 0.00
49, -1206.99, 58249.07, 12454.91, 35158.76, -26297.29, -17868.88, 11619.51, -28154.12, -6472.93, 40038.54, 12596.15, -37190.48, 0.00, 0.00, 0.00, 0.00, 0.00, 0.00, 0.00
50, -1206.99, 58249.07, 12454.91, 35158.76, -26297.29, -17868.88, 11619.51, -28154.12, -6472.39, 40026.39, 12586.58, -37206.91, 0.00, 0.00, 0.00, 0.00, 0.00, 0.00, 0.00
51, -1218.86, 58241.47, 12448.42, 35145.55, -26302.04, -17871.22, 11615.35, -28152.76, -6472.39, 40026.39, 12586.58, -37206.91, 0.00, 0.00, 0.00, 0.00, 0.00, 0.00, 0.00
52, -1218.86, 58241.47, 12448.42, 35145.55, -26302.04, -17871.22, 11615.35, -28152.76, -6461.26, 40052.45, 12594.72, -37173.86, 0.00, 0.00, 0.00, 0.00, 0.00, 0.00, 0.00
53, -1208.96, 58257.52, 12461.25, 35157.41, -26290.70, -17859.85, 11623.67, -28147.39, -6461.26, 40052.45, 12594.72, -37173.86, 0.00, 0.00, 0.00, 0.00, -0.14, 0.42, 0.91
54, -1208.96, 58257.52, 12461.25, 35157.41, -26290.70, -17859.85, 11623.67, -28147.39, -6463.65, 40030.92, 12591.23, -37179.24, 0.00, 0.00, 0.00, 0.00, 0.00, 0.00, 0.00
55, -1218.39, 58243.41, 12446.01, 35143.40, -26303.98, -17866.55, 11610.97, -28154.93, -6463.65, 40030.92, 12591.23, -37179.24, 0.00, 0.00, 0.00, 0.00, 0.00, 0.00, 0.00
56, -1218.39, 58243.41, 12446.01, 35143.40, -26303.98, -17866.55, 11610.97, -28154.93, -6455.18, 40065.03, 12592.03, -37184.88, 0.00, 0.00, 0.00, 0.00, 0.00, 0.00, 0.00
57, -1205.63, 58250.57, 12455.55, 35155.07, -26291.64, -17852.25, 11621.72, -28144.49, -6455.18, 40065.03, 12592.03, -37184.88, 0.00, 0.00, 0.00, 0.00, 0.00, 0.00, 0.00
58, -1205.63, 58250.57, 12455.55, 35155.07, -26291.64, -17852.25, 11621.72, -28144.49, -6462.67, 40035.62, 12583.03, -37175.04, 0.00, 0.00, 0.00, 0.00, 0.00, 0.00, 0.00
59, -1219.58, 58237.11, 12444.65, 35143.58, -26300.47, -17855.49, 11610.70, -28155.80, -6462.67, 40035.62, 12583.03, -37175.04, 0.00, 0.00, 0.00, 0.00, 0.00, 0.00, 0.00
60, -1219.58, 58237.11, 12444.65, 35143.58, -26300.47, -17855.49, 11610.70, -28155.80, -6450.96, 40063.29, 12584.97, -37164.09, 0.00, 0.00, 0.00, 0.00, 0.00, 0.00, 0.00
61, -1208.96, 58245.76, 12452.87, 35157.26, -26289.63, -17838.97, 11623.85, -28140.42, -6450.96, 40063.29, 12584.97, -37164.09, 0.00, 0.00, 0.00, 0.00, 0.00, 0.00, 0.00
62, -1208.96, 58245.76, 12452.87, 35157.26, -26289.63, -17838.97, 11623.85, -28140.42, -6454.71, 40052.85, 12577.93, -37178.41, 0.00, 0.00, 0.00, 0.00, 0.00, 0.00, 0.00
63, -1219.53, 58228.39, 12438.72, 35142.26, -26301.54, -17848.36, 11607.91, -28153.29, -6454.71, 40052.85, 12577.93, -37178.41, 0.00, 0.00, 0.00, 0.00, -0.14, 0.41, 0.91
64, -1219.53, 58228.39, 12438.72, 35142.26, -26301.54, -17848.36, 11607.91, -28153.29, -6446.73, 40074.04, 12579.94, -37155.57, 0.00, 0.00, 0.00, 0.00, 0.00, 0.00, 0.00
65, -1220.49, 58241.87, 12449.52, 35149.52, -26293.96, -17838.75, 11616.80, -28147.26, -6446.73, 40074.04, 12579.94, -37155.57, 0.00, 0.00, 0.00, 0.00, 0.00, 0.00, 0.00
66, -1220.49, 58241.87, 12449.52, 35149.52, -26293.96, -17838.75, 11616.80, -28147.26, -6459.94, 40049.21, 12569.39, -37178.10, 0.00, 0.00, 0.00, 0.00, 0.00, 0.00, 0.00
67, -1233.79, 58217.75, 12427.28, 35131.24, -26313.52, -17849.72, 11593.38, -28169.41, -6459.94, 40049.21, 12569.39, -37178.10, 0.00, 0.00, 0.00, 0.00, 0.00, 0.00, 0.00
68, -1233.79, 58217.75, 12427.28, 35131.24, -26313.52, -17849.72, 11593.38, -28169.41, -6455.41, 40056.14, 12570.80, -37184.25, 0.00, 0.00, 0.00, 0.00, 0.00, 0.00, 0.00
69, -1221.14, 58232.82, 12442.75, 35147.51, -26293.88, -17829.36, 11614.44, -28148.71, -6455.41, 40056.14, 12570.80, -37184.25, 0.00, 0.00, 0.00, 0.00, 0.00, 0.00, 0.00
70, -1221.14, 58232.82, 12442.75, 35147.51, -26293.88, -17829.36, 11614.44, -28148.71, -6454.78, 40064.43, 12570.26, -37161.65, 0.00, 0.00, 0.00, 0.00, 0.00, 0.00, 0.00
71, -1235.09, 58216.66, 12428.29, 35132.29, -26312.54, -17838.14, 11597.25, -28164.90, -6454.78, 40064.43, 12570.26, -37161.65, 0.00, 0.00, 0.00, 0.00, 0.00, 0.00, 0.00
72, -1235.09, 58216.66, 12428.29, 35132.29, -26312.54, -17838.14, 11597.25, -28164.90, -6446.89, 40072.21, 12572.81, -37150.34, 0.00, 0.00, 0.00, 0.00, -0.14, 0.42, 0.91
73, -1226.75, 58238.59, 12446.48, 35146.89, -26281.07, -17818.63, 11620.76, -28135.53, -6446.89, 40072.21, 12572.81, -37150.34, 0.00, 0.00, 0.00, 0.00, 0.00, 0.00, 0.00
74, -1226.75, 58238.59, 12446.48, 35146.89, -26281.07, -17818.63, 11620.76, -28135.53, -6440.99, 40078.58, 12583.67, -37161.29, 0.00, 0.00, 0.00, 0.00, 0.00, 0.00, 0.00
75, -1232.81, 58230.63, 12435.86, 35132.71, -26297.12, -17829.81, 11601.20, -28158.35, -6440.99, 40078.58, 12583.67, -37161.29, 0.00, 0.00, 0.00, 0.00, 0.00, 0.00, 0.00
76, -1232.81, 58230.63, 12435.86, 35132.71, -26297.12, -17829.81, 11601.20, -28158.35, -6439.20, 40070.84, 12582.15, -37157.02, 0.00, 0.00, 0.00, 0.00, 0.00, 0.00, 0.00
77, -1217.57, 58252.09, 12454.53, 35147.45, -26279.62, -17809.98, 11620.94, -28135.37, -6439.20, 40070.84, 12582.15, -37157.02, 0.00, 0.00, 0.00, 0.00, 0.00, 0.00, 0.00
78, -1217.57, 58252.09, 12454.53, 35147.45, -26279.62, -17809.98, 11620.94, -28135.37, -6428.16, 40095.63, 12588.75, -37144.60, 0.00, 0.00, 0.00, 0.00, 0.00, 0.00, 0.00
79, -1232.48, 58231.28, 12438.08, 35134.17, -26293.23, -17816.02, 11604.09, -28149.50, -6428.16, 40095.63, 12588.75, -37144.60, 0.00, 0.00, 0.00, 0.00, 0.00, 0.00, 0.00
80, -1232.48, 58231.28, 12438.08, 35134.17, -26293.23, -17816.02, 11604.09, -28149.50, -6437.17, 40077.28, 12569.03, -37157.36, 0.00, 0.00, 0.00, 0.00, 0.00, 0.00, 0.00
81, -1232.36, 58232.30, 12439.68, 35136.09, -26283.01, -17806.92, 11612.74, -28139.73, -6437.17, 40077.28, 12569.03, -37157.36, 0.00, 0.00, 0.00, 0.00, 0.00, 0.00, 0.00
82, -1232.36, 58232.30, 12439.68, 35136.09, -26283.01, -17806.92, 11612.74, -28139.73, -6428.70, 40092.86, 12576.75, -37155.08, 0.00, 0.00, 0.00, 0.00, -0.14, 0.42, 0.91
83, -1233.08, 58223.92, 12432.64, 35129.92, -26293.12, -17811.63, 11600.58, -28151.44, -6428.70, 40092.86, 12576.75, -37155.08, 0.00, 0.00, 0.00, 0.00, 0.00, 0.00, 0.00
84, -1233.08, 58223.92, 12432.64, 35129.92, -26293.12, -17811.63, 11600.58, -28151.44, -6435.04, 40079.11, 12558.73, -37144.80, 0.00, 0.00, 0.00, 0.00, 0.00, 0.00, 0.00
85, -1230.80, 58228.08, 12434.10, 35135.31, -26288.82, -17799.88, 11608.31, -28141.20, -6435.04, 40079.11, 12558.73, -37144.80, 0.00, 0.00, 0.00, 0.00, 0.00, 0.00, 0.00
86, -1230.80, 58228.08, 12434.10, 35135.31, -26288.82, -17799.88, 11608.31, -28141.20, -6431.78, 40093.86, 12570.24, -37137.82, 0.00, 0.00, 0.00, 0.00, 0.00, 0.00, 0.00
87, -1232.16, 58229.22, 12432.58, 35129.66, -26301.50, -17802.61, 11596.24, -28156.09, -6431.78, 40093.86, 12570.24, -37137.82, 0.00, 0.00, 0.00, 0.00, 0.00, 0.00, 0.00
88, -1232.16, 58229.22, 12432.58, 35129.66, -26301.50, -17802.61, 11596.24, -28156.09, -6436.05, 40081.97, 12557.46, -37165.36, 0.00, 0.00, 0.00, 0.00, 0.00, 0.00, 0.00
89, -1228.21, 58224.82, 12434.23, 35134.06, -26287.21, -17792.79, 11605.72, -28140.91, -6436.05, 40081.97, 12557.46, -37165.36, 0.00, 0.00, 0.00, 0.00, 0.00, 0.00, 0.00
90, -1228.21, 58224.82, 12434.23, 35134.06, -26287.21, -17792.79, 11605.72, -28140.91, -6421.81, 40114.43, 12563.92, -37131.81, 0.00, 0.00, 0.00, 0.00, 0.00, 0.00, 0.00
91, -1226.98, 58224.35, 12432.42, 35130.57, -26289.70, -17790.42, 11601.40, -28146.77, -6421.81, 40114.43, 12563.92, -37131.81, 0.00, 0.00, 0.00, 0.00, 0.00, 0.00, 0.00
92, -1226.98, 58224.35, 12432.42, 35130.57, -26289.70, -17790.42, 11601.40, -28146.77, -6425.34, 40088.55, 12561.14, -37140.44, 0.00, 0.00, 0.00, 0.00, -0.14, 0.42, 0.91
93, -1225.95, 58227.66, 12433.54, 35133.86, -26287.95, -17783.38, 11602.21, -28142.19, -6425.34, 40088.55, 12561.14, -37140.44, 0.00, 0.00, 0.00, 0.00, 0.00, 0.00, 0.00
94, -1225.95, 58227.66, 12433.54, 35133.86, -26287.95, -17783.38, 11602.21, -28142.19, -6416.38, 40112.68, 12567.20, -37131.88, 0.00, 0.00, 0.00, 0.00, 0.00, 0.00, 0.00
95, -1226.35, 58224.62, 12430.34, 35130.82, -26295.31, -17779.76, 11600.26, -28146.43, -6416.38, 40112.68, 12567.20, -37131.88, 0.00, 0.00, 0.00, 0.00, 0.00, 0.00, 0.00
96, -1226.35, 58224.62, 12430.34, 35130.82, -26295.31, -17779.76, 11600.26, -28146.43, -6421.21, 40096.79, 12549.86, -37150.81, 0.00, 0.00, 0.00, 0.00, 0.00, 0.00, 0.00
97, -1226.86, 58227.70, 12430.92, 35129.81, -26286.79, -17776.65, 11601.47, -28141.18, -6421.21, 40096.79, 12549.86, -37150.81, 0.00, 0.00, 0.00, 0.00, 0.00, 0.00, 0.00
98, -1226.86, 58227.70, 12430.92, 35129.81, -26286.79, -17776.65, 11601.47, -28141.18, -6410.61, 40123.86, 12564.05, -37113.57, 0.00, 0.00, 0.00, 0.00, 0.00, 0.00, 0.00
99, -1226.37, 58226.40, 12431.66, 35132.11, -26286.81, -17768.99, 11602.41, -28139.79, -6410.61, 40123.86, 12564.05, -37113.57, 0.00, 0.00, 0.00, 0.00, 0.00, 0.00, 0.00
100, -1226.37, 58226.40, 12431.66, 35132.11, -26286.81, -17768.99, 11602.41, -28139.79, -6420.83, 40104.66, 12549.97, -37128.46, 0.00, 0.00, 0.00, 0.00, 0.00, 0.00, 0.00
101, -1224.65, 58224.53, 12425.54, 35124.69, -26294.75, -17772.61, 11593.33, -28149.88, -6420.83, 40104.66, 12549.97, -37128.46, 0.00, 0.00, 0.00, 0.00, 0.00, 0.00, 0.00
102, -1224.65, 58224.53, 12425.54, 35124.69, -26294.75, -17772.61, 11593.33, -28149.88, -6408.47, 40117.89, 12566.35, -37134.76, 0.00, 0.00, 0.00, 0.00, -0.14, 0.41, 0.90
103, -1215.87, 58237.54, 12439.46, 35134.84, -26280.76, -17759.04, 11605.32, -28134.52, -6408.47, 40117.89, 12566.35, -37134.76, 0.00, 0.00, 0.00, 0.00, 0.00, 0.00, 0.00
104, -1215.87, 58237.54, 12439.46, 35134.84, -26280.76, -17759.04, 11605.32, -28134.52, -6406.17, 40120.06, 12561.17, -37113.48, 0.00, 0.00, 0.00, 0.00, 0.00, 0.00, 0.00
105, -1225.61, 58227.79, 12430.27, 35126.04, -26288.71, -17760.27, 11598.68, -28137.80, -6406.17, 40120.06, 12561.17, -37113.48, 0.00, 0.00, 0.00, 0.00, 0.00, 0.00, 0.00
106, -1225.61, 58227.79, 12430.27, 35126.04, -26288.71, -17760.27, 11598.68, -28137.80, -6399.64, 40143.57, 12558.86, -37112.10, 0.00, 0.00, 0.00, 0.00, 0.00, 0.00, 0.00
107, -1227.49, 58229.13, 12432.64, 35128.18, -26282.05, -17752.49, 11600.96, -28134.01, -6399.64, 40143.57, 12558.86, -37112.10, 0.00, 0.00, 0.00, 0.00, 0.00, 0.00, 0.00
108, -1227.49, 58229.13, 12432.64, 35128.18, -26282.05, -17752.49, 11600.96, -28134.01, -6409.36, 40113.56, 12546.79, -37134.23, 0.00, 0.00, 0.00, 0.00, 0.00, 0.00, 0.00
109, -1239.61, 58214.80, 12415.54, 35113.00, -26300.02, -17761.48, 11582.96, -28151.02, -6409.36, 40113.56, 12546.79, -37134.23, 0.00, 0.00, 0.00, 0.00, 0.00, 0.00, 0.00
110, -1239.61, 58214.80, 12415.54, 35113.00, -26300.02, -17761.48, 11582.96, -28151.02, -6404.74, 40125.05, 12551.91, -37113.62, 0.00, 0.00, 0.00, 0.00, 0.00, 0.00, 0.00
111, -1226.44, 58226.27, 12428.42, 35129.61, -26284.47, -17743.62, 11598.34, -28136.67, -6404.74, 40125.05, 12551.91, -37113.62, 0.00, 0.00, 0.00, 0.00, -0.14, 0.42, 0.90
112, -1226.44, 58226.27, 12428.42, 35129.61, -26284.47, -17743.62, 11598.34, -28136.67, -6409.50, 40120.53, 12541.14, -37121.75, 0.00, 0.00, 0.00, 0.00, 0.00, 0.00, 0.00
113, -1242.20, 58206.38, 12412.84, 35114.14, -26300.58, -17751.82, 11581.38, -28152.69, -6409.50, 40120.53, 12541.14, -37121.75, 0.00, 0.00, 0.00, 0.00, 0.00, 0.00, 0.00
114, -1242.20, 58206.38, 12412.84, 35114.14, -26300.58, -17751.82, 11581.38, -28152.69, -6400.80, 40132.62, 12547.51, -37125.96, 0.00, 0.00, 0.00, 0.00, 0.00, 0.00, 0.00
115, -1222.39, 58227.97, 12430.97, 35131.35, -26278.77, -17732.96, 11601.52, -28129.33, -6400.80, 40132.62, 12547.51, -37125.96, 0.00, 0.00, 0.00, 0.00, 0.00, 0.00, 0.00
116, -1222.39, 58227.97, 12430.97, 35131.35, -26278.77, -17732.96, 11601.52, -28129.33, -6400.94, 40134.30, 12544.98, -37103.87, 0.00, 0.00, 0.00, 0.00, 0.00, 0.00, 0.00
117, -1241.17, 58206.27, 12408.93, 35107.46, -26301.54, -17748.87, 11575.48, -28155.82, -6400.94, 40134.30, 12544.98, -37103.87, 0.00, 0.00, 0.00, 0.00, 0.00, 0.00, 0.00
118, -1241.17, 58206.27, 12408.93, 35107.46, -26301.54, -17748.87, 11575.48, -28155.82, -6396.42, 40134.84, 12545.94, -37114.55, 0.00, 0.00, 0.00, 0.00, 0.00, 0.00, 0.00
119, -1227.09, 58232.80, 12432.91, 35130.46, -26277.25, -17724.46, 11603.59, -28126.47, -6396.42, 40134.84, 12545.94, -37114.55, 0.00, 0.00, 0.00, 0.00, 0.00, 0.00, 0.00
120, -1227.09, 58232.80, 12432.91, 35130.46, -26277.25, -17724.46, 11603.59, -28126.47, -6388.62, 40146.05, 12557.37, -37113.35, 0.00, 0.00, 0.00, 0.00, 0.00, 0.00, 0.00
121, -1233.06, 58216.82, 12418.03, 35115.02, -26287.35, -17734.61, 11583.03, -28145.61, -6388.62, 40146.05, 12557.37, -37113.35, 0.00, 0.00, 0.00, 0.00, -0.14, 0.42, 0.90
122, -1233.06, 58216.82, 12418.03, 35115.02, -26287.35, -17734.61, 11583.03, -28145.61, -6390.77, 40143.13, 12550.08, -37110.18, 0.00, 0.00, 0.00, 0.00, 0.00, 0.00, 0.00
123, -1213.48, 58241.80, 12438.81, 35132.52, -26270.09, -17713.62, 11604.24, -28124.35, -6390.77, 40143.13, 12550.08, -37110.18, 0.00, 0.00, 0.00, 0.00, 0.00, 0.00, 0.00
124, -1213.48, 58241.80, 12438.81, 35132.52, -26270.09, -17713.62, 11604.24, -28124.35, -6380.51, 40152.98, 12561.17, -37094.44, 0.00, 0.00, 0.00, 0.00, 0.00, 0.00, 0.00
125, -1228.83, 58224.62, 12425.54, 35117.27, -26281.58, -17723.05, 11588.17, -28141.16, -6380.51, 40152.98, 12561.17, -37094.44, 0.00, 0.00, 0.00, 0.00, 0.00, 0.00, 0.00
126, -1228.83, 58224.62, 12425.54, 35117.27, -26281.58, -17723.05, 11588.17, -28141.16, -6376.75, 40150.35, 12553.28, -37102.51, 0.00, 0.00, 0.00, 0.00, 0.00, 0.00, 0.00
127, -1214.73, 58244.42, 12440.60, 35128.34, -26266.09, -17708.30, 11603.48, -28120.51, -6376.75, 40150.35, 12553.28, -37102.51, 0.00, 0.00, 0.00, 0.00, 0.00, 0.00, 0.00
128, -1214.73, 58244.42, 12440.60, 35128.34, -26266.09, -17708.30, 11603.48, -28120.51, -6373.20, 40165.37, 12567.83, -37093.86, 0.00, 0.00, 0.00, 0.00, 0.00, 0.00, 0.00
129, -1227.00, 58227.43, 12423.81, 35111.97, -26279.26, -17717.74, 11583.77, -28141.29, -6373.20, 40165.37, 12567.83, -37093.86, 0.00, 0.00, 0.00, 0.00, 0.00, 0.00, 0.00
130, -1227.00, 58227.43, 12423.81, 35111.97, -26279.26, -17717.74, 11583.77, -28141.29, -6383.48, 40144.60, 12554.01, -37103.18, 0.00, 0.00, 0.00, 0.00, 0.00, 0.00, 0.00
131, -1213.12, 58244.87, 12441.79, 35128.49, -26269.00, -17700.86, 11600.13, -28126.00, -6383.48, 40144.60, 12554.01, -37103.18, 0.00, 0.00, 0.00, 0.00, -0.14, 0.42, 0.90
132, -1213.12, 58244.87, 12441.79, 35128.49, -26269.00, -17700.86, 11600.13, -28126.00, -6367.99, 40170.69, 12567.69, -37107.07, 0.00, 0.00, 0.00, 0.00, 0.00, 0.00, 0.00
133, -1226.80, 58229.71, 12425.27, 35112.06, -26278.43, -17708.64, 11585.56, -28136.76, -6367.99, 40170.69, 12567.69, -37107.07, 0.00, 0.00, 0.00, 0.00, 0.00, 0.00, 0.00
134, -1226.80, 58229.71, 12425.27, 35112.06, -26278.43, -17708.64, 11585.56, -28136.76, -6375.68, 40152.76, 12552.99, -37096.54, 0.00, 0.00, 0.00, 0.00, 0.00, 0.00, 0.00
135, -1219.73, 58236.37, 12432.11, 35120.38, -26272.75, -17698.02, 11594.50, -28125.42, -6375.68, 40152.76, 12552.99, -37096.54, 0.00, 0.00, 0.00, 0.00, 0.00, 0.00, 0.00
136, -1219.73, 58236.37, 12432.11, 35120.38, -26272.75, -17698.02, 11594.50, -28125.42, -6366.60, 40173.01, 12565.19, -37093.28, 0.00, 0.00, 0.00, 0.00, 0.00, 0.00, 0.00
137, -1219.02, 58235.10, 12435.97, 35132.29, -26268.35, -17690.09, 11590.34, -28134.34, -6366.60, 40173.01, 12565.19, -37093.28, 0.00, 0.00, 0.00, 0.00, 0.00, 0.00, 0.00
138, -1219.02, 58235.10, 12435.97, 35132.29, -26268.35, -17690.09, 11590.34, -28134.34, -6377.56, 40155.20, 12579.74, -37086.93, 0.00, 0.00, 0.00, 0.00, 0.00, 0.00, 0.00
139, -1218.37, 58245.52, 12448.09, 35131.98, -26263.23, -17687.40, 11593.11, -28131.66, -6377.56, 40155.20, 12579.74, -37086.93, 0.00, 0.00, 0.00, 0.00, 0.00, 0.00, 0.00
140, -1218.37, 58245.52, 12448.09, 35131.98, -26263.23, -17687.40, 11593.11, -28131.66, -6362.45, 40171.58, 12571.34, -37092.85, 0.00, 0.00, 0.00, 0.00, 0.00, 0.00, 0.00
141, -1239.14, 58221.53, 12414.07, 35093.69, -26281.16, -17698.85, 11582.12, -28134.95, -6362.45, 40171.58, 12571.34, -37092.85, 0.00, 0.00, 0.00, 0.00, -0.14, 0.42, 0.91
142, -1239.14, 58221.53, 12414.07, 35093.69, -26281.16, -17698.85, 11582.12, -28134.95, -6363.32, 40166.66, 12552.87, -37100.72, 0.00, 0.00, 0.00, 0.00, 0.00, 0.00, 0.00
143, -1242.27, 58220.77, 12415.63, 35091.32, -26278.25, -17691.34, 11586.94, -28125.54, -6363.32, 40166.66, 12552.87, -37100.72, 0.00, 0.00, 0.00, 0.00, 0.00, 0.00, 0.00
144, -1242.27, 58220.77, 12415.63, 35091.32, -26278.25, -17691.34, 11586.94, -28125.54, -6344.14, 40194.76, 12574.87, -37086.55, 0.00, 0.00, 0.00, 0.00, 0.00, 0.00, 0.00
145, -1244.95, 58227.54, 12415.92, 35083.48, -26272.35, -17686.38, 11588.06, -28122.52, -6344.14, 40194.76, 12574.87, -37086.55, 0.00, 0.00, 0.00, 0.00, 0.00, 0.00, 0.00
146, -1244.95, 58227.54, 12415.92, 35083.48, -26272.35, -17686.38, 11588.06, -28122.52, -6350.22, 40165.35, 12557.25, -37087.00, 0.00, 0.00, 0.00, 0.00, 0.00, 0.00, 0.00
147, -1248.32, 58215.43, 12404.14, 35073.11, -26284.18, -17693.77, 11578.54, -28132.89, -6350.22, 40165.35, 12557.25, -37087.00, 0.00, 0.00, 0.00, 0.00, 0.00, 0.00, 0.00
148, -1248.32, 58215.43, 12404.14, 35073.11, -26284.18, -17693.77, 11578.54, -28132.89, -6348.59, 40182.87, 12577.91, -37087.06, 0.00, 0.00, 0.00, 0.00, 0.00, 0.00, 0.00
149, -1234.15, 58229.36, 12416.68, 35086.80, -26274.16, -17678.96, 11585.53, -28122.45, -6348.59, 40182.87, 12577.91, -37087.06, 0.00, 0.00, 0.00, 0.00, 0.00, 0.00, 0.00
150, -1234.15, 58229.36, 12416.68, 35086.80, -26274.16, -17678.96, 11585.53, -28122.45, -6343.63, 40188.12, 12579.02, -37090.17, 0.00, 0.00, 0.00, 0.00, -0.14, 0.41, 0.91
151, -1245.64, 58223.30, 12413.09, 35087.14, -26280.13, -17676.74, 11580.55, -28126.21, -6343.63, 40188.12, 12579.02, -37090.17, 0.00, 0.00, 0.00, 0.00, 0.00, 0.00, 0.00
152, -1245.64, 58223.30, 12413.09, 35087.14, -26280.13, -17676.74, 11580.55, -28126.21, -6336.63, 40197.67, 12585.31, -37075.78, 0.00, 0.00, 0.00, 0.00, 0.00, 0.00, 0.00
153, -1234.55, 58228.57, 12420.37, 35094.03, -26270.85, -17667.04, 11588.73, -28119.07, -6336.63, 40197.67, 12585.31, -37075.78, 0.00, 0.00, 0.00, 0.00, 0.00, 0.00, 0.00
154, -1234.55, 58228.57, 12420.37, 35094.03, -26270.85, -17667.04, 11588.73, -28119.07, -6346.87, 40176.07, 12571.89, -37091.33, 0.00, 0.00, 0.00, 0.00, 0.00, 0.00, 0.00
155, -1247.38, 58216.30, 12406.02, 35082.78, -26279.26, -17672.25, 11576.71, -28127.95, -6346.87, 40176.07, 12571.89, -37091.33, 0.00, 0.00, 0.00, 0.00, 0.00, 0.00, 0.00
156, -1247.38, 58216.30, 12406.02, 35082.78, -26279.26, -17672.25, 11576.71, -28127.95, -6331.40, 40199.90, 12581.42, -37076.43, 0.00, 0.00, 0.00, 0.00, 0.00, 0.00, 0.00
157, -1241.53, 58228.50, 12418.85, 35096.95, -26266.99, -17657.19, 11590.68, -28113.31, -6331.40, 40199.90, 12581.42, -37076.43, 0.00, 0.00, 0.00, 0.00, 0.00, 0.00, 0.00
158, -1241.53, 58228.50, 12418.85, 35096.95, -26266.99, -17657.19, 11590.68, -28113.31, -6334.89, 40187.65, 12571.36, -37090.19, 0.00, 0.00, 0.00, 0.00, 0.00, 0.00, 0.00
159, -1252.64, 58208.88, 12401.17, 35077.06, -26281.92, -17669.23, 11573.13, -28131.01, -6334.89, 40187.65, 12571.36, -37090.19, 0.00, 0.00, 0.00, 0.00, 0.00, 0.00, 0.00
160, -1252.64, 58208.88, 12401.17, 35077.06, -26281.92, -17669.23, 11573.13, -28131.01, -6328.92, 40201.78, 12576.03, -37071.20, 0.00, 0.00, 0.00, 0.00, -0.13, 0.41, 0.91
161, -1243.49, 58223.57, 12416.50, 35093.58, -26268.06, -17650.50, 11589.49, -28112.08, -6328.92, 40201.78, 12576.03, -37071.20, 0.00, 0.00, 0.00, 0.00, 0.00, 0.00, 0.00
162, -1243.49, 58223.57, 12416.50, 35093.58, -26268.06, -17650.50, 11589.49, -28112.08, -6328.54, 40196.77, 12572.86, -37083.64, 0.00, 0.00, 0.00, 0.00, 0.00, 0.00, 0.00
163, -1262.09, 58203.38, 12395.85, 35076.01, -26281.58, -17659.38, 11569.24, -28130.21, -6328.54, 40196.77, 12572.86, -37083.64, 0.00, 0.00, 0.00, 0.00, 0.00, 0.00, 0.00
164, -1262.09, 58203.38, 12395.85, 35076.01, -26281.58, -17659.38, 11569.24, -28130.21, -6323.71, 40200.55, 12571.74, -37072.82, 0.00, 0.00, 0.00, 0.00, 0.00, 0.00, 0.00
165, -1238.73, 58228.68, 12417.71, 35094.79, -26260.93, -17641.56, 11591.23, -28110.45, -6323.71, 40200.55, 12571.74, -37072.82, 0.00, 0.00, 0.00, 0.00, 0.00, 0.00, 0.00
166, -1238.73, 58228.68, 12417.71, 35094.79, -26260.93, -17641.56, 11591.23, -28110.45, -6319.06, 40205.00, 12579.29, -37072.18, 0.00, 0.00, 0.00, 0.00, 0.00, 0.00, 0.00
167, -1244.59, 58217.04, 12403.47, 35079.25, -26279.21, -17650.97, 11572.48, -28128.33, -6319.06, 40205.00, 12579.29, -37072.18, 0.00, 0.00, 0.00, 0.00, 0.00, 0.00, 0.00
168, -1244.59, 58217.04, 12403.47, 35079.25, -26279.21, -17650.97, 11572.48, -28128.33, -6323.71, 40204.21, 12570.55, -37079.00, 0.00, 0.00, 0.00, 0.00, 0.00, 0.00, 0.00
169, -1228.21, 58237.63, 12422.52, 35099.12, -26259.95, -17630.12, 11592.91, -28106.49, -6323.71, 40204.21, 12570.55, -37079.00, 0.00, 0.00, 0.00, 0.00, 0.00, 0.00, 0.00
170, -1228.21, 58237.63, 12422.52, 35099.12, -26259.95, -17630.12, 11592.91, -28106.49, -6308.78, 40217.00, 12584.08, -37074.37, 0.00, 0.00, 0.00, 0.00, -0.13, 0.41, 0.90
171, -1238.98, 58230.00, 12412.66, 35082.11, -26272.91, -17638.86, 11576.59, -28120.66, -6308.78, 40217.00, 12584.08, -37074.37, 0.00, 0.00, 0.00, 0.00, 0.00, 0.00, 0.00
172, -1238.98, 58230.00, 12412.66, 35082.11, -26272.91, -17638.86, 11576.59, -28120.66, -6316.18, 40209.36, 12571.27, -37075.87, 0.00, 0.00, 0.00, 0.00, 0.00, 0.00, 0.00
173, -1219.56, 58248.04, 12429.40, 35099.50, -26260.62, -17622.90, 11591.77, -28107.99, -6316.18, 40209.36, 12571.27, -37075.87, 0.00, 0.00, 0.00, 0.00, 0.00, 0.00, 0.00
174, -1219.56, 58248.04, 12429.40, 35099.50, -26260.62, -17622.90, 11591.77, -28107.99, -6311.57, 40213.60, 12583.52, -37062.59, 0.00, 0.00, 0.00, 0.00, 0.00, 0.00, 0.00
175, -1229.37, 58239.79, 12420.33, 35084.46, -26267.01, -17632.02, 11573.96, -28123.86, -6311.57, 40213.60, 12583.52, -37062.59, 0.00, 0.00, 0.00, 0.00, 0.00, 0.00, 0.00
176, -1229.37, 58239.79, 12420.33, 35084.46, -26267.01, -17632.02, 11573.96, -28123.86, -6311.10, 40211.30, 12575.99, -37080.96, 0.00, 0.00, 0.00, 0.00, 0.00, 0.00, 0.00
177, -1218.59, 58245.83, 12429.31, 35097.29, -26258.18, -17615.39, 11591.06, -28106.33, -6311.10, 40211.30, 12575.99, -37080.96, 0.00, 0.00, 0.00, 0.00, 0.00, 0.00, 0.00
178, -1218.59, 58245.83, 12429.31, 35097.29, -26258.18, -17615.39, 11591.06, -28106.33, -6304.31, 40232.16, 12583.05, -37069.79, 0.00, 0.00, 0.00, 0.00, 0.00, 0.00, 0.00
179, -1228.45, 58234.27, 12417.49, 35086.09, -26268.95, -17622.09, 11577.15, -28120.97, -6304.31, 40232.16, 12583.05, -37069.79, 0.00, 0.00, 0.00, 0.00, 0.00, 0.00, 0.00
180, -1228.45, 58234.27, 12417.49, 35086.09, -26268.95, -17622.09, 11577.15, -28120.97, -6310.25, 40207.81, 12567.20, -37065.50, 0.00, 0.00, 0.00, 0.00, -0.14, 0.41, 0.90
181, -1222.82, 58237.63, 12420.71, 35092.53, -26263.81, -17612.41, 11585.56, -28111.01, -6310.25, 40207.81, 12567.20, -37065.50, 0.00, 0.00, 0.00, 0.00, 0.00, 0.00, 0.00
182, -1222.82, 58237.63, 12420.71, 35092.53, -26263.81, -17612.41, 11585.56, -28111.01, -6300.11, 40233.88, 12578.82, -37064.36, 0.00, 0.00, 0.00, 0.00, 0.00, 0.00, 0.00
183, -1231.92, 58220.70, 12408.46, 35081.80, -26268.69, -17615.30, 11572.86, -28118.52, -6300.11, 40233.88, 12578.82, -37064.36, 0.00, 0.00, 0.00, 0.00, 0.00, 0.00, 0.00
184, -1231.92, 58220.70, 12408.46, 35081.80, -26268.69, -17615.30, 11572.86, -28118.52, -6311.46, 40214.09, 12561.75, -37081.95, 0.00, 0.00, 0.00, 0.00, 0.00, 0.00, 0.00
185, -1233.82, 58224.93, 12410.69, 35085.87, -26270.03, -17607.99, 11578.49, -28114.96, -6311.46, 40214.09, 12561.75, -37081.95, 0.00, 0.00, 0.00, 0.00, 0.00, 0.00, 0.00
186, -1233.82, 58224.93, 12410.69, 35085.87, -26270.03, -17607.99, 11578.49, -28114.96, -6301.14, 40232.09, 12575.69, -37056.17, 0.00, 0.00, 0.00, 0.00, 0.00, 0.00, 0.00
187, -1235.16, 58224.23, 12408.01, 35082.71, -26269.13, -17605.40, 11574.00, -28117.42, -6301.14, 40232.09, 12575.69, -37056.17, 0.00, 0.00, 0.00, 0.00, 0.00, 0.00, 0.00
188, -1235.16, 58224.23, 12408.01, 35082.71, -26269.13, -17605.40, 11574.00, -28117.42, -6304.35, 40214.95, 12560.74, -37070.39, 0.00, 0.00, 0.00, 0.00, 0.00, 0.00, 0.00
189, -1240.37, 58223.50, 12406.63, 35079.74, -26267.72, -17603.09, 11575.45, -28113.51, -6304.35, 40214.95, 12560.74, -37070.39, 0.00, 0.00, 0.00, 0.00, -0.14, 0.41, 0.90
190, -1240.37, 58223.50, 12406.63, 35079.74, -26267.72, -17603.09, 11575.45, -28113.51, -6285.96, 40244.11, 12576.63, -37063.97, 0.00, 0.00, 0.00, 0.00, 0.00, 0.00, 0.00
191, -1236.01, 58226.05, 12409.98, 35082.52, -26267.30, -17593.82, 11578.11, -28111.56, -6285.96, 40244.11, 12576.63, -37063.97, 0.00, 0.00, 0.00, 0.00, 0.00, 0.00, 0.00
192, -1236.01, 58226.05, 12409.98, 35082.52, -26267.30, -17593.82, 11578.11, -28111.56, -6295.70, 40223.50, 12562.62, -37061.36, 0.00, 0.00, 0.00, 0.00, 0.00, 0.00, 0.00
193, -1241.53, 58223.03, 12403.70, 35077.91, -26274.65, -17595.40, 11570.69, -28118.76, -6295.70, 40223.50, 12562.62, -37061.36, 0.00, 0.00, 0.00, 0.00, 0.00, 0.00, 0.00
194, -1241.53, 58223.03, 12403.70, 35077.91, -26274.65, -17595.40, 11570.69, -28118.76, -6290.25, 40237.81, 12570.02, -37061.47, 0.00, 0.00, 0.00, 0.00, 0.00, 0.00, 0.00
195, -1234.91, 58227.14, 12406.71, 35077.44, -26266.79, -17591.87, 11571.92, -28117.35, -6290.25, 40237.81, 12570.02, -37061.47, 0.00, 0.00, 0.00, 0.00, 0.00, 0.00, 0.00
196, -1234.91, 58227.14, 12406.71, 35077.44, -26266.79, -17591.87, 11571.92, -28117.35, -6292.89, 40225.25, 12559.04, -37072.09, 0.00, 0.00, 0.00, 0.00, 0.00, 0.00, 0.00
197, -1238.47, 58224.48, 12405.35, 35076.17, -26269.96, -17588.63, 11569.98, -28117.35, -6292.89, 40225.25, 12559.04, -37072.09, 0.00, 0.00, 0.00, 0.00, 0.00, 0.00, 0.00
198, -1238.47, 58224.48, 12405.35, 35076.17, -26269.96, -17588.63, 11569.98, -28117.35, -6283.46, 40246.86, 12569.48, -37066.07, 0.00, 0.00, 0.00, 0.00, 0.00, 0.00, 0.00
199, -1235.54, 58230.56, 12411.43, 35080.86, -26264.17, -17581.79, 11574.11, -28113.80, -6283.46, 40246.86, 12569.48, -37066.07, 0.00, 0.00, 0.00, 0.00, -0.14, 0.41, 0.90
200, -1235.54, 58230.56, 12411.43, 35080.86, -26264.17, -17581.79, 11574.11, -28113.80, -6292.13, 40222.28, 12556.03, -37071.86, 0.00, 0.00, 0.00, 0.00, 0.00, 0.00, 0.00
201, -1242.98, 58211.90, 12396.79, 35068.99, -26276.78, -17585.37, 11562.45, -28124.80, -6292.13, 40222.28, 12556.03, -37071.86, 0.00, 0.00, 0.00, 0.00, 0.00, 0.00, 0.00
202, -1242.98, 58211.90, 12396.79, 35068.99, -26276.78, -17585.37, 11562.45, -28124.80, -6279.83, 40244.85, 12568.39, -37054.14, 0.00, 0.00, 0.00, 0.00, 0.00, 0.00, 0.00
203, -1226.91, 58232.44, 12414.16, 35083.52, -26260.46, -17569.86, 11578.85, -28106.98, -6279.83, 40244.85, 12568.39, -37054.14, 0.00, 0.00, 0.00, 0.00, 0.00, 0.00, 0.00
204, -1226.91, 58232.44, 12414.16, 35083.52, -26260.46, -17569.86, 11578.85, -28106.98, -6281.78, 40240.20, 12558.71, -37069.32, 0.00, 0.00, 0.00, 0.00, 0.00, 0.00, 0.00
205, -1242.11, 58215.92, 12398.24, 35069.53, -26270.83, -17578.24, 11562.96, -28122.99, -6281.78, 40240.20, 12558.71, -37069.32, 0.00, 0.00, 0.00, 0.00, 0.00, 0.00, 0.00
206, -1242.11, 58215.92, 12398.24, 35069.53, -26270.83, -17578.24, 11562.96, -28122.99, -6274.40, 40247.13, 12562.66, -37056.40, 0.00, 0.00, 0.00, 0.00, 0.00, 0.00, 0.00
207, -1227.83, 58234.18, 12414.99, 35085.02, -26255.95, -17560.09, 11581.33, -28101.48, -6274.40, 40247.13, 12562.66, -37056.40, 0.00, 0.00, 0.00, 0.00, 0.00, 0.00, 0.00
208, -1227.83, 58234.18, 12414.99, 35085.02, -26255.95, -17560.09, 11581.33, -28101.48, -6269.11, 40253.64, 12563.04, -37047.90, 0.00, 0.00, 0.00, 0.00, 0.00, 0.00, 0.00
209, -1235.14, 58222.02, 12400.86, 35068.79, -26272.02, -17570.24, 11562.85, -28118.58, -6269.11, 40253.64, 12563.04, -37047.90, 0.00, 0.00, 0.00, 0.00, -0.14, 0.41, 0.90
210, -1235.14, 58222.02, 12400.86, 35068.79, -26272.02, -17570.24, 11562.85, -28118.58, -6268.57, 40248.56, 12564.74, -37066.19, 0.00, 0.00, 0.00, 0.00, 0.00, 0.00, 0.00
211, -1223.69, 58237.02, 12414.34, 35082.43, -26254.94, -17555.62, 11576.53, -28104.23, -6268.57, 40248.56, 12564.74, -37066.19, 0.00, 0.00, 0.00, 0.00, 0.00, 0.00, 0.00
212, -1223.69, 58237.02, 12414.34, 35082.43, -26254.94, -17555.62, 11576.53, -28104.23, -6271.94, 40245.95, 12566.02, -37055.04, 0.00, 0.00, 0.00, 0.00, 0.00, 0.00, 0.00
213, -1242.62, 58215.45, 12393.71, 35063.65, -26275.97, -17566.32, 11555.87, -28124.21, -6271.94, 40245.95, 12566.02, -37055.04, 0.00, 0.00, 0.00, 0.00, 0.00, 0.00, 0.00
214, -1242.62, 58215.45, 12393.71, 35063.65, -26275.97, -17566.32, 11555.87, -28124.21, -6273.62, 40246.91, 12552.78, -37061.76, 0.00, 0.00, 0.00, 0.00, 0.00, 0.00, 0.00
215, -1230.22, 58226.61, 12404.14, 35076.03, -26261.94, -17550.99, 11572.41, -28106.76, -6273.62, 40246.91, 12552.78, -37061.76, 0.00, 0.00, 0.00, 0.00, 0.00, 0.00, 0.00
216, -1230.22, 58226.61, 12404.14, 35076.03, -26261.94, -17550.99, 11572.41, -28106.76, -6261.28, 40261.52, 12554.53, -37062.23, 0.00, 0.00, 0.00, 0.00, 0.00, 0.00, 0.00
217, -1243.92, 58212.05, 12390.33, 35059.63, -26275.75, -17561.79, 11553.71, -28121.24, -6261.28, 40261.52, 12554.53, -37062.23, 0.00, 0.00, 0.00, 0.00, 0.00, 0.00, 0.00
218, -1243.92, 58212.05, 12390.33, 35059.63, -26275.75, -17561.79, 11553.71, -28121.24, -6263.38, 40250.75, 12551.53, -37055.14, 0.00, 0.00, 0.00, 0.00, 0.00, 0.00, 0.00
219, -1235.36, 58233.47, 12409.38, 35077.75, -26255.88, -17540.66, 11576.12, -28100.43, -6263.38, 40250.75, 12551.53, -37055.14, 0.00, 0.00, 0.00, 0.00, -0.14, 0.41, 0.90
220, -1235.36, 58233.47, 12409.38, 35077.75, -26255.88, -17540.66, 11576.12, -28100.43, -6254.78, 40266.49, 12560.27, -37048.77, 0.00, 0.00, 0.00, 0.00, 0.00, 0.00, 0.00
221, -1235.20, 58219.09, 12397.44, 35067.76, -26269.89, -17544.44, 11563.45, -28111.92, -6254.78, 40266.49, 12560.27, -37048.77, 0.00, 0.00, 0.00, 0.00, 0.00, 0.00, 0.00
222, -1235.20, 58219.09, 12397.44, 35067.76, -26269.89, -17544.44, 11563.45, -28111.92, -6255.25, 40263.92, 12550.77, -37063.17, 0.00, 0.00, 0.00, 0.00, 0.00, 0.00, 0.00
223, -1230.33, 58228.06, 12407.01, 35081.64, -26253.69, -17527.54, 11578.63, -28094.38, -6255.25, 40263.92, 12550.77, -37063.17, 0.00, 0.00, 0.00, 0.00, 0.00, 0.00, 0.00
224, -1230.33, 58228.06, 12407.01, 35081.64, -26253.69, -17527.54, 11578.63, -28094.38, -6248.85, 40281.30, 12557.28, -37028.97, 0.00, 0.00, 0.00, 0.00, 0.00, 0.00, 0.00
225, -1242.73, 58212.34, 12395.36, 35068.10, -26260.82, -17534.54, 11565.53, -28104.61, -6248.85, 40281.30, 12557.28, -37028.97, 0.00, 0.00, 0.00, 0.00, 0.00, 0.00, 0.00
226, -1242.73, 58212.34, 12395.36, 35068.10, -26260.82, -17534.54, 11565.53, -28104.61, -6255.20, 40265.10, 12544.65, -37048.53, 0.00, 0.00, 0.00, 0.00, 0.00, 0.00, 0.00
227, -1244.68, 58216.99, 12396.32, 35070.51, -26263.19, -17529.98, 11568.73, -28104.12, -6255.20, 40265.10, 12544.65, -37048.53, 0.00, 0.00, 0.00, 0.00, 0.00, 0.00, 0.00
228, -1244.68, 58216.99, 12396.32, 35070.51, -26263.19, -17529.98, 11568.73, -28104.12, -6248.01, 40275.11, 12551.22, -37046.32, 0.00, 0.00, 0.00, 0.00, -0.14, 0.41, 0.90
229, -1241.59, 58210.98, 12390.26, 35064.57, -26269.60, -17529.73, 11560.28, -28111.56, -6248.01, 40275.11, 12551.22, -37046.32, 0.00, 0.00, 0.00, 0.00, 0.00, 0.00, 0.00
230, -1241.59, 58210.98, 12390.26, 35064.57, -26269.60, -17529.73, 11560.28, -28111.56, -6251.36, 40263.78, 12542.59, -37062.75, 0.00, 0.00, 0.00, 0.00, 0.00, 0.00, 0.00
231, -1242.56, 58221.46, 12397.98, 35067.43, -26261.62, -17522.40, 11569.89, -28100.95, -6251.36, 40263.78, 12542.59, -37062.75, 0.00, 0.00, 0.00, 0.00, 0.00, 0.00, 0.00
232, -1242.56, 58221.46, 12397.98, 35067.43, -26261.62, -17522.40, 11569.89, -28100.95, -6240.96, 40283.96, 12553.32, -37037.40, 0.00, 0.00, 0.00, 0.00, 0.00, 0.00, 0.00
233, -1251.21, 58207.98, 12387.05, 35060.61, -26266.94, -17523.79, 11559.54, -28106.98, -6240.96, 40283.96, 12553.32, -37037.40, 0.00, 0.00, 0.00, 0.00, 0.00, 0.00, 0.00
234, -1251.21, 58207.98, 12387.05, 35060.61, -26266.94, -17523.79, 11559.54, -28106.98, -6249.91, 40268.54, 12540.71, -37038.58, 0.00, 0.00, 0.00, 0.00, 0.00, 0.00, 0.00
235, -1244.05, 58211.94, 12390.22, 35061.86, -26260.86, -17520.19, 11564.08, -28104.17, -6249.91, 40268.54, 12540.71, -37038.58, 0.00, 0.00, 0.00, 0.00, 0.00, 0.00, 0.00
236, -1244.05, 58211.94, 12390.22, 35061.86, -26260.86, -17520.19, 11564.08, -28104.17, -6238.26, 40285.15, 12548.83, -37055.17, 0.00, 0.00, 0.00, 0.00, 0.00, 0.00, 0.00
237, -1257.84, 58206.09, 12385.10, 35054.71, -26267.28, -17518.29, 11558.71, -28107.41, -6238.26, 40285.15, 12548.83, -37055.17, 0.00, 0.00, 0.00, 0.00, 0.00, 0.00, 0.00
238, -1257.84, 58206.09, 12385.10, 35054.71, -26267.28, -17518.29, 11558.71, -28107.41, -6244.83, 40270.02, 12537.00, -37048.06, 0.00, 0.00, 0.00, 0.00, -0.14, 0.42, 0.90
239, -1256.46, 58206.76, 12386.06, 35058.98, -26266.45, -17510.13, 11560.14, -28103.12, -6244.83, 40270.02, 12537.00, -37048.06, 0.00, 0.00, 0.00, 0.00, 0.00, 0.00, 0.00
240, -1256.46, 58206.76, 12386.06, 35058.98, -26266.45, -17510.13, 11560.14, -28103.12, -6230.79, 40294.23, 12548.29, -37031.59, 0.00, 0.00, 0.00, 0.00, 0.00, 0.00, 0.00
241, -1237.62, 58217.15, 12393.89, 35063.25, -26253.40, -17503.74, 11566.94, -28096.14, -6230.79, 40294.23, 12548.29, -37031.59, 0.00, 0.00, 0.00, 0.00, 0.00, 0.00, 0.00
242, -1237.62, 58217.15, 12393.89, 35063.25, -26253.40, -17503.74, 11566.94, -28096.14, -6234.64, 40277.93, 12545.25, -37052.35, 0.00, 0.00, 0.00, 0.00, 0.00, 0.00, 0.00
243, -1248.30, 58213.24, 12387.40, 35057.39, -26263.59, -17504.97, 11557.28, -28105.84, -6234.64, 40277.93, 12545.25, -37052.35, 0.00, 0.00, 0.00, 0.00, 0.00, 0.00, 0.00
244, -1248.30, 58213.24, 12387.40, 35057.39, -26263.59, -17504.97, 11557.28, -28105.84, -6226.70, 40296.10, 12554.39, -37035.61, 0.00, 0.00, 0.00, 0.00, 0.00, 0.00, 0.00
245, -1236.97, 58218.27, 12397.75, 35068.70, -26254.40, -17490.33, 11569.98, -28091.85, -6226.70, 40296.10, 12554.39, -37035.61, 0.00, 0.00, 0.00, 0.00, 0.00, 0.00, 0.00
246, -1236.97, 58218.27, 12397.75, 35068.70, -26254.40, -17490.33, 11569.98, -28091.85, -6230.26, 40288.62, 12545.36, -37041.27, 0.00, 0.00, 0.00, 0.00, 0.00, 0.00, 0.00
247, -1248.23, 58206.11, 12386.33, 35056.39, -26259.68, -17497.95, 11559.70, -28102.76, -6230.26, 40288.62, 12545.36, -37041.27, 0.00, 0.00, 0.00, 0.00, 0.00, 0.00, 0.00
248, -1248.23, 58206.11, 12386.33, 35056.39, -26259.68, -17497.95, 11559.70, -28102.76, -6224.04, 40299.72, 12548.63, -37041.55, 0.00, 0.00, 0.00, 0.00, -0.14, 0.41, 0.90
249, -1242.62, 58216.48, 12395.34, 35065.04, -26252.30, -17486.02, 11567.21, -28093.08, -6224.04, 40299.72, 12548.63, -37041.55, 0.00, 0.00, 0.00, 0.00, 0.00, 0.00, 0.00
250, -1242.62, 58216.48, 12395.34, 35065.04, -26252.30, -17486.02, 11567.21, -28093.08, -6225.05, 40290.09, 12540.80, -37033.73, 0.00, 0.00, 0.00, 0.00, 0.00, 0.00, 0.00
251, -1250.78, 58206.71, 12385.68, 35052.03, -26264.01, -17493.59, 11554.09, -28105.66, -6225.05, 40290.09, 12540.80, -37033.73, 0.00, 0.00, 0.00, 0.00, 0.00, 0.00, 0.00
252, -1250.78, 58206.71, 12385.68, 35052.03, -26264.01, -17493.59, 11554.09, -28105.66, -6222.23, 40296.57, 12543.62, -37038.56, 0.00, 0.00, 0.00, 0.00, 0.00, 0.00, 0.00
253, -1239.20, 58219.54, 12395.32, 35064.61, -26252.68, -17479.35, 11567.74, -28092.25, -6222.23, 40296.57, 12543.62, -37038.56, 0.00, 0.00, 0.00, 0.00, 0.00, 0.00, 0.00
254, -1239.20, 58219.54, 12395.32, 35064.61, -26252.68, -17479.35, 11567.74, -28092.25, -6219.95, 40297.78, 12542.48, -37038.74, 0.00, 0.00, 0.00, 0.00, 0.00, 0.00, 0.00
255, -1247.34, 58208.75, 12385.21, 35053.28, -26263.39, -17483.98, 11554.40, -28101.37, -6219.95, 40297.78, 12542.48, -37038.74, 0.00, 0.00, 0.00, 0.00, 0.00, 0.00, 0.00
0, -1247.34, 58208.75, 12385.21, 35053.28, -26263.39, -17483.98, 11554.40, -28101.37, -6212.51, 40309.58, 12546.62, -37038.85, 0.00, 0.00, 0.00, 0.00, 0.00, 0.00, 0.00
1, -1233.59, 58226.58, 12400.19, 35069.30, -26247.36, -17468.49, 11569.64, -28086.58, -6212.51, 40309.58, 12546.62, -37038.85, 0.00, 0.00, 0.00, 0.00, 0.00, 0.00, 0.00
2, -1233.59, 58226.58, 12400.19, 35069.30, -26247.36, -17468.49, 11569.64, -28086.58, -6216.53, 40303.77, 12537.56, -37027.54, 0.00, 0.00, 0.00, 0.00, -0.14, 0.41, 0.90
3, -1250.02, 58206.76, 12381.64, 35051.29, -26262.65, -17479.62, 11553.55, -28103.16, -6216.53, 40303.77, 12537.56, -37027.54, 0.00, 0.00, 0.00, 0.00, 0.00, 0.00, 0.00
4, -1250.02, 58206.76, 12381.64, 35051.29, -26262.65, -17479.62, 11553.55, -28103.16, -6212.62, 40306.96, 12539.22, -37022.00, 0.00, 0.00, 0.00, 0.00, 0.00, 0.00, 0.00
5, -1235.94, 58223.79, 12397.80, 35068.37, -26246.11, -17460.76, 11570.54, -28084.88, -6212.62, 40306.96, 12539.22, -37022.00, 0.00, 0.00, 0.00, 0.00, 0.00, 0.00, 0.00
6, -1235.94, 58223.79, 12397.80, 35068.37, -26246.11, -17460.76, 11570.54, -28084.88, -6208.78, 40313.94, 12543.42, -37035.79, 0.00, 0.00, 0.00, 0.00, 0.00, 0.00, 0.00
7, -1245.39, 58212.55, 12385.50, 35051.98, -26257.53, -17469.45, 11554.42, -28098.13, -6208.78, 40313.94, 12543.42, -37035.79, 0.00, 0.00, 0.00, 0.00, 0.00, 0.00, 0.00
8, -1245.39, 58212.55, 12385.50, 35051.98, -26257.53, -17469.45, 11554.42, -28098.13, -6204.46, 40314.01, 12542.14, -37031.43, 0.00, 0.00, 0.00, 0.00, 0.00, 0.00, 0.00
9, -1232.86, 58227.30, 12399.43, 35068.21, -26240.88, -17452.02, 11571.90, -28079.96, -6204.46, 40314.01, 12542.14, -37031.43, 0.00, 0.00, 0.00, 0.00, 0.00, 0.00, 0.00
10, -1232.86, 58227.30, 12399.43, 35068.21, -26240.88, -17452.02, 11571.90, -28079.96, -6201.71, 40320.89, 12542.14, -37018.93, 0.00, 0.00, 0.00, 0.00, 0.00, 0.00, 0.00
11, -1248.88, 58208.10, 12381.39, 35053.10, -26260.53, -17458.61, 11554.35, -28096.43, -6201.71, 40320.89, 12542.14, -37018.93, 0.00, 0.00, 0.00, 0.00, -0.13, 0.41, 0.90
12, -1248.88, 58208.10, 12381.39, 35053.10, -26260.53, -17458.61, 11554.35, -28096.43, -6203.12, 40312.53, 12532.13, -37026.56, 0.00, 0.00, 0.00, 0.00, 0.00, 0.00, 0.00
13, -1238.26, 58219.07, 12391.65, 35063.02, -26248.77, -17449.38, 11565.82, -28083.71, -6203.12, 40312.53, 12532.13, -37026.56, 0.00, 0.00, 0.00, 0.00, 0.00, 0.00, 0.00
14, -1238.26, 58219.07, 12391.65, 35063.02, -26248.77, -17449.38, 11565.82, -28083.71, -6193.51, 40324.51, 12537.36, -37032.79, 0.00, 0.00, 0.00, 0.00, 0.00, 0.00, 0.00
15, -1246.62, 58211.79, 12382.78, 35052.56, -26253.15, -17454.12, 11554.58, -28095.29, -6193.51, 40324.51, 12537.36, -37032.79, 0.00, 0.00, 0.00, 0.00, 0.00, 0.00, 0.00
16, -1246.62, 58211.79, 12382.78, 35052.56, -26253.15, -17454.12, 11554.58, -28095.29, -6198.63, 40312.27, 12530.54, -37017.06, 0.00, 0.00, 0.00, 0.00, 0.00, 0.00, 0.00
17, -1233.62, 58223.88, 12393.13, 35062.93, -26245.46, -17441.11, 11565.66, -28083.76, -6198.63, 40312.27, 12530.54, -37017.06, 0.00, 0.00, 0.00, 0.00, 0.00, 0.00, 0.00
18, -1233.62, 58223.88, 12393.13, 35062.93, -26245.46, -17441.11, 11565.66, -28083.76, -6188.75, 40333.68, 12541.94, -37014.09, 0.00, 0.00, 0.00, 0.00, 0.00, 0.00, 0.00
19, -1240.77, 58212.97, 12384.99, 35058.00, -26251.68, -17440.93, 11556.95, -28089.95, -6188.75, 40333.68, 12541.94, -37014.09, 0.00, 0.00, 0.00, 0.00, 0.00, 0.00, 0.00
20, -1240.77, 58212.97, 12384.99, 35058.00, -26251.68, -17440.93, 11556.95, -28089.95, -6193.40, 40320.36, 12530.77, -37040.53, 0.00, 0.00, 0.00, 0.00, 0.00, 0.00, 0.00
21, -1235.76, 58224.13, 12394.29, 35062.69, -26246.36, -17433.91, 11565.02, -28083.36, -6193.40, 40320.36, 12530.77, -37040.53, 0.00, 0.00, 0.00, 0.00, -0.14, 0.42, 0.90
22, -1235.76, 58224.13, 12394.29, 35062.69, -26246.36, -17433.91, 11565.02, -28083.36, -6186.31, 40331.71, 12547.24, -37018.22, 0.00, 0.00, 0.00, 0.00, 0.00, 0.00, 0.00
23, -1238.78, 58215.74, 12387.96, 35059.80, -26246.91, -17434.81, 11556.79, -28091.49, -6186.31, 40331.71, 12547.24, -37018.22, 0.00, 0.00, 0.00, 0.00, 0.00, 0.00, 0.00
24, -1238.78, 58215.74, 12387.96, 35059.80, -26246.91, -17434.81, 11556.79, -28091.49, -6191.03, 40318.10, 12528.76, -37021.02, 0.00, 0.00, 0.00, 0.00, 0.00, 0.00, 0.00
25, -1237.93, 58221.20, 12393.06, 35063.23, -26242.51, -17426.38, 11565.57, -28081.08, -6191.03, 40318.10, 12528.76, -37021.02, 0.00, 0.00, 0.00, 0.00, 0.00, 0.00, 0.00
26, -1237.93, 58221.20, 12393.06, 35063.23, -26242.51, -17426.38, 11565.57, -28081.08, -6175.79, 40346.04, 12548.92, -37017.15, 0.00, 0.00, 0.00, 0.00, 0.00, 0.00, 0.00
27, -1231.49, 58223.57, 12392.70, 35063.70, -26242.53, -17422.49, 11562.02, -28080.92, -6175.79, 40346.04, 12548.92, -37017.15, 0.00, 0.00, 0.00, 0.00, 0.00, 0.00, 0.00
28, -1231.49, 58223.57, 12392.70, 35063.70, -26242.53, -17422.49, 11562.02, -28080.92, -6181.71, 40330.50, 12535.55, -37019.54, 0.00, 0.00, 0.00, 0.00, 0.00, 0.00, 0.00
29, -1232.48, 58224.39, 12394.40, 35064.84, -26242.47, -17416.50, 11563.74, -28081.08, -6181.71, 40330.50, 12535.55, -37019.54, 0.00, 0.00, 0.00, 0.00, 0.00, 0.00, 0.00
30, -1232.48, 58224.39, 12394.40, 35064.84, -26242.47, -17416.50, 11563.74, -28081.08, -6177.02, 40345.93, 12543.66, -37005.55, 0.00, 0.00, 0.00, 0.00, 0.00, 0.00, 0.00
31, -1236.05, 58219.14, 12390.06, 35062.04, -26248.81, -17416.43, 11560.46, -28086.60, -6177.02, 40345.93, 12543.66, -37005.55, 0.00, 0.00, 0.00, 0.00, -0.13, 0.41, 0.90
32, -1236.05, 58219.14, 12390.06, 35062.04, -26248.81, -17416.43, 11560.46, -28086.60, -6182.63, 40330.82, 12526.30, -37018.85, 0.00, 0.00, 0.00, 0.00, 0.00, 0.00, 0.00
33, -1230.49, 58221.33, 12391.83, 35063.79, -26239.00, -17412.84, 11562.31, -28081.50, -6182.63, 40330.82, 12526.30, -37018.85, 0.00, 0.00, 0.00, 0.00, 0.00, 0.00, 0.00
34, -1230.49, 58221.33, 12391.83, 35063.79, -26239.00, -17412.84, 11562.31, -28081.50, -6170.02, 40349.30, 12545.03, -37030.54, 0.00, 0.00, 0.00, 0.00, 0.00, 0.00, 0.00
35, -1230.82, 58223.48, 12394.71, 35065.01, -26239.05, -17406.69, 11562.62, -28082.69, -6170.02, 40349.30, 12545.03, -37030.54, 0.00, 0.00, 0.00, 0.00, 0.00, 0.00, 0.00
36, -1230.82, 58223.48, 12394.71, 35065.01, -26239.05, -17406.69, 11562.62, -28082.69, -6177.66, 40329.07, 12531.57, -37022.73, 0.00, 0.00, 0.00, 0.00, 0.00, 0.00, 0.00
37, -1235.69, 58220.57, 12388.92, 35057.61, -26245.95, -17409.15, 11558.87, -28085.12, -6177.66, 40329.07, 12531.57, -37022.73, 0.00, 0.00, 0.00, 0.00, 0.00, 0.00, 0.00
38, -1235.69, 58220.57, 12388.92, 35057.61, -26245.95, -17409.15, 11558.87, -28085.12, -6165.64, 40352.18, 12540.80, -37002.04, 0.00, 0.00, 0.00, 0.00, 0.00, 0.00, 0.00
39, -1233.19, 58229.62, 12396.34, 35063.18, -26236.12, -17400.16, 11565.40, -28077.72, -6165.64, 40352.18, 12540.80, -37002.04, 0.00, 0.00, 0.00, 0.00, 0.00, 0.00, 0.00
40, -1233.19, 58229.62, 12396.34, 35063.18, -26236.12, -17400.16, 11565.40, -28077.72, -6171.32, 40338.30, 12528.62, -37028.88, 0.00, 0.00, 0.00, 0.00, 0.00, 0.00, 0.00
41, -1242.53, 58214.27, 12379.47, 35048.47, -26251.56, -17408.68, 11548.92, -28093.35, -6171.32, 40338.30, 12528.62, -37028.88, 0.00, 0.00, 0.00, 0.00, -0.13, 0.41, 0.90
42, -1242.53, 58214.27, 12379.47, 35048.47, -26251.56, -17408.68, 11548.92, -28093.35, -6167.74, 40348.18, 12534.21, -37011.54, 0.00, 0.00, 0.00, 0.00, 0.00, 0.00, 0.00
43, -1231.25, 58229.22, 12392.66, 35061.06, -26236.23, -17394.11, 11564.12, -28077.54, -6167.74, 40348.18, 12534.21, -37011.54, 0.00, 0.00, 0.00, 0.00, 0.00, 0.00, 0.00
44, -1231.25, 58229.22, 12392.66, 35061.06, -26236.23, -17394.11, 11564.12, -28077.54, -6171.88, 40340.09, 12531.37, -37020.03, 0.00, 0.00, 0.00, 0.00, 0.00, 0.00, 0.00
45, -1242.85, 58212.97, 12378.35, 35045.34, -26253.84, -17402.69, 11547.69, -28090.26, -6171.88, 40340.09, 12531.37, -37020.03, 0.00, 0.00, 0.00, 0.00, 0.00, 0.00, 0.00
46, -1242.85, 58212.97, 12378.35, 35045.34, -26253.84, -17402.69, 11547.69, -28090.26, -6163.65, 40354.26, 12535.68, -37019.02, 0.00, 0.00, 0.00, 0.00, 0.00, 0.00, 0.00
47, -1240.10, 58231.50, 12393.93, 35057.48, -26233.35, -17388.45, 11562.29, -28075.58, -6163.65, 40354.26, 12535.68, -37019.02, 0.00, 0.00, 0.00, 0.00, 0.00, 0.00, 0.00
48, -1240.10, 58231.50, 12393.93, 35057.48, -26233.35, -17388.45, 11562.29, -28075.58, -6162.87, 40349.68, 12532.71, -37022.29, 0.00, 0.00, 0.00, 0.00, 0.00, 0.00, 0.00
49, -1247.88, 58214.11, 12376.70, 35045.90, -26250.31, -17397.03, 11546.71, -28091.13, -6162.87, 40349.68, 12532.71, -37022.29, 0.00, 0.00, 0.00, 0.00, 0.00, 0.00, 0.00
50, -1247.88, 58214.11, 12376.70, 35045.90, -26250.31, -17397.03, 11546.71, -28091.13, -6157.75, 40353.75, 12536.36, -37011.92, 0.00, 0.00, 0.00, 0.00, -0.13, 0.41, 0.90
51, -1229.84, 58230.07, 12391.29, 35061.30, -26238.31, -17379.62, 11564.64, -28073.63, -6157.75, 40353.75, 12536.36, -37011.92, 0.00, 0.00, 0.00, 0.00, 0.00, 0.00, 0.00
52, -1229.84, 58230.07, 12391.29, 35061.30, -26238.31, -17379.62, 11564.64, -28073.63, -6158.04, 40354.64, 12538.01, -37011.00, 0.00, 0.00, 0.00, 0.00, 0.00, 0.00, 0.00
53, -1246.22, 58214.80, 12379.76, 35045.41, -26247.12, -17387.78, 11547.78, -28088.86, -6158.04, 40354.64, 12538.01, -37011.00, 0.00, 0.00, 0.00, 0.00, 0.00, 0.00, 0.00
54, -1246.22, 58214.80, 12379.76, 35045.41, -26247.12, -17387.78, 11547.78, -28088.86, -6151.71, 40356.48, 12533.25, -37013.64, 0.00, 0.00, 0.00, 0.00, 0.00, 0.00, 0.00
55, -1231.47, 58229.31, 12391.65, 35061.53, -26234.15, -17371.80, 11563.29, -28070.95, -6151.71, 40356.48, 12533.25, -37013.64, 0.00, 0.00, 0.00, 0.00, 0.00, 0.00, 0.00
56, -1231.47, 58229.31, 12391.65, 35061.53, -26234.15, -17371.80, 11563.29, -28070.95, -6150.15, 40361.32, 12537.65, -37008.07, 0.00, 0.00, 0.00, 0.00, 0.00, 0.00, 0.00
57, -1237.53, 58216.95, 12382.40, 35044.27, -26244.10, -17380.36, 11550.67, -28084.59, -6150.15, 40361.32, 12537.65, -37008.07, 0.00, 0.00, 0.00, 0.00, 0.00, 0.00, 0.00
58, -1237.53, 58216.95, 12382.40, 35044.27, -26244.10, -17380.36, 11550.67, -28084.59, -6138.62, 40373.64, 12560.85, -37009.55, 0.00, 0.00, 0.00, 0.00, 0.00, 0.00, 0.00
59, -1214.97, 58247.48, 12418.03, 35081.89, -26218.66, -17354.65, 11577.20, -28057.72, -6138.62, 40373.64, 12560.85, -37009.55, 0.00, 0.00, 0.00, 0.00, 0.00, 0.00, 0.00
60, -1214.97, 58247.48, 12418.03, 35081.89, -26218.66, -17354.65, 11577.20, -28057.72, -6146.66, 40364.81, 12536.09, -37009.04, 0.00, 0.00, 0.00, 0.00, -0.14, 0.41, 0.90
61, -1246.20, 58212.93, 12373.81, 35030.55, -26258.40, -17384.90, 11534.46, -28100.93, -6146.66, 40364.81, 12536.09, -37009.04, 0.00, 0.00, 0.00, 0.00, 0.00, 0.00, 0.00
62, -1246.20, 58212.93, 12373.81, 35030.55, -26258.40, -17384.90, 11534.46, -28100.93, -6156.34, 40349.50, 12522.97, -37023.41, 0.00, 0.00, 0.00, 0.00, 0.00, 0.00, 0.00
63, -1218.95, 58232.13, 12391.54, 35053.03, -26247.29, -17366.63, 11550.93, -28079.87, -6156.34, 40349.50, 12522.97, -37023.41, 0.00, 0.00, 0.00, 0.00, 0.00, 0.00, 0.00
64, -1218.95, 58232.13, 12391.54, 35053.03, -26247.29, -17366.63, 11550.93, -28079.87, -6149.46, 40368.57, 12539.78, -37011.83, 0.00, 0.00, 0.00, 0.00, 0.00, 0.00, 0.00
65, -1215.44, 58233.91, 12397.66, 35049.75, -26251.43, -17369.36, 11542.49, -28090.26, -6149.46, 40368.57, 12539.78, -37011.83, 0.00, 0.00, 0.00, 0.00, 0.00, 0.00, 0.00
66, -1215.44, 58233.91, 12397.66, 35049.75, -26251.43, -17369.36, 11542.49, -28090.26, -6148.90, 40358.11, 12548.11, -37012.18, 0.00, 0.00, 0.00, 0.00, 0.00, 0.00, 0.00
67, -1210.01, 58247.57, 12409.42, 35050.77, -26236.97, -17357.36, 11556.43, -28074.30, -6148.90, 40358.11, 12548.11, -37012.18, 0.00, 0.00, 0.00, 0.00, 0.00, 0.00, 0.00
68, -1210.01, 58247.57, 12409.42, 35050.77, -26236.97, -17357.36, 11556.43, -28074.30, -6136.47, 40377.55, 12542.14, -37019.92, 0.00, 0.00, 0.00, 0.00, 0.00, 0.00, 0.00
69, -1228.68, 58228.64, 12387.96, 35030.75, -26255.86, -17366.52, 11539.69, -28088.25, -6136.47, 40377.55, 12542.14, -37019.92, 0.00, 0.00, 0.00, 0.00, 0.00, 0.00, 0.00
70, -1228.68, 58228.64, 12387.96, 35030.75, -26255.86, -17366.52, 11539.69, -28088.25, -6148.63, 40358.96, 12532.67, -37007.98, 0.00, 0.00, 0.00, 0.00, -0.14, 0.41, 0.90
71, -1213.95, 58240.93, 12399.23, 35040.65, -26242.67, -17358.61, 11549.68, -28080.16, -6148.63, 40358.96, 12532.67, -37007.98, 0.00, 0.00, 0.00, 0.00, 0.00, 0.00, 0.00
72, -1213.95, 58240.93, 12399.23, 35040.65, -26242.67, -17358.61, 11549.68, -28080.16, -6138.55, 40378.27, 12553.83, -37005.46, 0.00, 0.00, 0.00, 0.00, 0.00, 0.00, 0.00
73, -1214.57, 58238.05, 12398.85, 35039.98, -26246.36, -17355.48, 11544.25, -28084.23, -6138.55, 40378.27, 12553.83, -37005.46, 0.00, 0.00, 0.00, 0.00, 0.00, 0.00, 0.00
74, -1214.57, 58238.05, 12398.85, 35039.98, -26246.36, -17355.48, 11544.25, -28084.23, -6143.71, 40361.53, 12537.90, -37017.95, 0.00, 0.00, 0.00, 0.00, 0.00, 0.00, 0.00
75, -1215.62, 58239.86, 12399.38, 35042.41, -26246.18, -17349.94, 11547.69, -28077.01, -6143.71, 40361.53, 12537.90, -37017.95, 0.00, 0.00, 0.00, 0.00, 0.00, 0.00, 0.00
76, -1215.62, 58239.86, 12399.38, 35042.41, -26246.18, -17349.94, 11547.69, -28077.01, -6126.90, 40391.66, 12558.95, -36998.62, 0.00, 0.00, 0.00, 0.00, 0.00, 0.00, 0.00
77, -1215.49, 58243.97, 12401.28, 35041.86, -26243.38, -17345.80, 11546.31, -28077.90, -6126.90, 40391.66, 12558.95, -36998.62, 0.00, 0.00, 0.00, 0.00, 0.00, 0.00, 0.00
78, -1215.49, 58243.97, 12401.28, 35041.86, -26243.38, -17345.80, 11546.31, -28077.90, -6140.98, 40366.67, 12539.80, -37007.16, 0.00, 0.00, 0.00, 0.00, 0.00, 0.00, 0.00
79, -1217.90, 58238.77, 12395.52, 35039.53, -26251.86, -17349.92, 11540.50, -28087.60, -6140.98, 40366.67, 12539.80, -37007.16, 0.00, 0.00, 0.00, 0.00, 0.00, 0.00, 0.00
80, -1217.90, 58238.77, 12395.52, 35039.53, -26251.86, -17349.92, 11540.50, -28087.60, -6129.34, 40388.26, 12556.96, -37005.99, 0.00, 0.00, 0.00, 0.00, -0.14, 0.41, 0.91
81, -1202.84, 58247.84, 12403.59, 35048.23, -26243.63, -17336.21, 11549.55, -28074.30, -6129.34, 40388.26, 12556.96, -37005.99, 0.00, 0.00, 0.00, 0.00, 0.00, 0.00, 0.00
82, -1202.84, 58247.84, 12403.59, 35048.23, -26243.63, -17336.21, 11549.55, -28074.30, -6135.38, 40367.29, 12541.25, -37017.41, 0.00, 0.00, 0.00, 0.00, 0.00, 0.00, 0.00
83, -1214.86, 58243.84, 12400.72, 35041.03, -26245.73, -17340.28, 11542.98, -28081.12, -6135.38, 40367.29, 12541.25, -37017.41, 0.00, 0.00, 0.00, 0.00, 0.00, 0.00, 0.00
84, -1214.86, 58243.84, 12400.72, 35041.03, -26245.73, -17340.28, 11542.98, -28081.12, -6120.44, 40389.51, 12556.03, -36999.64, 0.00, 0.00, 0.00, 0.00, 0.00, 0.00, 0.00
85, -1200.51, 58249.36, 12406.63, 35052.45, -26241.51, -17327.56, 11552.41, -28074.64, -6120.44, 40389.51, 12556.03, -36999.64, 0.00, 0.00, 0.00, 0.00, 0.00, 0.00, 0.00
86, -1200.51, 58249.36, 12406.63, 35052.45, -26241.51, -17327.56, 11552.41, -28074.64, -6129.56, 40370.49, 12547.02, -37013.44, 0.00, 0.00, 0.00, 0.00, 0.00, 0.00, 0.00
87, -1204.51, 58247.28, 12403.54, 35047.18, -26241.24, -17330.11, 11543.60, -28081.05, -6129.56, 40370.49, 12547.02, -37013.44, 0.00, 0.00, 0.00, 0.00, 0.00, 0.00, 0.00
88, -1204.51, 58247.28, 12403.54, 35047.18, -26241.24, -17330.11, 11543.60, -28081.05, -6113.81, 40398.63, 12562.28, -37005.03, 0.00, 0.00, 0.00, 0.00, 0.00, 0.00, 0.00
89, -1191.68, 58259.29, 12415.05, 35057.41, -26229.12, -17314.96, 11560.10, -28063.26, -6113.81, 40398.63, 12562.28, -37005.03, 0.00, 0.00, 0.00, 0.00, -0.13, 0.42, 0.90
90, -1191.68, 58259.29, 12415.05, 35057.41, -26229.12, -17314.96, 11560.10, -28063.26, -6116.64, 40391.88, 12547.06, -36996.29, 0.00, 0.00, 0.00, 0.00, 0.00, 0.00, 0.00
91, -1210.91, 58237.96, 12394.94, 35041.28, -26253.29, -17328.08, 11535.87, -28090.84, -6116.64, 40391.88, 12547.06, -36996.29, 0.00, 0.00, 0.00, 0.00, 0.00, 0.00, 0.00
92, -1210.91, 58237.96, 12394.94, 35041.28, -26253.29, -17328.08, 11535.87, -28090.84, -6121.81, 40380.53, 12548.22, -37015.29, 0.00, 0.00, 0.00, 0.00, 0.00, 0.00, 0.00
93, -1193.92, 58257.16, 12412.46, 35060.48, -26234.62, -17309.28, 11555.54, -28073.50, -6121.81, 40380.53, 12548.22, -37015.29, 0.00, 0.00, 0.00, 0.00, 0.00, 0.00, 0.00
94, -1193.92, 58257.16, 12412.46, 35060.48, -26234.62, -17309.28, 11555.54, -28073.50, -6116.06, 40384.26, 12543.89, -37010.29, 0.00, 0.00, 0.00, 0.00, 0.00, 0.00, 0.00
95, -1202.77, 58241.74, 12396.61, 35043.91, -26248.66, -17319.18, 11536.32, -28089.93, -6116.06, 40384.26, 12543.89, -37010.29, 0.00, 0.00, 0.00, 0.00, 0.00, 0.00, 0.00
96, -1202.77, 58241.74, 12396.61, 35043.91, -26248.66, -17319.18, 11536.32, -28089.93, -6113.29, 40396.30, 12545.97, -37011.00, 0.00, 0.00, 0.00, 0.00, 0.00, 0.00, 0.00
97, -1202.68, 58249.98, 12403.81, 35052.83, -26237.21, -17307.13, 11547.60, -28078.60, -6113.29, 40396.30, 12545.97, -37011.00, 0.00, 0.00, 0.00, 0.00, 0.00, 0.00, 0.00
98, -1202.68, 58249.98, 12403.81, 35052.83, -26237.21, -17307.13, 11547.60, -28078.60, -6113.65, 40387.05, 12538.10, -37021.82, 0.00, 0.00, 0.00, 0.00, 0.00, 0.00, 0.00
99, -1212.58, 58237.56, 12391.72, 35039.55, -26249.17, -17316.88, 11532.78, -28090.42, -6113.65, 40387.05, 12538.10, -37021.82, 0.00, 0.00, 0.00, 0.00, -0.14, 0.42, 0.90
100, -1212.58, 58237.56, 12391.72, 35039.55, -26249.17, -17316.88, 11532.78, -28090.42, -6098.49, 40403.70, 12545.34, -36991.75, 0.00, 0.00, 0.00, 0.00, 0.00, 0.00, 0.00
101, -1198.52, 58255.17, 12406.29, 35053.66, -26232.88, -17299.74, 11550.91, -28073.19, -6098.49, 40403.70, 12545.34, -36991.75, 0.00, 0.00, 0.00, 0.00, 0.00, 0.00, 0.00
102, -1198.52, 58255.17, 12406.29, 35053.66, -26232.88, -17299.74, 11550.91, -28073.19, -6104.51, 40389.63, 12547.51, -37016.03, 0.00, 0.00, 0.00, 0.00, 0.00, 0.00, 0.00
103, -1213.54, 58233.36, 12387.60, 35035.64, -26253.64, -17315.56, 11524.18, -28102.04, -6104.51, 40389.63, 12547.51, -37016.03, 0.00, 0.00, 0.00, 0.00, 0.00, 0.00, 0.00
104, -1213.54, 58233.36, 12387.60, 35035.64, -26253.64, -17315.56, 11524.18, -28102.04, -6106.27, 40381.91, 12539.64, -37038.74, 0.00, 0.00, 0.00, 0.00, 0.00, 0.00, 0.00
105, -1206.26, 58248.22, 12403.05, 35047.91, -26240.54, -17300.03, 11544.00, -28085.30, -6106.27, 40381.91, 12539.64, -37038.74, 0.00, 0.00, 0.00, 0.00, 0.00, 0.00, 0.00
106, -1206.26, 58248.22, 12403.05, 35047.91, -26240.54, -17300.03, 11544.00, -28085.30, -6106.07, 40395.08, 12539.95, -37025.73, 0.00, 0.00, 0.00, 0.00, 0.00, 0.00, 0.00
107, -1212.85, 58232.02, 12382.31, 35029.90, -26262.81, -17316.59, 11516.24, -28112.84, -6106.07, 40395.08, 12539.95, -37025.73, 0.00, 0.00, 0.00, 0.00, 0.00, 0.00, 0.00
108, -1212.85, 58232.02, 12382.31, 35029.90, -26262.81, -17316.59, 11516.24, -28112.84, -6107.93, 40375.63, 12536.18, -37039.21, 0.00, 0.00, 0.00, 0.00, 0.00, 0.00, 0.00
109, -1197.32, 58254.84, 12403.14, 35044.90, -26241.19, -17296.27, 11537.68, -28089.39, -6107.93, 40375.63, 12536.18, -37039.21, 0.00, 0.00, 0.00, 0.00, -0.14, 0.41, 0.90
110, -1197.32, 58254.84, 12403.14, 35044.90, -26241.19, -17296.27, 11537.68, -28089.39, -6090.94, 40402.43, 12554.10, -37038.36, 0.00, 0.00, 0.00, 0.00, 0.00, 0.00, 0.00
111, -1201.00, 58242.45, 12390.15, 35025.72, -26259.52, -17312.05, 11515.08, -28113.49, -6090.94, 40402.43, 12554.10, -37038.36, 0.00, 0.00, 0.00, 0.00, 0.00, 0.00, 0.00
112, -1201.00, 58242.45, 12390.15, 35025.72, -26259.52, -17312.05, 11515.08, -28113.49, -6099.14, 40380.14, 12554.64, -37054.39, 0.00, 0.00, 0.00, 0.00, 0.00, 0.00, 0.00
113, -1186.16, 58256.71, 12408.48, 35040.89, -26245.60, -17296.03, 11531.47, -28100.61, -6099.14, 40380.14, 12554.64, -37054.39, 0.00, 0.00, 0.00, 0.00, 0.00, 0.00, 0.00
114, -1186.16, 58256.71, 12408.48, 35040.89, -26245.60, -17296.03, 11531.47, -28100.61, -6095.54, 40394.21, 12567.92, -37004.38, 0.00, 0.00, 0.00, 0.00, 0.00, 0.00, 0.00
115, -1209.45, 58258.30, 12399.21, 35035.71, -26254.47, -17297.93, 11523.49, -28110.13, -6095.54, 40394.21, 12567.92, -37004.38, 0.00, 0.00, 0.00, 0.00, 0.00, 0.00, 0.00
116, -1209.45, 58258.30, 12399.21, 35035.71, -26254.47, -17297.93, 11523.49, -28110.13, -6098.70, 40374.49, 12566.28, -37033.98, 0.00, 0.00, 0.00, 0.00, 0.00, 0.00, 0.00
117, -1152.79, 58283.71, 12418.45, 35042.93, -26247.54, -17288.54, 11534.10, -28113.62, -6098.70, 40374.49, 12566.28, -37033.98, 0.00, 0.00, 0.00, 0.00, 0.00, 0.00, 0.00
118, -1152.79, 58283.71, 12418.45, 35042.93, -26247.54, -17288.54, 11534.10, -28113.62, -6086.80, 40395.88, 12580.77, -37087.20, 0.00, 0.00, 0.00, 0.00, 0.00, 0.00, 0.00
119, -1176.24, 58260.29, 12406.16, 35030.50, -26256.44, -17298.89, 11511.71, -28136.33, -6086.80, 40395.88, 12580.77, -37087.20, 0.00, 0.00, 0.00, 0.00, -0.14, 0.41, 0.90
120, -1176.24, 58260.29, 12406.16, 35030.50, -26256.44, -17298.89, 11511.71, -28136.33, -6097.09, 40378.94, 12576.37, -37095.11, 0.00, 0.00, 0.00, 0.00, 0.00, 0.00, 0.00
121, -1195.44, 58274.80, 12410.76, 35035.17, -26256.12, -17296.67, 11509.18, -28142.46, -6097.09, 40378.94, 12576.37, -37095.11, 0.00, 0.00, 0.00, 0.00, 0.00, 0.00, 0.00
122, -1195.44, 58274.80, 12410.76, 35035.17, -26256.12, -17296.67, 11509.18, -28142.46, -6095.61, 40384.73, 12596.17, -37126.05, 0.00, 0.00, 0.00, 0.00, 0.00, 0.00, 0.00
123, -1192.87, 58265.30, 12410.51, 35021.29, -26266.41, -17308.77, 11488.84, -28178.31, -6095.61, 40384.73, 12596.17, -37126.05, 0.00, 0.00, 0.00, 0.00, 0.00, 0.00, 0.00
124, -1192.87, 58265.30, 12410.51, 35021.29, -26266.41, -17308.77, 11488.84, -28178.31, -6107.46, 40363.85, 12579.29, -37203.79, 0.00, 0.00, 0.00, 0.00, 0.00, 0.00, 0.00
125, -1074.22, 58305.91, 12423.41, 35021.18, -26271.68, -17305.57, 11475.56, -28186.93, -6107.46, 40363.85, 12579.29, -37203.79, 0.00, 0.00, 0.00, 0.00, 0.00, 0.00, 0.00
126, -1074.22, 58305.91, 12423.41, 35021.18, -26271.68, -17305.57, 11475.56, -28186.93, -6097.29, 40372.12, 12616.00, -37164.65, 0.00, 0.00, 0.00, 0.00, 0.00, 0.00, 0.00
127, -1151.11, 58317.04, 12416.04, 35017.02, -26284.18, -17302.89, 11468.17, -28223.68, -6097.29, 40372.12, 12616.00, -37164.65, 0.00, 0.00, 0.00, 0.00, 0.00, 0.00, 0.00
128, -1151.11, 58317.04, 12416.04, 35017.02, -26284.18, -17302.89, 11468.17, -28223.68, -6119.64, 40326.08, 12616.31, -37163.57, 0.00, 0.00, 0.00, 0.00, -0.14, 0.41, 0.90
129, -1224.23, 58291.67, 12415.50, 35000.80, -26291.87, -17319.76, 11433.27, -28270.02, -6119.64, 40326.08, 12616.31, -37163.57, 0.00, 0.00, 0.00, 0.00, 0.00, 0.00, 0.00
130, -1224.23, 58291.67, 12415.50, 35000.80, -26291.87, -17319.76, 11433.27, -28270.02, -6107.21, 40353.73, 12627.68, -37245.80, 0.00, 0.00, 0.00, 0.00, 0.00, 0.00, 0.00
131, -1186.18, 58267.55, 12410.49, 35002.41, -26307.44, -17311.92, 11426.84, -28297.58, -6107.21, 40353.73, 12627.68, -37245.80, 0.00, 0.00, 0.00, 0.00, 0.00, 0.00, 0.00
132, -1186.18, 58267.55, 12410.49, 35002.41, -26307.44, -17311.92, 11426.84, -28297.58, -6135.67, 40256.63, 12619.77, -37194.17, 0.00, 0.00, 0.00, 0.00, 0.00, 0.00, 0.00
133, -1074.11, 58295.88, 12412.33, 34989.04, -26315.89, -17326.20, 11390.65, -28343.98, -6135.67, 40256.63, 12619.77, -37194.17, 0.00, 0.00, 0.00, 0.00, 0.00, 0.00, 0.00
134, -1074.11, 58295.88, 12412.33, 34989.04, -26315.89, -17326.20, 11390.65, -28343.98, -6117.31, 40356.52, 12638.03, -37191.09, 0.00, 0.00, 0.00, 0.00, 0.00, 0.00, 0.00
135, -1068.55, 58328.08, 12424.93, 34996.15, -26307.35, -17322.85, 11353.75, -28364.94, -6117.31, 40356.52, 12638.03, -37191.09, 0.00, 0.00, 0.00, 0.00, 0.00, 0.00, 0.00
136, -1068.55, 58328.08, 12424.93, 34996.15, -26307.35, -17322.85, 11353.75, -28364.94, -6140.69, 40278.20, 12636.36, -37300.25, 0.00, 0.00, 0.00, 0.00, 0.00, 0.00, 0.00
137, -1208.07, 58312.48, 12399.63, 34959.89, -26393.72, -17349.15, 11304.57, -28418.74, -6140.69, 40278.20, 12636.36, -37300.25, 0.00, 0.00, 0.00, 0.00, 0.00, 0.00, 0.00
138, -1208.07, 58312.48, 12399.63, 34959.89, -26393.72, -17349.15, 11304.57, -28418.74, -6166.98, 40242.57, 12634.32, -37115.52, 0.00, 0.00, 0.00, 0.00, -0.14, 0.41, 0.90
139, -1171.75, 58302.78, 12377.46, 34952.63, -26393.16, -17356.46, 11273.62, -28432.18, -6166.98, 40242.57, 12634.32, -37115.52, 0.00, 0.00, 0.00, 0.00, 0.00, 0.00, 0.00
140, -1171.75, 58302.78, 12377.46, 34952.63, -26393.16, -17356.46, 11273.62, -28432.18, -6163.83, 40264.79, 12631.31, -37216.23, 0.00, 0.00, 0.00, 0.00, 0.00, 0.00, 0.00
141, -1107.51, 58295.27, 12383.33, 34938.37, -26412.79, -17376.80, 11207.54, -28477.06, -6163.83, 40264.79, 12631.31, -37216.23, 0.00, 0.00, 0.00, 0.00, 0.00, 0.00, 0.00
142, -1107.51, 58295.27, 12383.33, 34938.37, -26412.79, -17376.80, 11207.54, -28477.06, -6154.44, 40287.50, 12657.28, -37306.71, 0.00, 0.00, 0.00, 0.00, 0.00, 0.00, 0.00
143, -1100.31, 58331.73, 12416.19, 34947.78, -26413.46, -17367.75, 11187.32, -28466.33, -6154.44, 40287.50, 12657.28, -37306.71, 0.00, 0.00, 0.00, 0.00, 0.00, 0.00, 0.00
144, -1100.31, 58331.73, 12416.19, 34947.78, -26413.46, -17367.75, 11187.32, -28466.33, -6160.52, 40244.76, 12649.97, -37164.47, 0.00, 0.00, 0.00, 0.00, 0.00, 0.00, 0.00
145, -1129.30, 58287.43, 12373.32, 34912.73, -26440.44, -17392.16, 11119.50, -28496.04, -6160.52, 40244.76, 12649.97, -37164.47, 0.00, 0.00, 0.00, 0.00, 0.00, 0.00, 0.00
146, -1129.30, 58287.43, 12373.32, 34912.73, -26440.44, -17392.16, 11119.50, -28496.04, -6151.20, 40290.92, 12662.46, -37212.01, 0.00, 0.00, 0.00, 0.00, 0.00, 0.00, 0.00
147, -1182.74, 58305.44, 12375.96, 34914.74, -26446.20, -17389.59, 11092.77, -28496.66, -6151.20, 40290.92, 12662.46, -37212.01, 0.00, 0.00, 0.00, 0.00, 0.00, 0.00, 0.00
148, -1182.74, 58305.44, 12375.96, 34914.74, -26446.20, -17389.59, 11092.77, -28496.66, -6157.88, 40262.15, 12670.26, -37207.85, 0.00, 0.00, 0.00, 0.00, -0.13, 0.41, 0.91
149, -1112.96, 58296.57, 12353.92, 34895.00, -26472.85, -17404.50, 11057.56, -28532.78, -6157.88, 40262.15, 12670.26, -37207.85, 0.00, 0.00, 0.00, 0.00, 0.00, 0.00, 0.00
150, -1112.96, 58296.57, 12353.92, 34895.00, -26472.85, -17404.50, 11057.56, -28532.78, -6150.10, 40285.89, 12670.89, -37228.84, 0.00, 0.00, 0.00, 0.00, 0.00, 0.00, 0.00
151, -1134.69, 58320.80, 12371.13, 34902.20, -26468.38, -17397.72, 11041.29, -28516.31, -6150.10, 40285.89, 12670.89, -37228.84, 0.00, 0.00, 0.00, 0.00, 0.00, 0.00, 0.00
152, -1134.69, 58320.80, 12371.13, 34902.20, -26468.38, -17397.72, 11041.29, -28516.31, -6147.82, 40278.76, 12685.40, -37192.56, 0.00, 0.00, 0.00, 0.00, 0.00, 0.00, 0.00
153, -1165.96, 58307.27, 12345.34, 34876.97, -26483.55, -17413.97, 11016.97, -28535.98, -6147.82, 40278.76, 12685.40, -37192.56, 0.00, 0.00, 0.00, 0.00, 0.00, 0.00, 0.00
154, -1165.96, 58307.27, 12345.34, 34876.97, -26483.55, -17413.97, 11016.97, -28535.98, -6147.49, 40281.71, 12678.74, -37190.62, 0.00, 0.00, 0.00, 0.00, 0.00, 0.00, 0.00
155, -1055.14, 58344.00, 12354.03, 34886.71, -26475.35, -17404.03, 11038.41, -28511.59, -6147.49, 40281.71, 12678.74, -37190.62, 0.00, 0.00, 0.00, 0.00, 0.00, 0.00, 0.00
156, -1055.14, 58344.00, 12354.03, 34886.71, -26475.35, -17404.03, 11038.41, -28511.59, -6148.36, 40293.71, 12705.54, -37226.11, 0.00, 0.00, 0.00, 0.00, 0.00, 0.00, 0.00
157, -989.82, 58379.00, 12355.13, 34878.31, -26489.81, -17407.22, 11050.50, -28537.90, -6148.36, 40293.71, 12705.54, -37226.11, 0.00, 0.00, 0.00, 0.00, 0.00, 0.00, 0.00
158, -989.82, 58379.00, 12355.13, 34878.31, -26489.81, -17407.22, 11050.50, -28537.90, -6160.52, 40263.56, 12701.51, -37200.39, 0.00, 0.00, 0.00, 0.00, -0.14, 0.41, 0.91
159, -1206.32, 58305.82, 12349.50, 34899.23, -26480.71, -17390.51, 11066.82, -28504.60, -6160.52, 40263.56, 12701.51, -37200.39, 0.00, 0.00, 0.00, 0.00, 0.00, 0.00, 0.00
160, -1206.32, 58305.82, 12349.50, 34899.23, -26480.71, -17390.51, 11066.82, -28504.60, -6149.66, 40284.17, 12742.51, -37196.41, 0.00, 0.00, 0.00, 0.00, 0.00, 0.00, 0.00
161, -1172.89, 58314.27, 12360.49, 34890.56, -26466.10, -17387.15, 11076.38, -28528.85, -6149.66, 40284.17, 12742.51, -37196.41, 0.00, 0.00, 0.00, 0.00, 0.00, 0.00, 0.00
162, -1172.89, 58314.27, 12360.49, 34890.56, -26466.10, -17387.15, 11076.38, -28528.85, -6146.95, 40286.13, 12730.30, -37163.71, 0.00, 0.00, 0.00, 0.00, 0.00, 0.00, 0.00
163, -1150.33, 58348.38, 12352.53, 34887.96, -26478.46, -17382.35, 11085.77, -28510.63, -6146.95, 40286.13, 12730.30, -37163.71, 0.00, 0.00, 0.00, 0.00, 0.00, 0.00, 0.00
164, -1150.33, 58348.38, 12352.53, 34887.96, -26478.46, -17382.35, 11085.77, -28510.63, -6130.97, 40330.77, 12728.00, -37132.73, 0.00, 0.00, 0.00, 0.00, 0.00, 0.00, 0.00
165, -1089.51, 58348.85, 12332.24, 34889.89, -26466.99, -17370.57, 11092.03, -28498.34, -6130.97, 40330.77, 12728.00, -37132.73, 0.00, 0.00, 0.00, 0.00, 0.00, 0.00, 0.00
166, -1089.51, 58348.85, 12332.24, 34889.89, -26466.99, -17370.57, 11092.03, -28498.34, -6140.78, 40302.88, 12727.73, -37135.39, 0.00, 0.00, 0.00, 0.00, 0.00, 0.00, 0.00
167, -1125.88, 58359.04, 12349.92, 34887.07, -26467.66, -17362.12, 11099.07, -28504.13, -6140.78, 40302.88, 12727.73, -37135.39, 0.00, 0.00, 0.00, 0.00, -0.13, 0.41, 0.90
168, -1125.88, 58359.04, 12349.92, 34887.07, -26467.66, -17362.12, 11099.07, -28504.13, -6134.15, 40327.89, 12723.57, -37136.64, 0.00, 0.00, 0.00, 0.00, 0.00, 0.00, 0.00
169, -1108.33, 58332.38, 12293.86, 34869.84, -26482.17, -17376.45, 11089.77, -28500.73, -6134.15, 40327.89, 12723.57, -37136.64, 0.00, 0.00, 0.00, 0.00, 0.00, 0.00, 0.00
170, -1108.33, 58332.38, 12293.86, 34869.84, -26482.17, -17376.45, 11089.77, -28500.73, -6140.58, 40315.73, 12722.01, -37193.75, 0.00, 0.00, 0.00, 0.00, 0.00, 0.00, 0.00
171, -989.85, 58410.92, 12325.82, 34904.35, -26450.85, -17345.98, 11118.83, -28469.53, -6140.58, 40315.73, 12722.01, -37193.75, 0.00, 0.00, 0.00, 0.00, 0.00, 0.00, 0.00
172, -989.85, 58410.92, 12325.82, 34904.35, -26450.85, -17345.98, 11118.83, -28469.53, -6124.18, 40338.41, 12767.92, -37147.86, 0.00, 0.00, 0.00, 0.00, 0.00, 0.00, 0.00
173, -1144.05, 58369.25, 12303.36, 34893.89, -26459.75, -17348.89, 11121.92, -28483.52, -6124.18, 40338.41, 12767.92, -37147.86, 0.00, 0.00, 0.00, 0.00, 0.00, 0.00, 0.00
174, -1144.05, 58369.25, 12303.36, 34893.89, -26459.75, -17348.89, 11121.92, -28483.52, -6151.18, 40291.48, 12740.83, -37179.38, 0.00, 0.00, 0.00, 0.00, 0.00, 0.00, 0.00
175, -1109.67, 58338.99, 12288.05, 34888.39, -26465.45, -17338.98, 11131.06, -28476.08, -6151.18, 40291.48, 12740.83, -37179.38, 0.00, 0.00, 0.00, 0.00, 0.00, 0.00, 0.00
176, -1109.67, 58338.99, 12288.05, 34888.39, -26465.45, -17338.98, 11131.06, -28476.08, -6138.75, 40318.03, 12758.69, -37243.82, 0.00, 0.00, 0.00, 0.00, 0.00, 0.00, 0.00
177, -1111.04, 58356.36, 12288.12, 34890.07, -26466.68, -17338.96, 11134.12, -28474.00, -6138.75, 40318.03, 12758.69, -37243.82, 0.00, 0.00, 0.00, 0.00, -0.13, 0.41, 0.90
178, -1111.04, 58356.36, 12288.12, 34890.07, -26466.68, -17338.96, 11134.12, -28474.00, -6148.81, 40302.81, 12746.13, -37271.40, 0.00, 0.00, 0.00, 0.00, 0.00, 0.00, 0.00
179, -1012.62, 58404.05, 12293.41, 34899.81, -26437.20, -17324.41, 11165.68, -28444.34, -6148.81, 40302.81, 12746.13, -37271.40, 0.00, 0.00, 0.00, 0.00, 0.00, 0.00, 0.00
180, -1012.62, 58404.05, 12293.41, 34899.81, -26437.20, -17324.41, 11165.68, -28444.34, -6120.24, 40355.71, 12772.97, -37213.80, 0.00, 0.00, 0.00, 0.00, 0.00, 0.00, 0.00
181, -1036.72, 58446.97, 12301.04, 34914.12, -26427.96, -17305.32, 11198.09, -28404.69, -6120.24, 40355.71, 12772.97, -37213.80, 0.00, 0.00, 0.00, 0.00, 0.00, 0.00, 0.00
182, -1036.72, 58446.97, 12301.04, 34914.12, -26427.96, -17305.32, 11198.09, -28404.69, -6131.06, 40324.31, 12762.62, -37235.10, 0.00, 0.00, 0.00, 0.00, 0.00, 0.00, 0.00
183, -1166.81, 58355.13, 12266.64, 34898.02, -26430.40, -17304.83, 11216.02, -28390.92, -6131.06, 40324.31, 12762.62, -37235.10, 0.00, 0.00, 0.00, 0.00, 0.00, 0.00, 0.00
184, -1166.81, 58355.13, 12266.64, 34898.02, -26430.40, -17304.83, 11216.02, -28390.92, -6099.28, 40371.47, 12792.26, -37263.78, 0.00, 0.00, 0.00, 0.00, 0.00, 0.00, 0.00
185, -1114.37, 58403.27, 12294.67, 34931.73, -26374.65, -17265.78, 11277.91, -28306.29, -6099.28, 40371.47, 12792.26, -37263.78, 0.00, 0.00, 0.00, 0.00, 0.00, 0.00, 0.00
186, -1114.37, 58403.27, 12294.67, 34931.73, -26374.65, -17265.78, 11277.91, -28306.29, -6104.15, 40373.46, 12786.72, -37232.39, 0.00, 0.00, 0.00, 0.00, 0.00, 0.00, 0.00
187, -1006.66, 58408.04, 12253.00, 34920.20, -26392.89, -17267.84, 11284.88, -28293.64, -6104.15, 40373.46, 12786.72, -37232.39, 0.00, 0.00, 0.00, 0.00, -0.13, 0.41, 0.90
188, -1006.66, 58408.04, 12253.00, 34920.20, -26392.89, -17267.84, 11284.88, -28293.64, -6104.82, 40387.14, 12791.59, -37248.02, 0.00, 0.00, 0.00, 0.00, 0.00, 0.00, 0.00
189, -968.34, 58463.55, 12280.41, 34944.67, -26357.36, -17231.52, 11340.34, -28229.96, -6104.82, 40387.14, 12791.59, -37248.02, 0.00, 0.00, 0.00, 0.00, 0.00, 0.00, 0.00
190, -968.34, 58463.55, 12280.41, 34944.67, -26357.36, -17231.52, 11340.34, -28229.96, -6092.30, 40410.66, 12802.01, -37228.57, 0.00, 0.00, 0.00, 0.00, 0.00, 0.00, 0.00
191, -1169.69, 58380.09, 12260.04, 34936.42, -26363.44, -17232.08, 11347.87, -28220.93, -6092.30, 40410.66, 12802.01, -37228.57, 0.00, 0.00, 0.00, 0.00, 0.00, 0.00, 0.00
192, -1169.69, 58380.09, 12260.04, 34936.42, -26363.44, -17232.08, 11347.87, -28220.93, -6091.41, 40411.42, 12801.02, -37231.88, 0.00, 0.00, 0.00, 0.00, 0.00, 0.00, 0.00
193, -1099.35, 58421.98, 12228.84, 34961.41, -26328.95, -17200.52, 11392.66, -28175.85, -6091.41, 40411.42, 12801.02, -37231.88, 0.00, 0.00, 0.00, 0.00, 0.00, 0.00, 0.00
