%OpenBCI Raw EEG Data
%
%Sample Rate = 250.0 Hz
%First Column = SampleIndex
%Other Columns = EEG data in microvolts followed by Accel Data (in G) interleaved with Aux Data
0, 0.00, 0.00, 0.00, 0.00, 0.00, 0.00, 0.00, 0.00, -2947.55, 43456.91, 12188.54, -34083.35, 0.00, 0.00, 0.00, 0.00, -0.14, 0.41, 0.90
1, 1683.58, 60873.41, 13719.92, 34945.50, -25973.22, -14984.50, 10859.93, -25673.08, -2947.55, 43456.91, 12188.54, -34083.35, 0.00, 0.00, 0.00, 0.00, 0.00, 0.00, 0.00
2, 1683.58, 60873.41, 13719.92, 34945.50, -25973.22, -14984.50, 10859.93, -25673.08, -2713.23, 43743.64, 12232.37, -33165.79, 0.00, 0.00, 0.00, 0.00, 0.00, 0.00, 0.00
3, 1651.19, 60833.31, 13693.19, 34919.08, -26001.69, -15004.68, 10830.98, -25700.64, -2713.23, 43743.64, 12232.37, -33165.79, 0.00, 0.00, 0.00, 0.00, 0.00, 0.00, 0.00
4, 1651.19, 60833.31, 13693.19, 34919.08, -26001.69, -15004.68, 10830.98, -25700.64, -2726.33, 43723.23, 12197.06, -33155.57, 0.00, 0.00, 0.00, 0.00, 0.00, 0.00, 0.00
5, 1647.03, 60848.69, 13708.39, 34935.29, -25986.90, -14988.86, 10850.92, -25681.37, -2726.33, 43723.23, 12197.06, -33155.57, 0.00, 0.00, 0.00, 0.00, 0.00, 0.00, 0.00
6, 1647.03, 60848.69, 13708.39, 34935.29, -25986.90, -14988.86, 10850.92, -25681.37, -2712.34, 43744.75, 12218.60, -33152.11, 0.00, 0.00, 0.00, 0.00, -0.14, 0.42, 0.90
7, 1649.98, 60817.86, 13692.16, 34915.52, -26003.42, -15005.71, 10830.58, -25699.34, -2712.34, 43744.75, 12218.60, -33152.11, 0.00, 0.00, 0.00, 0.00, 0.00, 0.00, 0.00
8, 1649.98, 60817.86, 13692.16, 34915.52, -26003.42, -15005.71, 10830.58, -25699.34, -2723.74, 43720.23, 12190.95, -33172.13, 0.00, 0.00, 0.00, 0.00, 0.00, 0.00, 0.00
9, 1664.18, 60830.25, 13686.75, 34924.20, -25994.70, -14996.81, 10843.34, -25686.09, -2723.74, 43720.23, 12190.95, -33172.13, 0.00, 0.00, 0.00, 0.00, 0.00, 0.00, 0.00
10, 1664.18, 60830.25, 13686.75, 34924.20, -25994.70, -14996.81, 10843.34, -25686.09, -2711.91, 43744.78, 12215.23, -33154.50, 0.00, 0.00, 0.00, 0.00, 0.00, 0.00, 0.00
11, 1661.09, 60854.48, 13685.21, 34914.27, -26009.29, -15005.17, 10828.46, -25700.57, -2711.91, 43744.78, 12215.23, -33154.50, 0.00, 0.00, 0.00, 0.00, 0.00, 0.00, 0.00
12, 1661.09, 60854.48, 13685.21, 34914.27, -26009.29, -15005.17, 10828.46, -25700.57, -2728.37, 43714.64, 12191.69, -33169.72, 0.00, 0.00, 0.00, 0.00, 0.00, 0.00, 0.00
13, 1656.89, 60840.78, 13695.96, 34918.83, -25999.35, -15000.79, 10835.43, -25693.62, -2728.37, 43714.64, 12191.69, -33169.72, 0.00, 0.00, 0.00, 0.00, 0.00, 0.00, 0.00
14, 1656.89, 60840.78, 13695.96, 34918.83, -25999.35, -15000.79, 10835.43, -25693.62, -2709.77, 43745.20, 12217.40, -33157.80, 0.00, 0.00, 0.00, 0.00, 0.00, 0.00, 0.00
15, 1648.24, 60844.44, 13694.91, 34916.98, -26002.59, -15001.86, 10830.94, -25696.15, -2709.77, 43745.20, 12217.40, -33157.80, 0.00, 0.00, 0.00, 0.00, 0.00, 0.00, 0.00
16, 1648.24, 60844.44, 13694.91, 34916.98, -26002.59, -15001.86, 10830.94, -25696.15, -2727.20, 43716.32, 12197.77, -33166.95, 0.00, 0.00, 0.00, 0.00, -0.14, 0.41, 0.90
17, 1643.93, 60824.55, 13697.35, 34916.84, -26003.35, -15002.76, 10830.58, -25695.14, -2727.20, 43716.32, 12197.77, -33166.95, 0.00, 0.00, 0.00, 0.00, 0.00, 0.00, 0.00
18, 1643.93, 60824.55, 13697.35, 34916.84, -26003.35, -15002.76, 10830.58, -25695.14, -2711.27, 43744.20, 12226.40, -33151.93, 0.00, 0.00, 0.00, 0.00, 0.00, 0.00, 0.00
19, 1677.61, 60857.41, 13700.52, 34922.05, -26001.34, -14995.83, 10834.92, -25691.97, -2711.27, 43744.20, 12226.40, -33151.93, 0.00, 0.00, 0.00, 0.00, 0.00, 0.00, 0.00
20, 1677.61, 60857.41, 13700.52, 34922.05, -26001.34, -14995.83, 10834.92, -25691.97, -2721.59, 43719.16, 12208.23, -33169.23, 0.00, 0.00, 0.00, 0.00, 0.00, 0.00, 0.00
21, 1661.07, 60843.52, 13704.10, 34918.77, -26000.84, -15000.99, 10830.89, -25692.32, -2721.59, 43719.16, 12208.23, -33169.23, 0.00, 0.00, 0.00, 0.00, 0.00, 0.00, 0.00
22, 1661.07, 60843.52, 13704.10, 34918.77, -26000.84, -15000.99, 10830.89, -25692.32, -2704.74, 43751.17, 12227.52, -33163.93, 0.00, 0.00, 0.00, 0.00, 0.00, 0.00, 0.00
23, 1663.37, 60852.11, 13712.50, 34933.29, -25991.68, -14989.24, 10846.05, -25678.33, -2704.74, 43751.17, 12227.52, -33163.93, 0.00, 0.00, 0.00, 0.00, 0.00, 0.00, 0.00
24, 1663.37, 60852.11, 13712.50, 34933.29, -25991.68, -14989.24, 10846.05, -25678.33, -2715.02, 43730.02, 12212.84, -33145.33, 0.00, 0.00, 0.00, 0.00, 0.00, 0.00, 0.00
25, 1669.34, 60843.46, 13700.57, 34922.39, -26005.67, -14995.02, 10833.64, -25688.52, -2715.02, 43730.02, 12212.84, -33145.33, 0.00, 0.00, 0.00, 0.00, 0.00, 0.00, 0.00
26, 1669.34, 60843.46, 13700.57, 34922.39, -26005.67, -14995.02, 10833.64, -25688.52, -2697.56, 43757.85, 12234.52, -33134.14, 0.00, 0.00, 0.00, 0.00, -0.14, 0.41, 0.89
27, 1687.33, 60864.87, 13722.38, 34942.19, -25983.75, -14978.44, 10855.46, -25666.44, -2697.56, 43757.85, 12234.52, -33134.14, 0.00, 0.00, 0.00, 0.00, 0.00, 0.00, 0.00
28, 1687.33, 60864.87, 13722.38, 34942.19, -25983.75, -14978.44, 10855.46, -25666.44, -2706.33, 43739.90, 12223.16, -33149.25, 0.00, 0.00, 0.00, 0.00, 0.00, 0.00, 0.00
29, 1668.27, 60868.07, 13713.44, 34923.62, -26007.33, -14995.65, 10830.47, -25690.45, -2706.33, 43739.90, 12223.16, -33149.25, 0.00, 0.00, 0.00, 0.00, 0.00, 0.00, 0.00
30, 1668.27, 60868.07, 13713.44, 34923.62, -26007.33, -14995.65, 10830.47, -25690.45, -2705.50, 43745.74, 12232.46, -33157.23, 0.00, 0.00, 0.00, 0.00, 0.00, 0.00, 0.00
31, 1676.65, 60873.50, 13723.41, 34938.88, -25992.78, -14985.06, 10841.69, -25678.00, -2705.50, 43745.74, 12232.46, -33157.23, 0.00, 0.00, 0.00, 0.00, 0.00, 0.00, 0.00
32, 1676.65, 60873.50, 13723.41, 34938.88, -25992.78, -14985.06, 10841.69, -25678.00, -2717.17, 43722.87, 12222.00, -33158.25, 0.00, 0.00, 0.00, 0.00, 0.00, 0.00, 0.00
33, 1685.28, 60857.94, 13702.40, 34918.88, -26017.59, -15003.38, 10819.94, -25700.01, -2717.17, 43722.87, 12222.00, -33158.25, 0.00, 0.00, 0.00, 0.00, 0.00, 0.00, 0.00
34, 1685.28, 60857.94, 13702.40, 34918.88, -26017.59, -15003.38, 10819.94, -25700.01, -2713.05, 43734.18, 12226.29, -33151.19, 0.00, 0.00, 0.00, 0.00, 0.00, 0.00, 0.00
35, 1691.54, 60884.27, 13720.55, 34939.91, -26001.74, -14984.70, 10840.24, -25679.94, -2713.05, 43734.18, 12226.29, -33151.19, 0.00, 0.00, 0.00, 0.00, 0.00, 0.00, 0.00
36, 1691.54, 60884.27, 13720.55, 34939.91, -26001.74, -14984.70, 10840.24, -25679.94, -2717.86, 43729.18, 12214.20, -33172.29, 0.00, 0.00, 0.00, 0.00, -0.14, 0.41, 0.90
37, 1651.01, 60839.30, 13707.52, 34917.22, -26022.82, -15003.72, 10813.48, -25699.99, -2717.86, 43729.18, 12214.20, -33172.29, 0.00, 0.00, 0.00, 0.00, 0.00, 0.00, 0.00
38, 1651.01, 60839.30, 13707.52, 34917.22, -26022.82, -15003.72, 10813.48, -25699.99, -2712.27, 43740.62, 12210.11, -33138.11, 0.00, 0.00, 0.00, 0.00, 0.00, 0.00, 0.00
39, 1671.15, 60842.61, 13706.63, 34933.79, -26005.65, -14985.37, 10836.77, -25675.11, -2712.27, 43740.62, 12210.11, -33138.11, 0.00, 0.00, 0.00, 0.00, 0.00, 0.00, 0.00
40, 1671.15, 60842.61, 13706.63, 34933.79, -26005.65, -14985.37, 10836.77, -25675.11, -2710.77, 43736.73, 12208.43, -33159.01, 0.00, 0.00, 0.00, 0.00, 0.00, 0.00, 0.00
41, 1655.91, 60832.19, 13688.25, 34911.08, -26033.88, -15006.56, 10810.09, -25698.38, -2710.77, 43736.73, 12208.43, -33159.01, 0.00, 0.00, 0.00, 0.00, 0.00, 0.00, 0.00
42, 1655.91, 60832.19, 13688.25, 34911.08, -26033.88, -15006.56, 10810.09, -25698.38, -2709.19, 43732.19, 12207.92, -33167.04, 0.00, 0.00, 0.00, 0.00, 0.00, 0.00, 0.00
43, 1665.03, 60862.84, 13709.93, 34928.87, -26011.93, -14989.77, 10828.32, -25678.49, -2709.19, 43732.19, 12207.92, -33167.04, 0.00, 0.00, 0.00, 0.00, 0.00, 0.00, 0.00
44, 1665.03, 60862.84, 13709.93, 34928.87, -26011.93, -14989.77, 10828.32, -25678.49, -2713.52, 43732.21, 12212.84, -33152.87, 0.00, 0.00, 0.00, 0.00, 0.00, 0.00, 0.00
45, 1668.20, 60829.09, 13680.92, 34904.33, -26038.93, -15010.40, 10800.61, -25705.40, -2713.52, 43732.21, 12212.84, -33152.87, 0.00, 0.00, 0.00, 0.00, -0.13, 0.41, 0.90
46, 1668.20, 60829.09, 13680.92, 34904.33, -26038.93, -15010.40, 10800.61, -25705.40, -2715.29, 43725.46, 12204.70, -33161.20, 0.00, 0.00, 0.00, 0.00, 0.00, 0.00, 0.00
47, 1677.32, 60866.23, 13711.48, 34929.74, -26018.86, -14991.18, 10822.56, -25680.88, -2715.29, 43725.46, 12204.70, -33161.20, 0.00, 0.00, 0.00, 0.00, 0.00, 0.00, 0.00
48, 1677.32, 60866.23, 13711.48, 34929.74, -26018.86, -14991.18, 10822.56, -25680.88, -2708.83, 43742.05, 12217.40, -33162.54, 0.00, 0.00, 0.00, 0.00, 0.00, 0.00, 0.00
49, 1656.76, 60836.53, 13689.93, 34907.88, -26044.70, -15008.44, 10798.82, -25701.89, -2708.83, 43742.05, 12217.40, -33162.54, 0.00, 0.00, 0.00, 0.00, 0.00, 0.00, 0.00
50, 1656.76, 60836.53, 13689.93, 34907.88, -26044.70, -15008.44, 10798.82, -25701.89, -2711.45, 43729.98, 12208.95, -33169.61, 0.00, 0.00, 0.00, 0.00, 0.00, 0.00, 0.00
51, 1673.65, 60873.68, 13717.78, 34933.77, -26017.36, -14988.36, 10822.13, -25675.65, -2711.45, 43729.98, 12208.95, -33169.61, 0.00, 0.00, 0.00, 0.00, 0.00, 0.00, 0.00
52, 1673.65, 60873.68, 13717.78, 34933.77, -26017.36, -14988.36, 10822.13, -25675.65, -2700.60, 43744.06, 12233.78, -33141.31, 0.00, 0.00, 0.00, 0.00, 0.00, 0.00, 0.00
53, 1685.92, 60870.53, 13701.15, 34915.66, -26038.02, -15002.51, 10801.88, -25696.64, -2700.60, 43744.06, 12233.78, -33141.31, 0.00, 0.00, 0.00, 0.00, 0.00, 0.00, 0.00
54, 1685.92, 60870.53, 13701.15, 34915.66, -26038.02, -15002.51, 10801.88, -25696.64, -2711.83, 43724.04, 12221.24, -33167.55, 0.00, 0.00, 0.00, 0.00, 0.00, 0.00, 0.00
55, 1682.82, 60876.36, 13720.42, 34934.37, -26023.44, -14986.22, 10818.20, -25676.32, -2711.83, 43724.04, 12221.24, -33167.55, 0.00, 0.00, 0.00, 0.00, -0.14, 0.41, 0.90
56, 1682.82, 60876.36, 13720.42, 34934.37, -26023.44, -14986.22, 10818.20, -25676.32, -2700.67, 43751.23, 12239.46, -33165.14, 0.00, 0.00, 0.00, 0.00, 0.00, 0.00, 0.00
57, 1674.50, 60858.05, 13724.24, 34927.68, -26036.27, -14995.99, 10804.99, -25688.97, -2700.67, 43751.23, 12239.46, -33165.14, 0.00, 0.00, 0.00, 0.00, 0.00, 0.00, 0.00
58, 1674.50, 60858.05, 13724.24, 34927.68, -26036.27, -14995.99, 10804.99, -25688.97, -2711.65, 43727.34, 12219.23, -33147.90, 0.00, 0.00, 0.00, 0.00, 0.00, 0.00, 0.00
59, 1682.89, 60862.95, 13716.71, 34932.56, -26025.72, -14991.31, 10813.64, -25678.82, -2711.65, 43727.34, 12219.23, -33147.90, 0.00, 0.00, 0.00, 0.00, 0.00, 0.00, 0.00
60, 1682.89, 60862.95, 13716.71, 34932.56, -26025.72, -14991.31, 10813.64, -25678.82, -2694.86, 43756.42, 12242.07, -33154.01, 0.00, 0.00, 0.00, 0.00, 0.00, 0.00, 0.00
61, 1687.22, 60850.12, 13707.50, 34926.63, -26040.61, -14994.15, 10802.78, -25685.91, -2694.86, 43756.42, 12242.07, -33154.01, 0.00, 0.00, 0.00, 0.00, 0.00, 0.00, 0.00
62, 1687.22, 60850.12, 13707.50, 34926.63, -26040.61, -14994.15, 10802.78, -25685.91, -2713.23, 43729.27, 12214.16, -33159.75, 0.00, 0.00, 0.00, 0.00, 0.00, 0.00, 0.00
63, 1685.99, 60870.28, 13713.80, 34930.77, -26043.42, -14991.34, 10805.95, -25684.01, -2713.23, 43729.27, 12214.16, -33159.75, 0.00, 0.00, 0.00, 0.00, 0.00, 0.00, 0.00
64, 1685.99, 60870.28, 13713.80, 34930.77, -26043.42, -14991.34, 10805.95, -25684.01, -2694.26, 43754.97, 12238.67, -33146.43, 0.00, 0.00, 0.00, 0.00, 0.00, 0.00, 0.00
65, 1676.94, 60869.01, 13707.59, 34926.19, -26045.41, -14994.94, 10799.51, -25687.65, -2694.26, 43754.97, 12238.67, -33146.43, 0.00, 0.00, 0.00, 0.00, -0.13, 0.41, 0.90
66, 1676.94, 60869.01, 13707.59, 34926.19, -26045.41, -14994.94, 10799.51, -25687.65, -2711.11, 43723.74, 12212.30, -33159.17, 0.00, 0.00, 0.00, 0.00, 0.00, 0.00, 0.00
67, 1666.23, 60860.18, 13699.09, 34918.03, -26052.01, -15002.07, 10792.27, -25692.41, -2711.11, 43723.74, 12212.30, -33159.17, 0.00, 0.00, 0.00, 0.00, 0.00, 0.00, 0.00
68, 1666.23, 60860.18, 13699.09, 34918.03, -26052.01, -15002.07, 10792.27, -25692.41, -2695.96, 43750.86, 12224.97, -33158.68, 0.00, 0.00, 0.00, 0.00, 0.00, 0.00, 0.00
69, 1669.25, 60854.99, 13705.22, 34921.58, -26051.94, -14995.29, 10794.95, -25686.29, -2695.96, 43750.86, 12224.97, -33158.68, 0.00, 0.00, 0.00, 0.00, 0.00, 0.00, 0.00
70, 1669.25, 60854.99, 13705.22, 34921.58, -26051.94, -14995.29, 10794.95, -25686.29, -2708.61, 43726.38, 12202.62, -33163.59, 0.00, 0.00, 0.00, 0.00, 0.00, 0.00, 0.00
71, 1666.37, 60852.29, 13698.65, 34916.62, -26067.21, -15003.16, 10785.34, -25698.92, -2708.61, 43726.38, 12202.62, -33163.59, 0.00, 0.00, 0.00, 0.00, 0.00, 0.00, 0.00
72, 1666.37, 60852.29, 13698.65, 34916.62, -26067.21, -15003.16, 10785.34, -25698.92, -2699.17, 43748.42, 12215.27, -33152.91, 0.00, 0.00, 0.00, 0.00, 0.00, 0.00, 0.00
73, 1675.82, 60854.45, 13711.66, 34926.84, -26063.14, -14994.89, 10795.11, -25686.96, -2699.17, 43748.42, 12215.27, -33152.91, 0.00, 0.00, 0.00, 0.00, 0.00, 0.00, 0.00
74, 1675.82, 60854.45, 13711.66, 34926.84, -26063.14, -14994.89, 10795.11, -25686.96, -2708.03, 43729.24, 12205.77, -33162.63, 0.00, 0.00, 0.00, 0.00, 0.00, 0.00, 0.00
75, 1679.02, 60847.28, 13692.61, 34917.22, -26065.75, -15001.66, 10781.30, -25697.38, -2708.03, 43729.24, 12205.77, -33162.63, 0.00, 0.00, 0.00, 0.00, -0.14, 0.41, 0.91
76, 1679.02, 60847.28, 13692.61, 34917.22, -26065.75, -15001.66, 10781.30, -25697.38, -2688.00, 43760.64, 12228.10, -33142.00, 0.00, 0.00, 0.00, 0.00, 0.00, 0.00, 0.00
77, 1703.87, 60896.30, 13725.89, 34947.53, -26040.81, -14974.93, 10812.01, -25667.27, -2688.00, 43760.64, 12228.10, -33142.00, 0.00, 0.00, 0.00, 0.00, 0.00, 0.00, 0.00
78, 1703.87, 60896.30, 13725.89, 34947.53, -26040.81, -14974.93, 10812.01, -25667.27, -2691.69, 43748.66, 12221.62, -33153.20, 0.00, 0.00, 0.00, 0.00, 0.00, 0.00, 0.00
79, 1672.09, 60840.39, 13700.75, 34921.76, -26073.15, -14998.53, 10782.15, -25695.07, -2691.69, 43748.66, 12221.62, -33153.20, 0.00, 0.00, 0.00, 0.00, 0.00, 0.00, 0.00
80, 1672.09, 60840.39, 13700.75, 34921.76, -26073.15, -14998.53, 10782.15, -25695.07, -2687.89, 43759.06, 12220.82, -33126.83, 0.00, 0.00, 0.00, 0.00, 0.00, 0.00, 0.00
81, 1676.09, 60855.19, 13716.71, 34936.29, -26061.39, -14986.13, 10796.85, -25680.30, -2687.89, 43759.06, 12220.82, -33126.83, 0.00, 0.00, 0.00, 0.00, 0.00, 0.00, 0.00
82, 1676.09, 60855.19, 13716.71, 34936.29, -26061.39, -14986.13, 10796.85, -25680.30, -2701.66, 43740.46, 12203.31, -33159.15, 0.00, 0.00, 0.00, 0.00, 0.00, 0.00, 0.00
83, 1665.32, 60834.16, 13687.36, 34908.75, -26092.62, -15012.28, 10766.41, -25710.92, -2701.66, 43740.46, 12203.31, -33159.15, 0.00, 0.00, 0.00, 0.00, 0.00, 0.00, 0.00
84, 1665.32, 60834.16, 13687.36, 34908.75, -26092.62, -15012.28, 10766.41, -25710.92, -2700.34, 43738.29, 12208.50, -33162.05, 0.00, 0.00, 0.00, 0.00, 0.00, 0.00, 0.00
85, 1682.80, 60864.65, 13706.96, 34931.66, -26070.63, -14995.63, 10783.62, -25698.65, -2700.34, 43738.29, 12208.50, -33162.05, 0.00, 0.00, 0.00, 0.00, -0.15, 0.41, 0.90
86, 1682.80, 60864.65, 13706.96, 34931.66, -26070.63, -14995.63, 10783.62, -25698.65, -2703.51, 43726.38, 12210.94, -33182.39, 0.00, 0.00, 0.00, 0.00, 0.00, 0.00, 0.00
87, 1678.75, 60860.89, 13691.74, 34913.91, -26094.70, -15015.19, 10756.31, -25726.57, -2703.51, 43726.38, 12210.94, -33182.39, 0.00, 0.00, 0.00, 0.00, 0.00, 0.00, 0.00
88, 1678.75, 60860.89, 13691.74, 34913.91, -26094.70, -15015.19, 10756.31, -25726.57, -2696.89, 43729.11, 12212.52, -33167.93, 0.00, 0.00, 0.00, 0.00, 0.00, 0.00, 0.00
89, 1697.26, 60881.75, 13715.14, 34932.76, -26076.62, -14997.75, 10776.38, -25704.13, -2696.89, 43729.11, 12212.52, -33167.93, 0.00, 0.00, 0.00, 0.00, 0.00, 0.00, 0.00
90, 1697.26, 60881.75, 13715.14, 34932.76, -26076.62, -14997.75, 10776.38, -25704.13, -2700.25, 43735.59, 12211.81, -33160.55, 0.00, 0.00, 0.00, 0.00, 0.00, 0.00, 0.00
91, 1680.05, 60845.20, 13694.31, 34909.96, -26098.68, -15016.24, 10750.03, -25732.00, -2700.25, 43735.59, 12211.81, -33160.55, 0.00, 0.00, 0.00, 0.00, 0.00, 0.00, 0.00
92, 1680.05, 60845.20, 13694.31, 34909.96, -26098.68, -15016.24, 10750.03, -25732.00, -2706.35, 43723.25, 12201.95, -33183.38, 0.00, 0.00, 0.00, 0.00, 0.00, 0.00, 0.00
93, 1683.98, 60861.16, 13711.30, 34936.25, -26083.46, -14997.44, 10771.06, -25719.62, -2706.35, 43723.25, 12201.95, -33183.38, 0.00, 0.00, 0.00, 0.00, 0.00, 0.00, 0.00
94, 1683.98, 60861.16, 13711.30, 34936.25, -26083.46, -14997.44, 10771.06, -25719.62, -2698.03, 43735.34, 12216.43, -33162.28, 0.00, 0.00, 0.00, 0.00, -0.14, 0.41, 0.91
95, 1666.81, 60842.68, 13693.88, 34910.45, -26108.60, -15019.48, 10739.45, -25748.07, -2698.03, 43735.34, 12216.43, -33162.28, 0.00, 0.00, 0.00, 0.00, 0.00, 0.00, 0.00
96, 1666.81, 60842.68, 13693.88, 34910.45, -26108.60, -15019.48, 10739.45, -25748.07, -2702.53, 43721.69, 12202.82, -33164.15, 0.00, 0.00, 0.00, 0.00, 0.00, 0.00, 0.00
97, 1687.31, 60851.93, 13708.37, 34932.13, -26090.45, -14999.63, 10761.65, -25728.60, -2702.53, 43721.69, 12202.82, -33164.15, 0.00, 0.00, 0.00, 0.00, 0.00, 0.00, 0.00
98, 1687.31, 60851.93, 13708.37, 34932.13, -26090.45, -14999.63, 10761.65, -25728.60, -2693.79, 43736.35, 12221.15, -33179.84, 0.00, 0.00, 0.00, 0.00, 0.00, 0.00, 0.00
99, 1670.77, 60847.75, 13692.37, 34909.36, -26108.65, -15021.53, 10736.66, -25757.79, -2693.79, 43736.35, 12221.15, -33179.84, 0.00, 0.00, 0.00, 0.00, 0.00, 0.00, 0.00
100, 1670.77, 60847.75, 13692.37, 34909.36, -26108.65, -15021.53, 10736.66, -25757.79, -2714.37, 43710.55, 12198.02, -33191.38, 0.00, 0.00, 0.00, 0.00, 0.00, 0.00, 0.00
101, 1688.65, 60868.85, 13705.53, 34928.91, -26094.28, -15004.77, 10759.30, -25743.40, -2714.37, 43710.55, 12198.02, -33191.38, 0.00, 0.00, 0.00, 0.00, 0.00, 0.00, 0.00
102, 1688.65, 60868.85, 13705.53, 34928.91, -26094.28, -15004.77, 10759.30, -25743.40, -2702.37, 43727.92, 12216.19, -33167.48, 0.00, 0.00, 0.00, 0.00, 0.00, 0.00, 0.00
103, 1661.18, 60844.20, 13698.91, 34912.95, -26111.71, -15019.97, 10740.01, -25764.43, -2702.37, 43727.92, 12216.19, -33167.48, 0.00, 0.00, 0.00, 0.00, 0.00, 0.00, 0.00
104, 1661.18, 60844.20, 13698.91, 34912.95, -26111.71, -15019.97, 10740.01, -25764.43, -2716.79, 43706.80, 12196.94, -33181.34, 0.00, 0.00, 0.00, 0.00, -0.14, 0.41, 0.91
105, 1687.53, 60858.95, 13704.46, 34925.89, -26100.33, -15009.26, 10753.31, -25751.94, -2716.79, 43706.80, 12196.94, -33181.34, 0.00, 0.00, 0.00, 0.00, 0.00, 0.00, 0.00
106, 1687.53, 60858.95, 13704.46, 34925.89, -26100.33, -15009.26, 10753.31, -25751.94, -2703.06, 43730.43, 12219.32, -33198.20, 0.00, 0.00, 0.00, 0.00, 0.00, 0.00, 0.00
107, 1685.01, 60860.36, 13704.59, 34918.99, -26103.53, -15015.14, 10747.59, -25763.02, -2703.06, 43730.43, 12219.32, -33198.20, 0.00, 0.00, 0.00, 0.00, 0.00, 0.00, 0.00
108, 1685.01, 60860.36, 13704.59, 34918.99, -26103.53, -15015.14, 10747.59, -25763.02, -2715.18, 43695.76, 12203.45, -33193.21, 0.00, 0.00, 0.00, 0.00, 0.00, 0.00, 0.00
109, 1681.10, 60854.05, 13705.62, 34923.48, -26099.30, -15012.44, 10752.75, -25762.24, -2715.18, 43695.76, 12203.45, -33193.21, 0.00, 0.00, 0.00, 0.00, 0.00, 0.00, 0.00
110, 1681.10, 60854.05, 13705.62, 34923.48, -26099.30, -15012.44, 10752.75, -25762.24, -2704.47, 43727.99, 12222.09, -33168.98, 0.00, 0.00, 0.00, 0.00, 0.00, 0.00, 0.00
111, 1682.77, 60865.16, 13709.06, 34922.97, -26104.85, -15011.77, 10756.04, -25765.57, -2704.47, 43727.99, 12222.09, -33168.98, 0.00, 0.00, 0.00, 0.00, 0.00, 0.00, 0.00
112, 1682.77, 60865.16, 13709.06, 34922.97, -26104.85, -15011.77, 10756.04, -25765.57, -2714.95, 43701.73, 12198.82, -33203.11, 0.00, 0.00, 0.00, 0.00, 0.00, 0.00, 0.00
113, 1691.60, 60867.73, 13708.46, 34924.18, -26104.54, -15014.02, 10751.73, -25767.16, -2714.95, 43701.73, 12198.82, -33203.11, 0.00, 0.00, 0.00, 0.00, 0.00, 0.00, 0.00
114, 1691.60, 60867.73, 13708.46, 34924.18, -26104.54, -15014.02, 10751.73, -25767.16, -2706.28, 43725.55, 12219.30, -33178.01, 0.00, 0.00, 0.00, 0.00, -0.14, 0.41, 0.91
115, 1699.05, 60867.35, 13710.00, 34925.52, -26102.10, -15010.67, 10755.99, -25766.80, -2706.28, 43725.55, 12219.30, -33178.01, 0.00, 0.00, 0.00, 0.00, 0.00, 0.00, 0.00
116, 1699.05, 60867.35, 13710.00, 34925.52, -26102.10, -15010.67, 10755.99, -25766.80, -2717.86, 43696.77, 12201.01, -33188.45, 0.00, 0.00, 0.00, 0.00, 0.00, 0.00, 0.00
117, 1687.47, 60845.22, 13703.45, 34923.53, -26105.76, -15015.41, 10750.16, -25773.06, -2717.86, 43696.77, 12201.01, -33188.45, 0.00, 0.00, 0.00, 0.00, 0.00, 0.00, 0.00
118, 1687.47, 60845.22, 13703.45, 34923.53, -26105.76, -15015.41, 10750.16, -25773.06, -2701.83, 43730.18, 12224.33, -33187.22, 0.00, 0.00, 0.00, 0.00, 0.00, 0.00, 0.00
119, 1698.22, 60864.51, 13716.73, 34933.25, -26097.90, -15006.33, 10764.38, -25761.28, -2701.83, 43730.18, 12224.33, -33187.22, 0.00, 0.00, 0.00, 0.00, 0.00, 0.00, 0.00
120, 1698.22, 60864.51, 13716.73, 34933.25, -26097.90, -15006.33, 10764.38, -25761.28, -2713.26, 43704.86, 12210.78, -33194.64, 0.00, 0.00, 0.00, 0.00, 0.00, 0.00, 0.00
121, 1691.27, 60846.79, 13699.27, 34919.68, -26106.95, -15017.98, 10751.66, -25774.73, -2713.26, 43704.86, 12210.78, -33194.64, 0.00, 0.00, 0.00, 0.00, 0.00, 0.00, 0.00
122, 1691.27, 60846.79, 13699.27, 34919.68, -26106.95, -15017.98, 10751.66, -25774.73, -2704.32, 43722.49, 12226.96, -33183.67, 0.00, 0.00, 0.00, 0.00, 0.00, 0.00, 0.00
123, 1695.94, 60868.20, 13722.25, 34929.63, -26095.91, -15008.82, 10766.92, -25762.55, -2704.32, 43722.49, 12226.96, -33183.67, 0.00, 0.00, 0.00, 0.00, 0.00, 0.00, 0.00
124, 1695.94, 60868.20, 13722.25, 34929.63, -26095.91, -15008.82, 10766.92, -25762.55, -2711.58, 43707.61, 12210.40, -33180.61, 0.00, 0.00, 0.00, 0.00, -0.13, 0.41, 0.90
125, 1677.05, 60856.00, 13702.54, 34918.39, -26109.05, -15019.75, 10750.16, -25775.49, -2711.58, 43707.61, 12210.40, -33180.61, 0.00, 0.00, 0.00, 0.00, 0.00, 0.00, 0.00
126, 1677.05, 60856.00, 13702.54, 34918.39, -26109.05, -15019.75, 10750.16, -25775.49, -2700.74, 43725.09, 12225.44, -33189.63, 0.00, 0.00, 0.00, 0.00, 0.00, 0.00, 0.00
127, 1694.78, 60859.04, 13717.78, 34931.57, -26093.36, -15007.25, 10769.52, -25761.19, -2700.74, 43725.09, 12225.44, -33189.63, 0.00, 0.00, 0.00, 0.00, 0.00, 0.00, 0.00
128, 1694.78, 60859.04, 13717.78, 34931.57, -26093.36, -15007.25, 10769.52, -25761.19, -2710.46, 43708.28, 12215.97, -33181.77, 0.00, 0.00, 0.00, 0.00, 0.00, 0.00, 0.00
129, 1696.07, 60843.73, 13699.32, 34914.79, -26114.39, -15024.13, 10751.30, -25779.81, -2710.46, 43708.28, 12215.97, -33181.77, 0.00, 0.00, 0.00, 0.00, 0.00, 0.00, 0.00
130, 1696.07, 60843.73, 13699.32, 34914.79, -26114.39, -15024.13, 10751.30, -25779.81, -2706.33, 43717.17, 12221.17, -33186.13, 0.00, 0.00, 0.00, 0.00, 0.00, 0.00, 0.00
131, 1708.43, 60874.32, 13720.68, 34931.04, -26096.04, -15011.16, 10767.10, -25764.72, -2706.33, 43717.17, 12221.17, -33186.13, 0.00, 0.00, 0.00, 0.00, 0.00, 0.00, 0.00
132, 1708.43, 60874.32, 13720.68, 34931.04, -26096.04, -15011.16, 10767.10, -25764.72, -2708.87, 43708.19, 12212.90, -33189.32, 0.00, 0.00, 0.00, 0.00, 0.00, 0.00, 0.00
133, 1676.34, 60829.69, 13697.24, 34913.34, -26119.40, -15028.42, 10747.03, -25785.78, -2708.87, 43708.19, 12212.90, -33189.32, 0.00, 0.00, 0.00, 0.00, -0.14, 0.41, 0.90
134, 1676.34, 60829.69, 13697.24, 34913.34, -26119.40, -15028.42, 10747.03, -25785.78, -2707.67, 43716.84, 12212.88, -33179.55, 0.00, 0.00, 0.00, 0.00, 0.00, 0.00, 0.00
135, 1708.05, 60859.15, 13716.64, 34932.56, -26099.84, -15009.44, 10772.62, -25762.51, -2707.67, 43716.84, 12212.88, -33179.55, 0.00, 0.00, 0.00, 0.00, 0.00, 0.00, 0.00
136, 1708.05, 60859.15, 13716.64, 34932.56, -26099.84, -15009.44, 10772.62, -25762.51, -2704.02, 43714.63, 12221.11, -33192.72, 0.00, 0.00, 0.00, 0.00, 0.00, 0.00, 0.00
137, 1695.58, 60857.00, 13706.16, 34912.30, -26113.36, -15027.37, 10752.75, -25782.07, -2704.02, 43714.63, 12221.11, -33192.72, 0.00, 0.00, 0.00, 0.00, 0.00, 0.00, 0.00
138, 1695.58, 60857.00, 13706.16, 34912.30, -26113.36, -15027.37, 10752.75, -25782.07, -2699.73, 43717.89, 12224.66, -33180.54, 0.00, 0.00, 0.00, 0.00, 0.00, 0.00, 0.00
139, 1712.01, 60880.88, 13726.56, 34939.08, -26086.99, -15008.50, 10780.02, -25757.05, -2699.73, 43717.89, 12224.66, -33180.54, 0.00, 0.00, 0.00, 0.00, 0.00, 0.00, 0.00
140, 1712.01, 60880.88, 13726.56, 34939.08, -26086.99, -15008.50, 10780.02, -25757.05, -2695.24, 43722.58, 12235.57, -33180.29, 0.00, 0.00, 0.00, 0.00, 0.00, 0.00, 0.00
141, 1689.52, 60853.85, 13714.94, 34919.17, -26106.21, -15024.01, 10757.78, -25777.82, -2695.24, 43722.58, 12235.57, -33180.29, 0.00, 0.00, 0.00, 0.00, 0.00, 0.00, 0.00
142, 1689.52, 60853.85, 13714.94, 34919.17, -26106.21, -15024.01, 10757.78, -25777.82, -2698.48, 43715.50, 12233.78, -33172.49, 0.00, 0.00, 0.00, 0.00, 0.00, 0.00, 0.00
143, 1713.19, 60896.16, 13730.39, 34942.10, -26086.72, -15006.18, 10783.49, -25753.37, -2698.48, 43715.50, 12233.78, -33172.49, 0.00, 0.00, 0.00, 0.00, -0.14, 0.41, 0.89
144, 1713.19, 60896.16, 13730.39, 34942.10, -26086.72, -15006.18, 10783.49, -25753.37, -2693.21, 43729.76, 12245.49, -33180.20, 0.00, 0.00, 0.00, 0.00, 0.00, 0.00, 0.00
145, 1705.75, 60856.64, 13723.05, 34922.12, -26102.77, -15022.70, 10766.59, -25774.62, -2693.21, 43729.76, 12245.49, -33180.20, 0.00, 0.00, 0.00, 0.00, 0.00, 0.00, 0.00
146, 1705.75, 60856.64, 13723.05, 34922.12, -26102.77, -15022.70, 10766.59, -25774.62, -2699.04, 43715.25, 12231.39, -33181.84, 0.00, 0.00, 0.00, 0.00, 0.00, 0.00, 0.00
147, 1727.48, 60866.93, 13733.72, 34941.65, -26086.52, -15009.38, 10783.96, -25758.35, -2699.04, 43715.25, 12231.39, -33181.84, 0.00, 0.00, 0.00, 0.00, 0.00, 0.00, 0.00
148, 1727.48, 60866.93, 13733.72, 34941.65, -26086.52, -15009.38, 10783.96, -25758.35, -2692.00, 43729.98, 12242.92, -33160.45, 0.00, 0.00, 0.00, 0.00, 0.00, 0.00, 0.00
149, 1694.04, 60862.99, 13725.27, 34928.29, -26097.74, -15020.06, 10769.63, -25772.54, -2692.00, 43729.98, 12242.92, -33160.45, 0.00, 0.00, 0.00, 0.00, 0.00, 0.00, 0.00
150, 1694.04, 60862.99, 13725.27, 34928.29, -26097.74, -15020.06, 10769.63, -25772.54, -2695.42, 43716.17, 12228.24, -33178.39, 0.00, 0.00, 0.00, 0.00, 0.00, 0.00, 0.00
151, 1705.80, 60878.17, 13726.05, 34942.05, -26086.32, -15008.44, 10783.58, -25758.19, -2695.42, 43716.17, 12228.24, -33178.39, 0.00, 0.00, 0.00, 0.00, 0.00, 0.00, 0.00
152, 1705.80, 60878.17, 13726.05, 34942.05, -26086.32, -15008.44, 10783.58, -25758.19, -2691.62, 43729.93, 12236.15, -33181.48, 0.00, 0.00, 0.00, 0.00, 0.00, 0.00, 0.00
153, 1698.33, 60852.51, 13711.43, 34924.58, -26104.58, -15026.23, 10768.56, -25773.44, -2691.62, 43729.93, 12236.15, -33181.48, 0.00, 0.00, 0.00, 0.00, -0.14, 0.41, 0.90
154, 1698.33, 60852.51, 13711.43, 34924.58, -26104.58, -15026.23, 10768.56, -25773.44, -2702.57, 43713.33, 12219.92, -33178.70, 0.00, 0.00, 0.00, 0.00, 0.00, 0.00, 0.00
155, 1721.40, 60881.39, 13723.59, 34935.29, -26094.19, -15018.54, 10780.33, -25763.42, -2702.57, 43713.33, 12219.92, -33178.70, 0.00, 0.00, 0.00, 0.00, 0.00, 0.00, 0.00
156, 1721.40, 60881.39, 13723.59, 34935.29, -26094.19, -15018.54, 10780.33, -25763.42, -2698.62, 43719.38, 12235.63, -33177.90, 0.00, 0.00, 0.00, 0.00, 0.00, 0.00, 0.00
157, 1705.48, 60877.57, 13723.39, 34927.57, -26101.12, -15024.98, 10770.54, -25777.44, -2698.62, 43719.38, 12235.63, -33177.90, 0.00, 0.00, 0.00, 0.00, 0.00, 0.00, 0.00
158, 1705.48, 60877.57, 13723.39, 34927.57, -26101.12, -15024.98, 10770.54, -25777.44, -2710.15, 43700.03, 12216.61, -33191.31, 0.00, 0.00, 0.00, 0.00, 0.00, 0.00, 0.00
159, 1717.08, 60877.05, 13727.64, 34930.55, -26096.24, -15022.76, 10778.88, -25769.79, -2710.15, 43700.03, 12216.61, -33191.31, 0.00, 0.00, 0.00, 0.00, 0.00, 0.00, 0.00
160, 1717.08, 60877.05, 13727.64, 34930.55, -26096.24, -15022.76, 10778.88, -25769.79, -2692.16, 43727.32, 12242.52, -33186.77, 0.00, 0.00, 0.00, 0.00, 0.00, 0.00, 0.00
161, 1711.38, 60877.81, 13732.06, 34935.06, -26092.60, -15022.38, 10778.91, -25768.81, -2692.16, 43727.32, 12242.52, -33186.77, 0.00, 0.00, 0.00, 0.00, 0.00, 0.00, 0.00
162, 1711.38, 60877.81, 13732.06, 34935.06, -26092.60, -15022.38, 10778.91, -25768.81, -2698.28, 43708.63, 12227.72, -33176.83, 0.00, 0.00, 0.00, 0.00, 0.00, 0.00, 0.00
163, 1716.01, 60887.51, 13725.98, 34930.37, -26093.34, -15024.75, 10780.45, -25766.60, -2698.28, 43708.63, 12227.72, -33176.83, 0.00, 0.00, 0.00, 0.00, -0.14, 0.41, 0.90
164, 1716.01, 60887.51, 13725.98, 34930.37, -26093.34, -15024.75, 10780.45, -25766.60, -2692.11, 43732.50, 12240.58, -33174.66, 0.00, 0.00, 0.00, 0.00, 0.00, 0.00, 0.00
165, 1730.45, 60881.01, 13729.76, 34933.32, -26089.76, -15021.51, 10783.80, -25763.76, -2692.11, 43732.50, 12240.58, -33174.66, 0.00, 0.00, 0.00, 0.00, 0.00, 0.00, 0.00
166, 1730.45, 60881.01, 13729.76, 34933.32, -26089.76, -15021.51, 10783.80, -25763.76, -2696.69, 43708.54, 12230.23, -33189.93, 0.00, 0.00, 0.00, 0.00, 0.00, 0.00, 0.00
167, 1698.29, 60883.07, 13725.69, 34927.13, -26098.50, -15028.42, 10781.50, -25770.15, -2696.69, 43708.54, 12230.23, -33189.93, 0.00, 0.00, 0.00, 0.00, 0.00, 0.00, 0.00
168, 1698.29, 60883.07, 13725.69, 34927.13, -26098.50, -15028.42, 10781.50, -25770.15, -2681.02, 43729.53, 12253.99, -33171.06, 0.00, 0.00, 0.00, 0.00, 0.00, 0.00, 0.00
169, 1733.02, 60884.92, 13729.40, 34934.30, -26080.28, -15019.95, 10792.11, -25756.32, -2681.02, 43729.53, 12253.99, -33171.06, 0.00, 0.00, 0.00, 0.00, 0.00, 0.00, 0.00
170, 1733.02, 60884.92, 13729.40, 34934.30, -26080.28, -15019.95, 10792.11, -25756.32, -2693.41, 43709.35, 12237.00, -33185.54, 0.00, 0.00, 0.00, 0.00, 0.00, 0.00, 0.00
171, 1706.40, 60875.27, 13726.94, 34927.30, -26091.82, -15029.42, 10782.48, -25768.61, -2693.41, 43709.35, 12237.00, -33185.54, 0.00, 0.00, 0.00, 0.00, 0.00, 0.00, 0.00
172, 1706.40, 60875.27, 13726.94, 34927.30, -26091.82, -15029.42, 10782.48, -25768.61, -2680.33, 43731.12, 12249.36, -33177.74, 0.00, 0.00, 0.00, 0.00, -0.14, 0.41, 0.90
173, 1713.93, 60890.46, 13734.83, 34933.05, -26082.61, -15021.76, 10794.71, -25758.80, -2680.33, 43731.12, 12249.36, -33177.74, 0.00, 0.00, 0.00, 0.00, 0.00, 0.00, 0.00
174, 1713.93, 60890.46, 13734.83, 34933.05, -26082.61, -15021.76, 10794.71, -25758.80, -2690.79, 43710.91, 12237.16, -33186.84, 0.00, 0.00, 0.00, 0.00, 0.00, 0.00, 0.00
175, 1699.31, 60882.02, 13725.74, 34920.35, -26098.37, -15036.73, 10780.00, -25778.09, -2690.79, 43710.91, 12237.16, -33186.84, 0.00, 0.00, 0.00, 0.00, 0.00, 0.00, 0.00
176, 1699.31, 60882.02, 13725.74, 34920.35, -26098.37, -15036.73, 10780.00, -25778.09, -2685.58, 43725.87, 12240.89, -33172.67, 0.00, 0.00, 0.00, 0.00, 0.00, 0.00, 0.00
177, 1721.13, 60875.60, 13732.20, 34935.64, -26083.32, -15022.03, 10794.62, -25760.61, -2685.58, 43725.87, 12240.89, -33172.67, 0.00, 0.00, 0.00, 0.00, 0.00, 0.00, 0.00
178, 1721.13, 60875.60, 13732.20, 34935.64, -26083.32, -15022.03, 10794.62, -25760.61, -2690.37, 43712.55, 12238.81, -33186.86, 0.00, 0.00, 0.00, 0.00, 0.00, 0.00, 0.00
179, 1721.02, 60872.94, 13726.23, 34922.68, -26101.34, -15036.42, 10778.79, -25776.52, -2690.37, 43712.55, 12238.81, -33186.86, 0.00, 0.00, 0.00, 0.00, 0.00, 0.00, 0.00
180, 1721.02, 60872.94, 13726.23, 34922.68, -26101.34, -15036.42, 10778.79, -25776.52, -2688.83, 43722.00, 12238.45, -33183.06, 0.00, 0.00, 0.00, 0.00, 0.00, 0.00, 0.00
181, 1733.69, 60879.36, 13737.92, 34942.14, -26082.36, -15019.43, 10800.92, -25758.44, -2688.83, 43722.00, 12238.45, -33183.06, 0.00, 0.00, 0.00, 0.00, 0.00, 0.00, 0.00
182, 1733.69, 60879.36, 13737.92, 34942.14, -26082.36, -15019.43, 10800.92, -25758.44, -2686.50, 43720.86, 12243.01, -33185.19, 0.00, 0.00, 0.00, 0.00, -0.14, 0.41, 0.90
183, 1716.12, 60882.53, 13727.86, 34920.06, -26096.29, -15038.88, 10785.14, -25773.66, -2686.50, 43720.86, 12243.01, -33185.19, 0.00, 0.00, 0.00, 0.00, 0.00, 0.00, 0.00
184, 1716.12, 60882.53, 13727.86, 34920.06, -26096.29, -15038.88, 10785.14, -25773.66, -2682.81, 43725.75, 12244.51, -33168.45, 0.00, 0.00, 0.00, 0.00, 0.00, 0.00, 0.00
185, 1731.52, 60899.83, 13746.90, 34939.42, -26079.50, -15023.84, 10801.97, -25757.23, -2682.81, 43725.75, 12244.51, -33168.45, 0.00, 0.00, 0.00, 0.00, 0.00, 0.00, 0.00
186, 1731.52, 60899.83, 13746.90, 34939.42, -26079.50, -15023.84, 10801.97, -25757.23, -2690.23, 43712.57, 12245.29, -33186.44, 0.00, 0.00, 0.00, 0.00, 0.00, 0.00, 0.00
187, 1707.45, 60872.92, 13726.03, 34913.98, -26105.92, -15047.93, 10772.96, -25789.38, -2690.23, 43712.57, 12245.29, -33186.44, 0.00, 0.00, 0.00, 0.00, 0.00, 0.00, 0.00
188, 1707.45, 60872.92, 13726.03, 34913.98, -26105.92, -15047.93, 10772.96, -25789.38, -2692.56, 43711.29, 12238.18, -33188.54, 0.00, 0.00, 0.00, 0.00, 0.00, 0.00, 0.00
189, 1735.26, 60907.38, 13740.22, 34936.29, -26085.54, -15029.45, 10800.74, -25760.27, -2692.56, 43711.29, 12238.18, -33188.54, 0.00, 0.00, 0.00, 0.00, 0.00, 0.00, 0.00
190, 1735.26, 60907.38, 13740.22, 34936.29, -26085.54, -15029.45, 10800.74, -25760.27, -2685.58, 43717.06, 12254.75, -33189.95, 0.00, 0.00, 0.00, 0.00, 0.00, 0.00, 0.00
191, 1734.38, 60888.03, 13731.32, 34918.48, -26096.73, -15045.58, 10779.55, -25785.42, -2685.58, 43717.06, 12254.75, -33189.95, 0.00, 0.00, 0.00, 0.00, 0.00, 0.00, 0.00
192, 1734.38, 60888.03, 13731.32, 34918.48, -26096.73, -15045.58, 10779.55, -25785.42, -2690.75, 43709.48, 12242.27, -33179.35, 0.00, 0.00, 0.00, 0.00, -0.14, 0.41, 0.91
193, 1737.58, 60905.55, 13743.46, 34932.67, -26082.50, -15032.60, 10798.08, -25762.02, -2690.75, 43709.48, 12242.27, -33179.35, 0.00, 0.00, 0.00, 0.00, 0.00, 0.00, 0.00
194, 1737.58, 60905.55, 13743.46, 34932.67, -26082.50, -15032.60, 10798.08, -25762.02, -2685.29, 43716.95, 12249.00, -33187.87, 0.00, 0.00, 0.00, 0.00, 0.00, 0.00, 0.00
195, 1729.15, 60892.72, 13743.77, 34956.16, -26095.26, -15035.73, 10785.01, -25784.30, -2685.29, 43716.95, 12249.00, -33187.87, 0.00, 0.00, 0.00, 0.00, 0.00, 0.00, 0.00
196, 1729.15, 60892.72, 13743.77, 34956.16, -26095.26, -15035.73, 10785.01, -25784.30, -2683.51, 43708.72, 12280.32, -33199.09, 0.00, 0.00, 0.00, 0.00, 0.00, 0.00, 0.00
197, 1727.05, 60913.13, 13771.33, 34954.35, -26061.13, -15028.11, 10813.24, -25756.34, -2683.51, 43708.72, 12280.32, -33199.09, 0.00, 0.00, 0.00, 0.00, 0.00, 0.00, 0.00
198, 1727.05, 60913.13, 13771.33, 34954.35, -26061.13, -15028.11, 10813.24, -25756.34, -2672.82, 43726.47, 12239.66, -33187.29, 0.00, 0.00, 0.00, 0.00, 0.00, 0.00, 0.00
199, 1684.09, 60859.68, 13709.08, 34898.34, -26088.78, -15053.12, 10786.84, -25775.36, -2672.82, 43726.47, 12239.66, -33187.29, 0.00, 0.00, 0.00, 0.00, 0.00, 0.00, 0.00
200, 1684.09, 60859.68, 13709.08, 34898.34, -26088.78, -15053.12, 10786.84, -25775.36, -2669.69, 43722.89, 12189.63, -33176.07, 0.00, 0.00, 0.00, 0.00, 0.00, 0.00, 0.00
201, 1661.47, 60857.16, 13702.22, 34917.36, -26079.90, -15037.09, 10809.97, -25754.42, -2669.69, 43722.89, 12189.63, -33176.07, 0.00, 0.00, 0.00, 0.00, 0.00, 0.00, 0.00
202, 1661.47, 60857.16, 13702.22, 34917.36, -26079.90, -15037.09, 10809.97, -25754.42, -2656.35, 43737.85, 12190.31, -33182.44, 0.00, 0.00, 0.00, 0.00, -0.14, 0.41, 0.90
203, 1618.53, 60834.32, 13668.07, 34897.15, -26067.92, -15044.74, 10806.60, -25761.01, -2656.35, 43737.85, 12190.31, -33182.44, 0.00, 0.00, 0.00, 0.00, 0.00, 0.00, 0.00
204, 1618.53, 60834.32, 13668.07, 34897.15, -26067.92, -15044.74, 10806.60, -25761.01, -2659.32, 43722.89, 12084.00, -33186.44, 0.00, 0.00, 0.00, 0.00, 0.00, 0.00, 0.00
205, 1572.04, 60772.54, 13628.57, 34898.05, -26069.35, -15042.95, 10815.88, -25747.98, -2659.32, 43722.89, 12084.00, -33186.44, 0.00, 0.00, 0.00, 0.00, 0.00, 0.00, 0.00
206, 1572.04, 60772.54, 13628.57, 34898.05, -26069.35, -15042.95, 10815.88, -25747.98, -2640.61, 43746.81, 12033.44, -33168.67, 0.00, 0.00, 0.00, 0.00, 0.00, 0.00, 0.00
207, 1532.75, 60746.32, 13589.30, 34898.31, -26066.58, -15040.53, 10822.94, -25745.21, -2640.61, 43746.81, 12033.44, -33168.67, 0.00, 0.00, 0.00, 0.00, 0.00, 0.00, 0.00
208, 1532.75, 60746.32, 13589.30, 34898.31, -26066.58, -15040.53, 10822.94, -25745.21, -2642.13, 43732.19, 11935.83, -33170.84, 0.00, 0.00, 0.00, 0.00, 0.00, 0.00, 0.00
209, 1495.53, 60721.11, 13564.58, 34917.54, -26046.98, -15031.12, 10836.26, -25731.42, -2642.13, 43732.19, 11935.83, -33170.84, 0.00, 0.00, 0.00, 0.00, 0.00, 0.00, 0.00
210, 1495.53, 60721.11, 13564.58, 34917.54, -26046.98, -15031.12, 10836.26, -25731.42, -2621.86, 43763.60, 11913.43, -33166.28, 0.00, 0.00, 0.00, 0.00, 0.00, 0.00, 0.00
211, 1450.78, 60694.51, 13536.95, 34899.68, -26048.57, -15033.18, 10837.35, -25728.69, -2621.86, 43763.60, 11913.43, -33166.28, 0.00, 0.00, 0.00, 0.00, -0.14, 0.41, 0.90
212, 1450.78, 60694.51, 13536.95, 34899.68, -26048.57, -15033.18, 10837.35, -25728.69, -2620.63, 43749.27, 11886.46, -33163.62, 0.00, 0.00, 0.00, 0.00, 0.00, 0.00, 0.00
213, 1433.44, 60701.28, 13536.77, 34919.13, -26049.17, -15030.30, 10843.19, -25723.88, -2620.63, 43749.27, 11886.46, -33163.62, 0.00, 0.00, 0.00, 0.00, 0.00, 0.00, 0.00
214, 1433.44, 60701.28, 13536.77, 34919.13, -26049.17, -15030.30, 10843.19, -25723.88, -2609.32, 43770.86, 11936.55, -33142.03, 0.00, 0.00, 0.00, 0.00, 0.00, 0.00, 0.00
215, 1435.61, 60712.14, 13562.57, 34912.46, -26044.10, -15028.02, 10849.49, -25718.43, -2609.32, 43770.86, 11936.55, -33142.03, 0.00, 0.00, 0.00, 0.00, 0.00, 0.00, 0.00
216, 1435.61, 60712.14, 13562.57, 34912.46, -26044.10, -15028.02, 10849.49, -25718.43, -2616.96, 43749.98, 11969.72, -33163.04, 0.00, 0.00, 0.00, 0.00, 0.00, 0.00, 0.00
217, 1459.88, 60725.53, 13562.81, 34885.98, -26055.05, -15039.59, 10841.98, -25724.49, -2616.96, 43749.98, 11969.72, -33163.04, 0.00, 0.00, 0.00, 0.00, 0.00, 0.00, 0.00
218, 1459.88, 60725.53, 13562.81, 34885.98, -26055.05, -15039.59, 10841.98, -25724.49, -2603.31, 43769.99, 12048.28, -33167.55, 0.00, 0.00, 0.00, 0.00, 0.00, 0.00, 0.00
219, 1491.24, 60726.45, 13581.43, 34876.23, -26059.88, -15044.47, 10842.07, -25726.54, -2603.31, 43769.99, 12048.28, -33167.55, 0.00, 0.00, 0.00, 0.00, 0.00, 0.00, 0.00
220, 1491.24, 60726.45, 13581.43, 34876.23, -26059.88, -15044.47, 10842.07, -25726.54, -2612.29, 43747.39, 12092.38, -33159.21, 0.00, 0.00, 0.00, 0.00, 0.00, 0.00, 0.00
221, 1500.67, 60750.43, 13606.80, 34859.02, -26071.41, -15052.71, 10833.51, -25736.47, -2612.29, 43747.39, 12092.38, -33159.21, 0.00, 0.00, 0.00, 0.00, -0.14, 0.41, 0.90
222, 1500.67, 60750.43, 13606.80, 34859.02, -26071.41, -15052.71, 10833.51, -25736.47, -2605.61, 43765.16, 12151.59, -33154.74, 0.00, 0.00, 0.00, 0.00, 0.00, 0.00, 0.00
223, 1529.89, 60783.18, 13631.81, 34861.14, -26059.38, -15044.62, 10847.32, -25718.21, -2605.61, 43765.16, 12151.59, -33154.74, 0.00, 0.00, 0.00, 0.00, 0.00, 0.00, 0.00
224, 1529.89, 60783.18, 13631.81, 34861.14, -26059.38, -15044.62, 10847.32, -25718.21, -2605.63, 43753.09, 12172.80, -33172.78, 0.00, 0.00, 0.00, 0.00, 0.00, 0.00, 0.00
225, 1561.69, 60805.39, 13639.08, 34847.31, -26072.21, -15057.83, 10832.48, -25733.09, -2605.63, 43753.09, 12172.80, -33172.78, 0.00, 0.00, 0.00, 0.00, 0.00, 0.00, 0.00
226, 1561.69, 60805.39, 13639.08, 34847.31, -26072.21, -15057.83, 10832.48, -25733.09, -2600.51, 43767.80, 12226.78, -33158.79, 0.00, 0.00, 0.00, 0.00, 0.00, 0.00, 0.00
227, 1568.65, 60821.80, 13668.34, 34853.50, -26059.14, -15049.38, 10847.57, -25720.35, -2600.51, 43767.80, 12226.78, -33158.79, 0.00, 0.00, 0.00, 0.00, 0.00, 0.00, 0.00
228, 1568.65, 60821.80, 13668.34, 34853.50, -26059.14, -15049.38, 10847.57, -25720.35, -2605.81, 43754.86, 12226.92, -33169.16, 0.00, 0.00, 0.00, 0.00, 0.00, 0.00, 0.00
229, 1573.07, 60810.63, 13651.80, 34816.06, -26084.57, -15070.69, 10827.30, -25737.96, -2605.81, 43754.86, 12226.92, -33169.16, 0.00, 0.00, 0.00, 0.00, 0.00, 0.00, 0.00
230, 1573.07, 60810.63, 13651.80, 34816.06, -26084.57, -15070.69, 10827.30, -25737.96, -2597.36, 43768.60, 12269.30, -33148.44, 0.00, 0.00, 0.00, 0.00, 0.00, 0.00, 0.00
231, 1605.77, 60836.02, 13683.94, 34841.61, -26059.61, -15054.23, 10848.40, -25718.25, -2597.36, 43768.60, 12269.30, -33148.44, 0.00, 0.00, 0.00, 0.00, -0.14, 0.41, 0.90
232, 1605.77, 60836.02, 13683.94, 34841.61, -26059.61, -15054.23, 10848.40, -25718.25, -2607.42, 43756.76, 12280.07, -33164.18, 0.00, 0.00, 0.00, 0.00, 0.00, 0.00, 0.00
233, 1602.60, 60822.78, 13672.25, 34822.99, -26081.94, -15070.33, 10829.26, -25738.39, -2607.42, 43756.76, 12280.07, -33164.18, 0.00, 0.00, 0.00, 0.00, 0.00, 0.00, 0.00
234, 1602.60, 60822.78, 13672.25, 34822.99, -26081.94, -15070.33, 10829.26, -25738.39, -2610.86, 43757.47, 12287.71, -33162.01, 0.00, 0.00, 0.00, 0.00, 0.00, 0.00, 0.00
235, 1627.65, 60852.38, 13694.26, 34835.46, -26066.60, -15061.28, 10845.20, -25723.75, -2610.86, 43757.47, 12287.71, -33162.01, 0.00, 0.00, 0.00, 0.00, 0.00, 0.00, 0.00
236, 1627.65, 60852.38, 13694.26, 34835.46, -26066.60, -15061.28, 10845.20, -25723.75, -2612.43, 43757.61, 12303.38, -33170.32, 0.00, 0.00, 0.00, 0.00, 0.00, 0.00, 0.00
237, 1621.28, 60845.38, 13692.92, 34819.52, -26082.05, -15075.38, 10827.97, -25738.53, -2612.43, 43757.61, 12303.38, -33170.32, 0.00, 0.00, 0.00, 0.00, 0.00, 0.00, 0.00
238, 1621.28, 60845.38, 13692.92, 34819.52, -26082.05, -15075.38, 10827.97, -25738.53, -2611.31, 43759.21, 12314.20, -33161.67, 0.00, 0.00, 0.00, 0.00, 0.00, 0.00, 0.00
239, 1641.56, 60865.88, 13717.69, 34836.94, -26060.43, -15059.80, 10850.23, -25717.87, -2611.31, 43759.21, 12314.20, -33161.67, 0.00, 0.00, 0.00, 0.00, 0.00, 0.00, 0.00
240, 1641.56, 60865.88, 13717.69, 34836.94, -26060.43, -15059.80, 10850.23, -25717.87, -2605.77, 43762.50, 12336.91, -33147.77, 0.00, 0.00, 0.00, 0.00, 0.00, 0.00, 0.00
241, 1642.90, 60861.68, 13713.67, 34826.45, -26071.99, -15072.07, 10835.46, -25731.46, -2605.77, 43762.50, 12336.91, -33147.77, 0.00, 0.00, 0.00, 0.00, -0.15, 0.40, 0.90
242, 1642.90, 60861.68, 13713.67, 34826.45, -26071.99, -15072.07, 10835.46, -25731.46, -2609.07, 43760.33, 12337.58, -33151.46, 0.00, 0.00, 0.00, 0.00, 0.00, 0.00, 0.00
243, 1660.51, 60888.07, 13726.72, 34839.04, -26057.73, -15060.58, 10856.20, -25709.85, -2609.07, 43760.33, 12337.58, -33151.46, 0.00, 0.00, 0.00, 0.00, 0.00, 0.00, 0.00
244, 1660.51, 60888.07, 13726.72, 34839.04, -26057.73, -15060.58, 10856.20, -25709.85, -2604.51, 43771.04, 12347.21, -33155.93, 0.00, 0.00, 0.00, 0.00, 0.00, 0.00, 0.00
245, 1652.38, 60874.26, 13713.96, 34819.79, -26071.23, -15076.61, 10838.90, -25728.47, -2604.51, 43771.04, 12347.21, -33155.93, 0.00, 0.00, 0.00, 0.00, 0.00, 0.00, 0.00
246, 1652.38, 60874.26, 13713.96, 34819.79, -26071.23, -15076.61, 10838.90, -25728.47, -2611.33, 43756.94, 12335.77, -33157.87, 0.00, 0.00, 0.00, 0.00, 0.00, 0.00, 0.00
247, 1659.46, 60868.71, 13718.25, 34833.88, -26062.80, -15067.87, 10851.06, -25713.87, -2611.33, 43756.94, 12335.77, -33157.87, 0.00, 0.00, 0.00, 0.00, 0.00, 0.00, 0.00
248, 1659.46, 60868.71, 13718.25, 34833.88, -26062.80, -15067.87, 10851.06, -25713.87, -2606.41, 43773.75, 12346.61, -33135.43, 0.00, 0.00, 0.00, 0.00, 0.00, 0.00, 0.00
249, 1649.13, 60860.36, 13706.18, 34816.91, -26071.37, -15078.78, 10839.46, -25721.34, -2606.41, 43773.75, 12346.61, -33135.43, 0.00, 0.00, 0.00, 0.00, 0.00, 0.00, 0.00
250, 1649.13, 60860.36, 13706.18, 34816.91, -26071.37, -15078.78, 10839.46, -25721.34, -2615.38, 43754.68, 12327.37, -33157.14, 0.00, 0.00, 0.00, 0.00, -0.15, 0.41, 0.90
251, 1666.26, 60865.72, 13714.14, 34823.68, -26071.99, -15075.33, 10843.93, -25718.25, -2615.38, 43754.68, 12327.37, -33157.14, 0.00, 0.00, 0.00, 0.00, 0.00, 0.00, 0.00
252, 1666.26, 60865.72, 13714.14, 34823.68, -26071.99, -15075.33, 10843.93, -25718.25, -2606.10, 43769.36, 12350.66, -33151.14, 0.00, 0.00, 0.00, 0.00, 0.00, 0.00, 0.00
253, 1657.87, 60875.73, 13721.11, 34825.54, -26065.80, -15077.97, 10842.41, -25719.57, -2606.10, 43769.36, 12350.66, -33151.14, 0.00, 0.00, 0.00, 0.00, 0.00, 0.00, 0.00
254, 1657.87, 60875.73, 13721.11, 34825.54, -26065.80, -15077.97, 10842.41, -25719.57, -2616.50, 43749.76, 12332.53, -33153.54, 0.00, 0.00, 0.00, 0.00, 0.00, 0.00, 0.00
255, 1659.24, 60870.84, 13720.42, 34823.48, -26067.99, -15078.15, 10843.30, -25717.51, -2616.50, 43749.76, 12332.53, -33153.54, 0.00, 0.00, 0.00, 0.00, 0.00, 0.00, 0.00
0, 1659.24, 60870.84, 13720.42, 34823.48, -26067.99, -15078.15, 10843.30, -25717.51, -2608.22, 43770.53, 12346.59, -33138.85, 0.00, 0.00, 0.00, 0.00, 0.00, 0.00, 0.00
1, 1661.36, 60885.32, 13718.03, 34819.17, -26070.27, -15082.22, 10841.11, -25721.18, -2608.22, 43770.53, 12346.59, -33138.85, 0.00, 0.00, 0.00, 0.00, 0.00, 0.00, 0.00
2, 1661.36, 60885.32, 13718.03, 34819.17, -26070.27, -15082.22, 10841.11, -25721.18, -2614.19, 43756.24, 12344.26, -33145.89, 0.00, 0.00, 0.00, 0.00, 0.00, 0.00, 0.00
3, 1669.83, 60873.57, 13731.70, 34835.44, -26060.75, -15075.80, 10843.12, -25719.01, -2614.19, 43756.24, 12344.26, -33145.89, 0.00, 0.00, 0.00, 0.00, 0.00, 0.00, 0.00
4, 1669.83, 60873.57, 13731.70, 34835.44, -26060.75, -15075.80, 10843.12, -25719.01, -2600.76, 43775.46, 12393.57, -33148.24, 0.00, 0.00, 0.00, 0.00, -0.14, 0.41, 0.91
5, 1662.88, 60880.76, 13731.39, 34815.28, -26059.36, -15082.76, 10842.00, -25718.90, -2600.76, 43775.46, 12393.57, -33148.24, 0.00, 0.00, 0.00, 0.00, 0.00, 0.00, 0.00
6, 1662.88, 60880.76, 13731.39, 34815.28, -26059.36, -15082.76, 10842.00, -25718.90, -2612.65, 43747.35, 12330.50, -33150.50, 0.00, 0.00, 0.00, 0.00, 0.00, 0.00, 0.00
7, 1644.42, 60865.95, 13711.07, 34795.79, -26081.94, -15099.45, 10821.17, -25730.59, -2612.65, 43747.35, 12330.50, -33150.50, 0.00, 0.00, 0.00, 0.00, 0.00, 0.00, 0.00
8, 1644.42, 60865.95, 13711.07, 34795.79, -26081.94, -15099.45, 10821.17, -25730.59, -2599.95, 43770.28, 12377.46, -33138.00, 0.00, 0.00, 0.00, 0.00, 0.00, 0.00, 0.00
9, 1665.03, 60878.30, 13733.09, 34804.04, -26062.85, -15088.10, 10838.16, -25717.49, -2599.95, 43770.28, 12377.46, -33138.00, 0.00, 0.00, 0.00, 0.00, 0.00, 0.00, 0.00
10, 1665.03, 60878.30, 13733.09, 34804.04, -26062.85, -15088.10, 10838.16, -25717.49, -2605.21, 43759.33, 12360.78, -33156.53, 0.00, 0.00, 0.00, 0.00, 0.00, 0.00, 0.00
11, 1655.77, 60872.07, 13720.84, 34792.81, -26078.47, -15098.67, 10826.38, -25727.53, -2605.21, 43759.33, 12360.78, -33156.53, 0.00, 0.00, 0.00, 0.00, 0.00, 0.00, 0.00
12, 1655.77, 60872.07, 13720.84, 34792.81, -26078.47, -15098.67, 10826.38, -25727.53, -2604.11, 43774.59, 12360.07, -33133.38, 0.00, 0.00, 0.00, 0.00, 0.00, 0.00, 0.00
13, 1668.83, 60887.98, 13719.79, 34796.37, -26071.23, -15094.51, 10829.17, -25721.40, -2604.11, 43774.59, 12360.07, -33133.38, 0.00, 0.00, 0.00, 0.00, 0.00, 0.00, 0.00
14, 1668.83, 60887.98, 13719.79, 34796.37, -26071.23, -15094.51, 10829.17, -25721.40, -2613.46, 43754.66, 12360.13, -33134.40, 0.00, 0.00, 0.00, 0.00, -0.14, 0.41, 0.91
15, 1677.23, 60884.61, 13728.82, 34789.13, -26080.62, -15102.56, 10820.52, -25731.01, -2613.46, 43754.66, 12360.13, -33134.40, 0.00, 0.00, 0.00, 0.00, 0.00, 0.00, 0.00
16, 1677.23, 60884.61, 13728.82, 34789.13, -26080.62, -15102.56, 10820.52, -25731.01, -2598.35, 43771.57, 12378.22, -33134.76, 0.00, 0.00, 0.00, 0.00, 0.00, 0.00, 0.00
17, 1692.14, 60903.38, 13749.12, 34806.45, -26061.53, -15090.51, 10836.57, -25718.47, -2598.35, 43771.57, 12378.22, -33134.76, 0.00, 0.00, 0.00, 0.00, 0.00, 0.00, 0.00
18, 1692.14, 60903.38, 13749.12, 34806.45, -26061.53, -15090.51, 10836.57, -25718.47, -2603.80, 43761.79, 12372.47, -33146.99, 0.00, 0.00, 0.00, 0.00, 0.00, 0.00, 0.00
19, 1685.43, 60896.61, 13740.35, 34797.22, -26073.31, -15097.69, 10824.59, -25728.94, -2603.80, 43761.79, 12372.47, -33146.99, 0.00, 0.00, 0.00, 0.00, 0.00, 0.00, 0.00
20, 1685.43, 60896.61, 13740.35, 34797.22, -26073.31, -15097.69, 10824.59, -25728.94, -2604.40, 43767.31, 12372.45, -33124.08, 0.00, 0.00, 0.00, 0.00, 0.00, 0.00, 0.00
21, 1697.06, 60911.23, 13749.72, 34807.21, -26060.52, -15091.70, 10839.66, -25716.69, -2604.40, 43767.31, 12372.45, -33124.08, 0.00, 0.00, 0.00, 0.00, 0.00, 0.00, 0.00
22, 1697.06, 60911.23, 13749.72, 34807.21, -26060.52, -15091.70, 10839.66, -25716.69, -2606.30, 43768.04, 12367.17, -33125.66, 0.00, 0.00, 0.00, 0.00, 0.00, 0.00, 0.00
23, 1691.69, 60898.98, 13733.96, 34795.72, -26077.53, -15101.71, 10821.80, -25731.69, -2606.30, 43768.04, 12367.17, -33125.66, 0.00, 0.00, 0.00, 0.00, 0.00, 0.00, 0.00
24, 1691.69, 60898.98, 13733.96, 34795.72, -26077.53, -15101.71, 10821.80, -25731.69, -2605.92, 43765.45, 12365.50, -33141.38, 0.00, 0.00, 0.00, 0.00, -0.14, 0.41, 0.90
25, 1705.37, 60907.54, 13745.58, 34810.02, -26053.97, -15090.76, 10839.66, -25719.03, -2605.92, 43765.45, 12365.50, -33141.38, 0.00, 0.00, 0.00, 0.00, 0.00, 0.00, 0.00
26, 1705.37, 60907.54, 13745.58, 34810.02, -26053.97, -15090.76, 10839.66, -25719.03, -2607.93, 43762.28, 12365.45, -33134.74, 0.00, 0.00, 0.00, 0.00, 0.00, 0.00, 0.00
27, 1687.94, 60881.81, 13740.13, 34796.52, -26073.80, -15104.46, 10822.65, -25737.32, -2607.93, 43762.28, 12365.45, -33134.74, 0.00, 0.00, 0.00, 0.00, 0.00, 0.00, 0.00
28, 1687.94, 60881.81, 13740.13, 34796.52, -26073.80, -15104.46, 10822.65, -25737.32, -2602.28, 43766.59, 12362.73, -33126.87, 0.00, 0.00, 0.00, 0.00, 0.00, 0.00, 0.00
29, 1691.54, 60899.54, 13749.79, 34813.27, -26051.65, -15089.37, 10845.67, -25713.49, -2602.28, 43766.59, 12362.73, -33126.87, 0.00, 0.00, 0.00, 0.00, 0.00, 0.00, 0.00
30, 1691.54, 60899.54, 13749.79, 34813.27, -26051.65, -15089.37, 10845.67, -25713.49, -2601.39, 43770.61, 12366.66, -33140.21, 0.00, 0.00, 0.00, 0.00, 0.00, 0.00, 0.00
31, 1670.57, 60884.34, 13734.45, 34794.38, -26065.82, -15105.38, 10822.67, -25736.74, -2601.39, 43770.61, 12366.66, -33140.21, 0.00, 0.00, 0.00, 0.00, 0.00, 0.00, 0.00
32, 1670.57, 60884.34, 13734.45, 34794.38, -26065.82, -15105.38, 10822.67, -25736.74, -2605.21, 43761.68, 12354.21, -33140.42, 0.00, 0.00, 0.00, 0.00, 0.00, 0.00, 0.00
33, 1688.03, 60913.02, 13738.66, 34812.08, -26053.30, -15093.73, 10840.33, -25717.74, -2605.21, 43761.68, 12354.21, -33140.42, 0.00, 0.00, 0.00, 0.00, -0.14, 0.42, 0.91
34, 1688.03, 60913.02, 13738.66, 34812.08, -26053.30, -15093.73, 10840.33, -25717.74, -2599.82, 43765.52, 12366.93, -33126.04, 0.00, 0.00, 0.00, 0.00, 0.00, 0.00, 0.00
35, 1676.87, 60901.86, 13728.93, 34798.22, -26067.97, -15105.93, 10826.22, -25737.61, -2599.82, 43765.52, 12366.93, -33126.04, 0.00, 0.00, 0.00, 0.00, 0.00, 0.00, 0.00
36, 1676.87, 60901.86, 13728.93, 34798.22, -26067.97, -15105.93, 10826.22, -25737.61, -2607.91, 43752.49, 12350.70, -33136.28, 0.00, 0.00, 0.00, 0.00, 0.00, 0.00, 0.00
37, 1693.10, 60889.64, 13743.42, 34813.31, -26045.73, -15094.31, 10845.29, -25720.42, -2607.91, 43752.49, 12350.70, -33136.28, 0.00, 0.00, 0.00, 0.00, 0.00, 0.00, 0.00
38, 1693.10, 60889.64, 13743.42, 34813.31, -26045.73, -15094.31, 10845.29, -25720.42, -2597.47, 43774.13, 12367.44, -33143.28, 0.00, 0.00, 0.00, 0.00, 0.00, 0.00, 0.00
39, 1686.10, 60879.09, 13740.00, 34801.93, -26059.96, -15102.29, 10833.49, -25731.42, -2597.47, 43774.13, 12367.44, -33143.28, 0.00, 0.00, 0.00, 0.00, 0.00, 0.00, 0.00
40, 1686.10, 60879.09, 13740.00, 34801.93, -26059.96, -15102.29, 10833.49, -25731.42, -2606.24, 43755.89, 12355.73, -33133.93, 0.00, 0.00, 0.00, 0.00, 0.00, 0.00, 0.00
41, 1695.96, 60900.57, 13743.04, 34814.56, -26046.24, -15096.12, 10843.34, -25722.34, -2606.24, 43755.89, 12355.73, -33133.93, 0.00, 0.00, 0.00, 0.00, 0.00, 0.00, 0.00
42, 1695.96, 60900.57, 13743.04, 34814.56, -26046.24, -15096.12, 10843.34, -25722.34, -2604.65, 43766.10, 12361.79, -33143.12, 0.00, 0.00, 0.00, 0.00, 0.00, 0.00, 0.00
43, 1683.71, 60896.45, 13738.86, 34805.78, -26059.81, -15103.61, 10832.19, -25737.92, -2604.65, 43766.10, 12361.79, -33143.12, 0.00, 0.00, 0.00, 0.00, -0.14, 0.41, 0.91
44, 1683.71, 60896.45, 13738.86, 34805.78, -26059.81, -15103.61, 10832.19, -25737.92, -2606.79, 43750.99, 12351.75, -33144.30, 0.00, 0.00, 0.00, 0.00, 0.00, 0.00, 0.00
45, 1685.19, 60905.75, 13744.94, 34813.71, -26039.92, -15097.64, 10847.06, -25722.88, -2606.79, 43750.99, 12351.75, -33144.30, 0.00, 0.00, 0.00, 0.00, 0.00, 0.00, 0.00
46, 1685.19, 60905.75, 13744.94, 34813.71, -26039.92, -15097.64, 10847.06, -25722.88, -2594.84, 43775.31, 12360.13, -33126.80, 0.00, 0.00, 0.00, 0.00, 0.00, 0.00, 0.00
47, 1678.28, 60894.22, 13741.07, 34812.08, -26052.28, -15101.46, 10841.58, -25729.07, -2594.84, 43775.31, 12360.13, -33126.80, 0.00, 0.00, 0.00, 0.00, 0.00, 0.00, 0.00
48, 1678.28, 60894.22, 13741.07, 34812.08, -26052.28, -15101.46, 10841.58, -25729.07, -2605.41, 43748.69, 12340.84, -33140.64, 0.00, 0.00, 0.00, 0.00, 0.00, 0.00, 0.00
49, 1692.05, 60901.44, 13733.40, 34812.17, -26046.04, -15100.15, 10846.83, -25726.86, -2605.41, 43748.69, 12340.84, -33140.64, 0.00, 0.00, 0.00, 0.00, 0.00, 0.00, 0.00
50, 1692.05, 60901.44, 13733.40, 34812.17, -26046.04, -15100.15, 10846.83, -25726.86, -2602.30, 43769.30, 12347.53, -33140.66, 0.00, 0.00, 0.00, 0.00, 0.00, 0.00, 0.00
51, 1691.20, 60893.28, 13732.51, 34811.32, -26049.55, -15104.66, 10841.49, -25730.03, -2602.30, 43769.30, 12347.53, -33140.66, 0.00, 0.00, 0.00, 0.00, 0.00, 0.00, 0.00
52, 1691.20, 60893.28, 13732.51, 34811.32, -26049.55, -15104.66, 10841.49, -25730.03, -2606.95, 43748.04, 12332.15, -33152.89, 0.00, 0.00, 0.00, 0.00, 0.00, 0.00, 0.00
53, 1675.22, 60885.86, 13736.33, 34810.54, -26042.82, -15104.84, 10844.33, -25727.42, -2606.95, 43748.04, 12332.15, -33152.89, 0.00, 0.00, 0.00, 0.00, -0.14, 0.41, 0.91
54, 1675.22, 60885.86, 13736.33, 34810.54, -26042.82, -15104.84, 10844.33, -25727.42, -2600.20, 43766.70, 12347.42, -33132.79, 0.00, 0.00, 0.00, 0.00, 0.00, 0.00, 0.00
55, 1676.69, 60896.12, 13738.83, 34816.73, -26044.54, -15099.79, 10849.16, -25725.18, -2600.20, 43766.70, 12347.42, -33132.79, 0.00, 0.00, 0.00, 0.00, 0.00, 0.00, 0.00
56, 1676.69, 60896.12, 13738.83, 34816.73, -26044.54, -15099.79, 10849.16, -25725.18, -2611.47, 43743.82, 12331.21, -33147.99, 0.00, 0.00, 0.00, 0.00, 0.00, 0.00, 0.00
57, 1672.29, 60887.80, 13727.17, 34813.58, -26050.40, -15107.07, 10841.53, -25733.74, -2611.47, 43743.82, 12331.21, -33147.99, 0.00, 0.00, 0.00, 0.00, 0.00, 0.00, 0.00
58, 1672.29, 60887.80, 13727.17, 34813.58, -26050.40, -15107.07, 10841.53, -25733.74, -2605.03, 43763.75, 12335.35, -33148.53, 0.00, 0.00, 0.00, 0.00, 0.00, 0.00, 0.00
59, 1695.40, 60893.88, 13733.81, 34818.85, -26037.23, -15102.36, 10849.83, -25726.54, -2605.03, 43763.75, 12335.35, -33148.53, 0.00, 0.00, 0.00, 0.00, 0.00, 0.00, 0.00
60, 1695.40, 60893.88, 13733.81, 34818.85, -26037.23, -15102.36, 10849.83, -25726.54, -2612.36, 43741.85, 12325.31, -33146.25, 0.00, 0.00, 0.00, 0.00, 0.00, 0.00, 0.00
61, 1680.96, 60887.71, 13722.36, 34805.69, -26048.30, -15114.23, 10837.22, -25737.00, -2612.36, 43741.85, 12325.31, -33146.25, 0.00, 0.00, 0.00, 0.00, 0.00, 0.00, 0.00
62, 1680.96, 60887.71, 13722.36, 34805.69, -26048.30, -15114.23, 10837.22, -25737.00, -2602.41, 43761.76, 12340.20, -33138.25, 0.00, 0.00, 0.00, 0.00, 0.00, 0.00, 0.00
63, 1695.92, 60903.36, 13745.94, 34824.60, -26033.95, -15100.53, 10852.35, -25724.29, -2602.41, 43761.76, 12340.20, -33138.25, 0.00, 0.00, 0.00, 0.00, -0.14, 0.41, 0.90
64, 1695.92, 60903.36, 13745.94, 34824.60, -26033.95, -15100.53, 10852.35, -25724.29, -2605.32, 43744.51, 12333.33, -33157.09, 0.00, 0.00, 0.00, 0.00, 0.00, 0.00, 0.00
65, 1671.60, 60894.51, 13727.75, 34809.82, -26042.91, -15111.92, 10842.50, -25736.74, -2605.32, 43744.51, 12333.33, -33157.09, 0.00, 0.00, 0.00, 0.00, 0.00, 0.00, 0.00
66, 1671.60, 60894.51, 13727.75, 34809.82, -26042.91, -15111.92, 10842.50, -25736.74, -2608.96, 43755.30, 12332.08, -33148.53, 0.00, 0.00, 0.00, 0.00, 0.00, 0.00, 0.00
67, 1686.57, 60893.79, 13739.64, 34824.33, -26024.63, -15100.93, 10856.31, -25723.97, -2608.96, 43755.30, 12332.08, -33148.53, 0.00, 0.00, 0.00, 0.00, 0.00, 0.00, 0.00
68, 1686.57, 60893.79, 13739.64, 34824.33, -26024.63, -15100.93, 10856.31, -25723.97, -2610.97, 43748.46, 12331.81, -33144.48, 0.00, 0.00, 0.00, 0.00, 0.00, 0.00, 0.00
69, 1687.36, 60882.55, 13724.10, 34813.31, -26043.13, -15114.41, 10839.66, -25740.27, -2610.97, 43748.46, 12331.81, -33144.48, 0.00, 0.00, 0.00, 0.00, 0.00, 0.00, 0.00
70, 1687.36, 60882.55, 13724.10, 34813.31, -26043.13, -15114.41, 10839.66, -25740.27, -2613.28, 43749.11, 12328.15, -33150.96, 0.00, 0.00, 0.00, 0.00, 0.00, 0.00, 0.00
71, 1693.03, 60904.75, 13744.42, 34830.52, -26024.52, -15098.85, 10859.66, -25720.98, -2613.28, 43749.11, 12328.15, -33150.96, 0.00, 0.00, 0.00, 0.00, 0.00, 0.00, 0.00
72, 1693.03, 60904.75, 13744.42, 34830.52, -26024.52, -15098.85, 10859.66, -25720.98, -2608.45, 43749.27, 12329.83, -33140.91, 0.00, 0.00, 0.00, 0.00, -0.14, 0.41, 0.90
73, 1672.20, 60887.65, 13726.05, 34811.70, -26040.14, -15116.48, 10841.89, -25739.40, -2608.45, 43749.27, 12329.83, -33140.91, 0.00, 0.00, 0.00, 0.00, 0.00, 0.00, 0.00
74, 1672.20, 60887.65, 13726.05, 34811.70, -26040.14, -15116.48, 10841.89, -25739.40, -2606.79, 43752.98, 12324.71, -33148.98, 0.00, 0.00, 0.00, 0.00, 0.00, 0.00, 0.00
75, 1690.91, 60917.06, 13742.28, 34830.88, -26022.08, -15101.13, 10858.52, -25721.34, -2606.79, 43752.98, 12324.71, -33148.98, 0.00, 0.00, 0.00, 0.00, 0.00, 0.00, 0.00
76, 1690.91, 60917.06, 13742.28, 34830.88, -26022.08, -15101.13, 10858.52, -25721.34, -2607.33, 43760.00, 12324.39, -33146.21, 0.00, 0.00, 0.00, 0.00, 0.00, 0.00, 0.00
77, 1677.54, 60884.81, 13727.75, 34813.20, -26038.84, -15116.24, 10837.96, -25741.70, -2607.33, 43760.00, 12324.39, -33146.21, 0.00, 0.00, 0.00, 0.00, 0.00, 0.00, 0.00
78, 1677.54, 60884.81, 13727.75, 34813.20, -26038.84, -15116.24, 10837.96, -25741.70, -2618.28, 43734.23, 12313.82, -33152.42, 0.00, 0.00, 0.00, 0.00, 0.00, 0.00, 0.00
79, 1689.43, 60895.36, 13737.14, 34831.28, -26028.63, -15105.73, 10852.60, -25730.43, -2618.28, 43734.23, 12313.82, -33152.42, 0.00, 0.00, 0.00, 0.00, 0.00, 0.00, 0.00
80, 1689.43, 60895.36, 13737.14, 34831.28, -26028.63, -15105.73, 10852.60, -25730.43, -2612.16, 43745.78, 12311.92, -33155.68, 0.00, 0.00, 0.00, 0.00, 0.00, 0.00, 0.00
81, 1678.59, 60872.71, 13711.30, 34811.30, -26045.35, -15119.46, 10837.22, -25744.47, -2612.16, 43745.78, 12311.92, -33155.68, 0.00, 0.00, 0.00, 0.00, 0.00, 0.00, 0.00
82, 1678.59, 60872.71, 13711.30, 34811.30, -26045.35, -15119.46, 10837.22, -25744.47, -2613.03, 43746.59, 12306.62, -33157.09, 0.00, 0.00, 0.00, 0.00, -0.14, 0.41, 0.90
83, 1695.20, 60902.06, 13732.58, 34828.35, -26019.82, -15104.91, 10856.60, -25720.15, -2613.03, 43746.59, 12306.62, -33157.09, 0.00, 0.00, 0.00, 0.00, 0.00, 0.00, 0.00
84, 1695.20, 60902.06, 13732.58, 34828.35, -26019.82, -15104.91, 10856.60, -25720.15, -2607.69, 43764.49, 12314.07, -33128.10, 0.00, 0.00, 0.00, 0.00, 0.00, 0.00, 0.00
85, 1665.56, 60886.93, 13720.57, 34813.94, -26034.82, -15116.75, 10841.69, -25734.79, -2607.69, 43764.49, 12314.07, -33128.10, 0.00, 0.00, 0.00, 0.00, 0.00, 0.00, 0.00
86, 1665.56, 60886.93, 13720.57, 34813.94, -26034.82, -15116.75, 10841.69, -25734.79, -2618.35, 43740.77, 12303.03, -33141.87, 0.00, 0.00, 0.00, 0.00, 0.00, 0.00, 0.00
87, 1666.97, 60870.37, 13723.55, 34828.55, -26028.16, -15109.04, 10852.22, -25730.77, -2618.35, 43740.77, 12303.03, -33141.87, 0.00, 0.00, 0.00, 0.00, 0.00, 0.00, 0.00
88, 1666.97, 60870.37, 13723.55, 34828.55, -26028.16, -15109.04, 10852.22, -25730.77, -2612.99, 43754.52, 12317.38, -33133.73, 0.00, 0.00, 0.00, 0.00, 0.00, 0.00, 0.00
89, 1669.36, 60883.69, 13727.61, 34820.46, -26033.37, -15118.81, 10842.61, -25737.41, -2612.99, 43754.52, 12317.38, -33133.73, 0.00, 0.00, 0.00, 0.00, 0.00, 0.00, 0.00
90, 1669.36, 60883.69, 13727.61, 34820.46, -26033.37, -15118.81, 10842.61, -25737.41, -2617.52, 43739.28, 12311.23, -33162.86, 0.00, 0.00, 0.00, 0.00, 0.00, 0.00, 0.00
91, 1696.92, 60903.32, 13742.99, 34849.12, -26011.06, -15102.67, 10856.51, -25724.73, -2617.52, 43739.28, 12311.23, -33162.86, 0.00, 0.00, 0.00, 0.00, 0.00, 0.00, 0.00
92, 1696.92, 60903.32, 13742.99, 34849.12, -26011.06, -15102.67, 10856.51, -25724.73, -2607.55, 43758.93, 12323.37, -33148.69, 0.00, 0.00, 0.00, 0.00, -0.14, 0.40, 0.90
93, 1683.49, 60886.89, 13722.56, 34822.23, -26022.35, -15113.53, 10851.39, -25730.88, -2607.55, 43758.93, 12323.37, -33148.69, 0.00, 0.00, 0.00, 0.00, 0.00, 0.00, 0.00
94, 1683.49, 60886.89, 13722.56, 34822.23, -26022.35, -15113.53, 10851.39, -25730.88, -2611.33, 43747.19, 12301.39, -33133.58, 0.00, 0.00, 0.00, 0.00, 0.00, 0.00, 0.00
95, 1672.38, 60883.89, 13724.17, 34826.79, -26021.39, -15111.95, 10851.68, -25727.04, -2611.33, 43747.19, 12301.39, -33133.58, 0.00, 0.00, 0.00, 0.00, 0.00, 0.00, 0.00
96, 1672.38, 60883.89, 13724.17, 34826.79, -26021.39, -15111.95, 10851.68, -25727.04, -2606.19, 43756.64, 12311.16, -33136.35, 0.00, 0.00, 0.00, 0.00, 0.00, 0.00, 0.00
97, 1672.38, 60877.34, 13724.73, 34820.13, -26016.31, -15116.51, 10847.66, -25730.95, -2606.19, 43756.64, 12311.16, -33136.35, 0.00, 0.00, 0.00, 0.00, 0.00, 0.00, 0.00
98, 1672.38, 60877.34, 13724.73, 34820.13, -26016.31, -15116.51, 10847.66, -25730.95, -2618.37, 43736.44, 12294.22, -33157.05, 0.00, 0.00, 0.00, 0.00, 0.00, 0.00, 0.00
99, 1664.62, 60881.59, 13722.99, 34818.83, -26028.25, -15120.11, 10841.80, -25738.28, -2618.37, 43736.44, 12294.22, -33157.05, 0.00, 0.00, 0.00, 0.00, 0.00, 0.00, 0.00
100, 1664.62, 60881.59, 13722.99, 34818.83, -26028.25, -15120.11, 10841.80, -25738.28, -2616.43, 43752.04, 12308.23, -33158.50, 0.00, 0.00, 0.00, 0.00, 0.00, 0.00, 0.00
101, 1700.03, 60901.30, 13723.68, 34824.00, -26018.61, -15116.53, 10847.77, -25734.43, -2616.43, 43752.04, 12308.23, -33158.50, 0.00, 0.00, 0.00, 0.00, 0.00, 0.00, 0.00
102, 1700.03, 60901.30, 13723.68, 34824.00, -26018.61, -15116.53, 10847.77, -25734.43, -2614.04, 43736.19, 12307.07, -33142.67, 0.00, 0.00, 0.00, 0.00, -0.14, 0.41, 0.90
103, 1687.76, 60890.08, 13731.55, 34825.49, -26018.75, -15117.87, 10847.12, -25734.23, -2614.04, 43736.19, 12307.07, -33142.67, 0.00, 0.00, 0.00, 0.00, 0.00, 0.00, 0.00
104, 1687.76, 60890.08, 13731.55, 34825.49, -26018.75, -15117.87, 10847.12, -25734.23, -2606.28, 43754.21, 12317.82, -33141.87, 0.00, 0.00, 0.00, 0.00, 0.00, 0.00, 0.00
105, 1692.56, 60913.33, 13735.08, 34830.50, -26011.06, -15113.24, 10850.74, -25728.85, -2606.28, 43754.21, 12317.82, -33141.87, 0.00, 0.00, 0.00, 0.00, 0.00, 0.00, 0.00
106, 1692.56, 60913.33, 13735.08, 34830.50, -26011.06, -15113.24, 10850.74, -25728.85, -2616.16, 43736.19, 12305.60, -33158.79, 0.00, 0.00, 0.00, 0.00, 0.00, 0.00, 0.00
107, 1682.28, 60892.07, 13727.88, 34819.17, -26017.38, -15121.56, 10843.68, -25736.56, -2616.16, 43736.19, 12305.60, -33158.79, 0.00, 0.00, 0.00, 0.00, 0.00, 0.00, 0.00
108, 1682.28, 60892.07, 13727.88, 34819.17, -26017.38, -15121.56, 10843.68, -25736.56, -2609.16, 43757.25, 12314.85, -33159.57, 0.00, 0.00, 0.00, 0.00, 0.00, 0.00, 0.00
109, 1690.93, 60911.03, 13745.70, 34837.20, -26000.62, -15108.57, 10860.80, -25723.33, -2609.16, 43757.25, 12314.85, -33159.57, 0.00, 0.00, 0.00, 0.00, 0.00, 0.00, 0.00
110, 1690.93, 60911.03, 13745.70, 34837.20, -26000.62, -15108.57, 10860.80, -25723.33, -2609.03, 43743.30, 12311.68, -33139.61, 0.00, 0.00, 0.00, 0.00, 0.00, 0.00, 0.00
111, 1675.75, 60887.45, 13735.01, 34823.05, -26013.41, -15121.56, 10844.57, -25734.88, -2609.03, 43743.30, 12311.68, -33139.61, 0.00, 0.00, 0.00, 0.00, -0.14, 0.41, 0.90
112, 1675.75, 60887.45, 13735.01, 34823.05, -26013.41, -15121.56, 10844.57, -25734.88, -2606.26, 43753.16, 12317.96, -33134.45, 0.00, 0.00, 0.00, 0.00, 0.00, 0.00, 0.00
113, 1695.80, 60909.42, 13739.91, 34839.95, -25997.45, -15109.76, 10859.35, -25722.23, -2606.26, 43753.16, 12317.96, -33134.45, 0.00, 0.00, 0.00, 0.00, 0.00, 0.00, 0.00
114, 1695.80, 60909.42, 13739.91, 34839.95, -25997.45, -15109.76, 10859.35, -25722.23, -2611.58, 43747.82, 12310.47, -33163.66, 0.00, 0.00, 0.00, 0.00, 0.00, 0.00, 0.00
115, 1680.49, 60891.34, 13728.31, 34819.46, -26017.36, -15124.22, 10843.72, -25735.39, -2611.58, 43747.82, 12310.47, -33163.66, 0.00, 0.00, 0.00, 0.00, 0.00, 0.00, 0.00
116, 1680.49, 60891.34, 13728.31, 34819.46, -26017.36, -15124.22, 10843.72, -25735.39, -2606.39, 43758.25, 12313.46, -33126.98, 0.00, 0.00, 0.00, 0.00, 0.00, 0.00, 0.00
117, 1704.45, 60902.71, 13736.84, 34835.37, -25997.25, -15113.49, 10855.46, -25723.82, -2606.39, 43758.25, 12313.46, -33126.98, 0.00, 0.00, 0.00, 0.00, 0.00, 0.00, 0.00
118, 1704.45, 60902.71, 13736.84, 34835.37, -25997.25, -15113.49, 10855.46, -25723.82, -2613.95, 43738.92, 12309.87, -33153.09, 0.00, 0.00, 0.00, 0.00, 0.00, 0.00, 0.00
119, 1682.35, 60893.88, 13733.69, 34822.72, -26006.01, -15125.96, 10841.11, -25738.41, -2613.95, 43738.92, 12309.87, -33153.09, 0.00, 0.00, 0.00, 0.00, 0.00, 0.00, 0.00
120, 1682.35, 60893.88, 13733.69, 34822.72, -26006.01, -15125.96, 10841.11, -25738.41, -2607.35, 43749.58, 12317.20, -33144.73, 0.00, 0.00, 0.00, 0.00, 0.00, 0.00, 0.00
121, 1688.76, 60921.60, 13753.59, 34843.15, -25992.20, -15110.47, 10862.41, -25717.42, -2607.35, 43749.58, 12317.20, -33144.73, 0.00, 0.00, 0.00, 0.00, -0.14, 0.40, 0.90
122, 1688.76, 60921.60, 13753.59, 34843.15, -25992.20, -15110.47, 10862.41, -25717.42, -2608.14, 43750.45, 12319.90, -33157.49, 0.00, 0.00, 0.00, 0.00, 0.00, 0.00, 0.00
123, 1679.15, 60905.48, 13728.80, 34825.87, -26007.19, -15125.11, 10844.13, -25738.53, -2608.14, 43750.45, 12319.90, -33157.49, 0.00, 0.00, 0.00, 0.00, 0.00, 0.00, 0.00
124, 1679.15, 60905.48, 13728.80, 34825.87, -26007.19, -15125.11, 10844.13, -25738.53, -2611.56, 43747.10, 12306.69, -33141.51, 0.00, 0.00, 0.00, 0.00, 0.00, 0.00, 0.00
125, 1698.87, 60918.94, 13742.97, 34843.17, -25992.22, -15110.16, 10860.13, -25717.11, -2611.56, 43747.10, 12306.69, -33141.51, 0.00, 0.00, 0.00, 0.00, 0.00, 0.00, 0.00
126, 1698.87, 60918.94, 13742.97, 34843.17, -25992.22, -15110.16, 10860.13, -25717.11, -2607.51, 43752.69, 12310.04, -33129.15, 0.00, 0.00, 0.00, 0.00, 0.00, 0.00, 0.00
127, 1678.48, 60888.61, 13726.65, 34823.35, -26009.36, -15126.88, 10836.13, -25744.18, -2607.51, 43752.69, 12310.04, -33129.15, 0.00, 0.00, 0.00, 0.00, 0.00, 0.00, 0.00
128, 1678.48, 60888.61, 13726.65, 34823.35, -26009.36, -15126.88, 10836.13, -25744.18, -2617.32, 43737.58, 12290.31, -33162.14, 0.00, 0.00, 0.00, 0.00, 0.00, 0.00, 0.00
129, 1699.92, 60900.86, 13733.25, 34837.05, -25996.64, -15117.00, 10856.78, -25724.96, -2617.32, 43737.58, 12290.31, -33162.14, 0.00, 0.00, 0.00, 0.00, 0.00, 0.00, 0.00
130, 1699.92, 60900.86, 13733.25, 34837.05, -25996.64, -15117.00, 10856.78, -25724.96, -2611.78, 43750.99, 12300.61, -33132.14, 0.00, 0.00, 0.00, 0.00, 0.00, 0.00, 0.00
131, 1682.24, 60881.03, 13718.29, 34823.95, -26011.80, -15128.42, 10837.82, -25742.64, -2611.78, 43750.99, 12300.61, -33132.14, 0.00, 0.00, 0.00, 0.00, -0.14, 0.40, 0.91
132, 1682.24, 60881.03, 13718.29, 34823.95, -26011.80, -15128.42, 10837.82, -25742.64, -2615.51, 43738.16, 12285.01, -33151.41, 0.00, 0.00, 0.00, 0.00, 0.00, 0.00, 0.00
133, 1682.39, 60902.80, 13735.79, 34837.52, -26000.00, -15116.64, 10853.09, -25725.65, -2615.51, 43738.16, 12285.01, -33151.41, 0.00, 0.00, 0.00, 0.00, 0.00, 0.00, 0.00
134, 1682.39, 60902.80, 13735.79, 34837.52, -26000.00, -15116.64, 10853.09, -25725.65, -2609.92, 43749.85, 12295.65, -33157.67, 0.00, 0.00, 0.00, 0.00, 0.00, 0.00, 0.00
135, 1665.76, 60875.67, 13718.79, 34821.51, -26005.63, -15130.19, 10835.97, -25742.97, -2609.92, 43749.85, 12295.65, -33157.67, 0.00, 0.00, 0.00, 0.00, 0.00, 0.00, 0.00
136, 1665.76, 60875.67, 13718.79, 34821.51, -26005.63, -15130.19, 10835.97, -25742.97, -2618.93, 43734.85, 12279.87, -33146.43, 0.00, 0.00, 0.00, 0.00, 0.00, 0.00, 0.00
137, 1682.26, 60892.97, 13728.82, 34832.87, -25999.21, -15119.88, 10850.86, -25730.48, -2618.93, 43734.85, 12279.87, -33146.43, 0.00, 0.00, 0.00, 0.00, 0.00, 0.00, 0.00
138, 1682.26, 60892.97, 13728.82, 34832.87, -25999.21, -15119.88, 10850.86, -25730.48, -2610.30, 43754.63, 12293.66, -33133.42, 0.00, 0.00, 0.00, 0.00, 0.00, 0.00, 0.00
139, 1667.80, 60894.22, 13722.72, 34823.82, -26007.62, -15126.92, 10837.96, -25738.81, -2610.30, 43754.63, 12293.66, -33133.42, 0.00, 0.00, 0.00, 0.00, 0.00, 0.00, 0.00
140, 1667.80, 60894.22, 13722.72, 34823.82, -26007.62, -15126.92, 10837.96, -25738.81, -2617.14, 43731.81, 12275.76, -33155.44, 0.00, 0.00, 0.00, 0.00, 0.00, 0.00, 0.00
141, 1686.53, 60884.99, 13719.63, 34831.19, -25999.62, -15124.08, 10847.88, -25732.31, -2617.14, 43731.81, 12275.76, -33155.44, 0.00, 0.00, 0.00, 0.00, -0.14, 0.40, 0.90
142, 1686.53, 60884.99, 13719.63, 34831.19, -25999.62, -15124.08, 10847.88, -25732.31, -2606.68, 43754.10, 12292.61, -33151.86, 0.00, 0.00, 0.00, 0.00, 0.00, 0.00, 0.00
143, 1686.19, 60883.96, 13724.10, 34829.38, -25996.42, -15122.56, 10845.42, -25733.12, -2606.68, 43754.10, 12292.61, -33151.86, 0.00, 0.00, 0.00, 0.00, 0.00, 0.00, 0.00
144, 1686.19, 60883.96, 13724.10, 34829.38, -25996.42, -15122.56, 10845.42, -25733.12, -2614.44, 43740.77, 12273.86, -33160.93, 0.00, 0.00, 0.00, 0.00, 0.00, 0.00, 0.00
145, 1689.79, 60890.55, 13722.83, 34829.34, -25996.17, -15124.44, 10847.88, -25732.06, -2614.44, 43740.77, 12273.86, -33160.93, 0.00, 0.00, 0.00, 0.00, 0.00, 0.00, 0.00
146, 1689.79, 60890.55, 13722.83, 34829.34, -25996.17, -15124.44, 10847.88, -25732.06, -2605.86, 43754.05, 12297.13, -33123.90, 0.00, 0.00, 0.00, 0.00, 0.00, 0.00, 0.00
147, 1670.35, 60889.75, 13730.09, 34834.59, -25994.92, -15121.04, 10846.76, -25730.30, -2605.86, 43754.05, 12297.13, -33123.90, 0.00, 0.00, 0.00, 0.00, 0.00, 0.00, 0.00
148, 1670.35, 60889.75, 13730.09, 34834.59, -25994.92, -15121.04, 10846.76, -25730.30, -2614.68, 43735.46, 12275.17, -33152.46, 0.00, 0.00, 0.00, 0.00, 0.00, 0.00, 0.00
149, 1655.62, 60884.29, 13721.65, 34825.78, -26004.04, -15128.13, 10845.89, -25734.72, -2614.68, 43735.46, 12275.17, -33152.46, 0.00, 0.00, 0.00, 0.00, 0.00, 0.00, 0.00
150, 1655.62, 60884.29, 13721.65, 34825.78, -26004.04, -15128.13, 10845.89, -25734.72, -2605.19, 43753.61, 12290.82, -33149.11, 0.00, 0.00, 0.00, 0.00, -0.14, 0.40, 0.90
151, 1671.06, 60880.59, 13721.11, 34832.09, -25989.67, -15122.32, 10849.04, -25732.15, -2605.19, 43753.61, 12290.82, -33149.11, 0.00, 0.00, 0.00, 0.00, 0.00, 0.00, 0.00
152, 1671.06, 60880.59, 13721.11, 34832.09, -25989.67, -15122.32, 10849.04, -25732.15, -2612.14, 43739.81, 12269.54, -33137.33, 0.00, 0.00, 0.00, 0.00, 0.00, 0.00, 0.00
153, 1659.04, 60866.93, 13706.09, 34825.00, -26002.99, -15129.81, 10836.59, -25738.23, -2612.14, 43739.81, 12269.54, -33137.33, 0.00, 0.00, 0.00, 0.00, 0.00, 0.00, 0.00
154, 1659.04, 60866.93, 13706.09, 34825.00, -26002.99, -15129.81, 10836.59, -25738.23, -2609.28, 43751.84, 12275.06, -33142.90, 0.00, 0.00, 0.00, 0.00, 0.00, 0.00, 0.00
155, 1670.55, 60867.13, 13715.45, 34833.00, -25993.89, -15122.63, 10848.26, -25730.37, -2609.28, 43751.84, 12275.06, -33142.90, 0.00, 0.00, 0.00, 0.00, 0.00, 0.00, 0.00
156, 1670.55, 60867.13, 13715.45, 34833.00, -25993.89, -15122.63, 10848.26, -25730.37, -2613.41, 43736.04, 12268.51, -33156.49, 0.00, 0.00, 0.00, 0.00, 0.00, 0.00, 0.00
157, 1676.51, 60862.75, 13705.71, 34823.03, -26005.27, -15131.06, 10841.60, -25736.92, -2613.41, 43736.04, 12268.51, -33156.49, 0.00, 0.00, 0.00, 0.00, 0.00, 0.00, 0.00
158, 1676.51, 60862.75, 13705.71, 34823.03, -26005.27, -15131.06, 10841.60, -25736.92, -2610.57, 43748.69, 12277.03, -33143.05, 0.00, 0.00, 0.00, 0.00, 0.00, 0.00, 0.00
159, 1661.72, 60890.82, 13720.26, 34833.05, -25987.19, -15122.70, 10851.97, -25727.68, -2610.57, 43748.69, 12277.03, -33143.05, 0.00, 0.00, 0.00, 0.00, 0.00, 0.00, 0.00
160, 1661.72, 60890.82, 13720.26, 34833.05, -25987.19, -15122.70, 10851.97, -25727.68, -2611.02, 43736.77, 12270.86, -33150.18, 0.00, 0.00, 0.00, 0.00, -0.14, 0.40, 0.90
161, 1658.21, 60865.81, 13713.22, 34822.30, -26002.16, -15130.81, 10837.22, -25739.22, -2611.02, 43736.77, 12270.86, -33150.18, 0.00, 0.00, 0.00, 0.00, 0.00, 0.00, 0.00
162, 1658.21, 60865.81, 13713.22, 34822.30, -26002.16, -15130.81, 10837.22, -25739.22, -2606.53, 43752.84, 12279.04, -33146.36, 0.00, 0.00, 0.00, 0.00, 0.00, 0.00, 0.00
163, 1687.47, 60891.54, 13722.54, 34838.12, -25982.23, -15118.79, 10855.84, -25720.53, -2606.53, 43752.84, 12279.04, -33146.36, 0.00, 0.00, 0.00, 0.00, 0.00, 0.00, 0.00
164, 1687.47, 60891.54, 13722.54, 34838.12, -25982.23, -15118.79, 10855.84, -25720.53, -2606.21, 43742.05, 12277.54, -33142.99, 0.00, 0.00, 0.00, 0.00, 0.00, 0.00, 0.00
165, 1662.88, 60868.04, 13705.24, 34820.80, -26001.36, -15134.72, 10841.18, -25739.06, -2606.21, 43742.05, 12277.54, -33142.99, 0.00, 0.00, 0.00, 0.00, 0.00, 0.00, 0.00
166, 1662.88, 60868.04, 13705.24, 34820.80, -26001.36, -15134.72, 10841.18, -25739.06, -2605.07, 43744.60, 12286.26, -33141.78, 0.00, 0.00, 0.00, 0.00, 0.00, 0.00, 0.00
167, 1671.44, 60890.38, 13730.77, 34842.25, -25976.57, -15117.20, 10858.25, -25720.31, -2605.07, 43744.60, 12286.26, -33141.78, 0.00, 0.00, 0.00, 0.00, 0.00, 0.00, 0.00
168, 1671.44, 60890.38, 13730.77, 34842.25, -25976.57, -15117.20, 10858.25, -25720.31, -2602.79, 43743.73, 12281.41, -33156.73, 0.00, 0.00, 0.00, 0.00, 0.00, 0.00, 0.00
169, 1671.33, 60887.69, 13721.56, 34826.65, -25989.15, -15127.12, 10843.88, -25736.18, -2602.79, 43743.73, 12281.41, -33156.73, 0.00, 0.00, 0.00, 0.00, 0.00, 0.00, 0.00
170, 1671.33, 60887.69, 13721.56, 34826.65, -25989.15, -15127.12, 10843.88, -25736.18, -2597.70, 43748.06, 12288.18, -33142.43, 0.00, 0.00, 0.00, 0.00, -0.14, 0.41, 0.90
171, 1687.04, 60894.84, 13739.59, 34846.23, -25972.35, -15112.91, 10866.88, -25712.24, -2597.70, 43748.06, 12288.18, -33142.43, 0.00, 0.00, 0.00, 0.00, 0.00, 0.00, 0.00
172, 1687.04, 60894.84, 13739.59, 34846.23, -25972.35, -15112.91, 10866.88, -25712.24, -2592.20, 43753.05, 12294.76, -33140.46, 0.00, 0.00, 0.00, 0.00, 0.00, 0.00, 0.00
173, 1674.82, 60898.49, 13729.18, 34834.01, -25978.67, -15121.89, 10853.49, -25727.35, -2592.20, 43753.05, 12294.76, -33140.46, 0.00, 0.00, 0.00, 0.00, 0.00, 0.00, 0.00
174, 1674.82, 60898.49, 13729.18, 34834.01, -25978.67, -15121.89, 10853.49, -25727.35, -2588.00, 43760.89, 12310.36, -33127.09, 0.00, 0.00, 0.00, 0.00, 0.00, 0.00, 0.00
175, 1693.12, 60901.59, 13760.14, 34868.36, -25944.32, -15092.90, 10886.35, -25697.13, -2588.00, 43760.89, 12310.36, -33127.09, 0.00, 0.00, 0.00, 0.00, 0.00, 0.00, 0.00
176, 1693.12, 60901.59, 13760.14, 34868.36, -25944.32, -15092.90, 10886.35, -25697.13, -2591.64, 43756.51, 12307.43, -33141.04, 0.00, 0.00, 0.00, 0.00, 0.00, 0.00, 0.00
177, 1659.68, 60871.04, 13706.07, 34805.00, -25992.78, -15138.05, 10841.67, -25734.21, -2591.64, 43756.51, 12307.43, -33141.04, 0.00, 0.00, 0.00, 0.00, 0.00, 0.00, 0.00
178, 1659.68, 60871.04, 13706.07, 34805.00, -25992.78, -15138.05, 10841.67, -25734.21, -2600.36, 43744.15, 12291.07, -33147.90, 0.00, 0.00, 0.00, 0.00, 0.00, 0.00, 0.00
179, 1686.66, 60891.07, 13739.77, 34840.76, -25977.96, -15115.75, 10866.99, -25714.29, -2600.36, 43744.15, 12291.07, -33147.90, 0.00, 0.00, 0.00, 0.00, 0.00, 0.00, 0.00
180, 1686.66, 60891.07, 13739.77, 34840.76, -25977.96, -15115.75, 10866.99, -25714.29, -2592.91, 43759.17, 12315.07, -33138.89, 0.00, 0.00, 0.00, 0.00, -0.14, 0.41, 0.91
181, 1671.84, 60885.01, 13725.25, 34802.18, -25988.64, -15133.34, 10846.14, -25730.34, -2592.91, 43759.17, 12315.07, -33138.89, 0.00, 0.00, 0.00, 0.00, 0.00, 0.00, 0.00
182, 1671.84, 60885.01, 13725.25, 34802.18, -25988.64, -15133.34, 10846.14, -25730.34, -2596.62, 43746.00, 12302.82, -33138.25, 0.00, 0.00, 0.00, 0.00, 0.00, 0.00, 0.00
183, 1676.92, 60900.77, 13737.81, 34815.12, -25975.43, -15122.03, 10866.32, -25713.65, -2596.62, 43746.00, 12302.82, -33138.25, 0.00, 0.00, 0.00, 0.00, 0.00, 0.00, 0.00
184, 1676.92, 60900.77, 13737.81, 34815.12, -25975.43, -15122.03, 10866.32, -25713.65, -2589.74, 43759.80, 12320.84, -33155.35, 0.00, 0.00, 0.00, 0.00, 0.00, 0.00, 0.00
185, 1672.87, 60902.45, 13729.96, 34801.69, -25981.20, -15129.54, 10854.41, -25723.64, -2589.74, 43759.80, 12320.84, -33155.35, 0.00, 0.00, 0.00, 0.00, 0.00, 0.00, 0.00
186, 1672.87, 60902.45, 13729.96, 34801.69, -25981.20, -15129.54, 10854.41, -25723.64, -2591.42, 43747.91, 12310.42, -33133.66, 0.00, 0.00, 0.00, 0.00, 0.00, 0.00, 0.00
187, 1675.15, 60892.25, 13735.91, 34815.41, -25974.63, -15122.00, 10867.87, -25712.33, -2591.42, 43747.91, 12310.42, -33133.66, 0.00, 0.00, 0.00, 0.00, 0.00, 0.00, 0.00
188, 1675.15, 60892.25, 13735.91, 34815.41, -25974.63, -15122.00, 10867.87, -25712.33, -2585.54, 43767.33, 12326.18, -33136.64, 0.00, 0.00, 0.00, 0.00, 0.00, 0.00, 0.00
189, 1680.76, 60898.06, 13728.51, 34811.21, -25978.31, -15127.10, 10857.02, -25720.55, -2585.54, 43767.33, 12326.18, -33136.64, 0.00, 0.00, 0.00, 0.00, 0.00, 0.00, 0.00
190, 1680.76, 60898.06, 13728.51, 34811.21, -25978.31, -15127.10, 10857.02, -25720.55, -2596.85, 43745.38, 12307.70, -33144.26, 0.00, 0.00, 0.00, 0.00, -0.14, 0.41, 0.91
191, 1685.79, 60901.50, 13741.76, 34818.54, -25972.30, -15121.18, 10866.37, -25716.66, -2596.85, 43745.38, 12307.70, -33144.26, 0.00, 0.00, 0.00, 0.00, 0.00, 0.00, 0.00
192, 1685.79, 60901.50, 13741.76, 34818.54, -25972.30, -15121.18, 10866.37, -25716.66, -2590.19, 43762.48, 12326.61, -33136.91, 0.00, 0.00, 0.00, 0.00, 0.00, 0.00, 0.00
193, 1681.61, 60888.95, 13742.90, 34817.33, -25972.26, -15121.67, 10865.83, -25715.77, -2590.19, 43762.48, 12326.61, -33136.91, 0.00, 0.00, 0.00, 0.00, 0.00, 0.00, 0.00
194, 1681.61, 60888.95, 13742.90, 34817.33, -25972.26, -15121.67, 10865.83, -25715.77, -2594.43, 43745.78, 12319.30, -33142.63, 0.00, 0.00, 0.00, 0.00, 0.00, 0.00, 0.00
195, 1681.19, 60911.32, 13743.22, 34824.48, -25968.44, -15117.92, 10867.57, -25712.17, -2594.43, 43745.78, 12319.30, -33142.63, 0.00, 0.00, 0.00, 0.00, 0.00, 0.00, 0.00
196, 1681.19, 60911.32, 13743.22, 34824.48, -25968.44, -15117.92, 10867.57, -25712.17, -2586.05, 43770.59, 12334.34, -33140.39, 0.00, 0.00, 0.00, 0.00, 0.00, 0.00, 0.00
197, 1690.82, 60907.99, 13750.86, 34827.59, -25961.37, -15114.96, 10874.44, -25708.80, -2586.05, 43770.59, 12334.34, -33140.39, 0.00, 0.00, 0.00, 0.00, 0.00, 0.00, 0.00
198, 1690.82, 60907.99, 13750.86, 34827.59, -25961.37, -15114.96, 10874.44, -25708.80, -2590.68, 43752.46, 12323.23, -33135.61, 0.00, 0.00, 0.00, 0.00, 0.00, 0.00, 0.00
199, 1676.25, 60892.23, 13741.05, 34822.05, -25971.56, -15121.45, 10865.32, -25718.88, -2590.68, 43752.46, 12323.23, -33135.61, 0.00, 0.00, 0.00, 0.00, -0.13, 0.40, 0.91
200, 1676.25, 60892.23, 13741.05, 34822.05, -25971.56, -15121.45, 10865.32, -25718.88, -2591.95, 43763.48, 12331.39, -33135.19, 0.00, 0.00, 0.00, 0.00, 0.00, 0.00, 0.00
201, 1698.53, 60914.11, 13744.11, 34830.66, -25969.11, -15114.45, 10873.32, -25712.35, -2591.95, 43763.48, 12331.39, -33135.19, 0.00, 0.00, 0.00, 0.00, 0.00, 0.00, 0.00
202, 1698.53, 60914.11, 13744.11, 34830.66, -25969.11, -15114.45, 10873.32, -25712.35, -2598.70, 43748.62, 12319.75, -33146.47, 0.00, 0.00, 0.00, 0.00, 0.00, 0.00, 0.00
203, 1693.30, 60898.04, 13746.75, 34828.58, -25971.05, -15117.36, 10867.89, -25717.60, -2598.70, 43748.62, 12319.75, -33146.47, 0.00, 0.00, 0.00, 0.00, 0.00, 0.00, 0.00
204, 1693.30, 60898.04, 13746.75, 34828.58, -25971.05, -15117.36, 10867.89, -25717.60, -2585.98, 43767.69, 12339.46, -33126.51, 0.00, 0.00, 0.00, 0.00, 0.00, 0.00, 0.00
205, 1694.15, 60909.51, 13759.58, 34836.80, -25956.68, -15109.00, 10880.78, -25702.16, -2585.98, 43767.69, 12339.46, -33126.51, 0.00, 0.00, 0.00, 0.00, 0.00, 0.00, 0.00
206, 1694.15, 60909.51, 13759.58, 34836.80, -25956.68, -15109.00, 10880.78, -25702.16, -2584.17, 43760.11, 12327.08, -33140.93, 0.00, 0.00, 0.00, 0.00, 0.00, 0.00, 0.00
207, 1687.31, 60917.75, 13753.52, 34830.50, -25964.77, -15113.15, 10875.87, -25709.82, -2584.17, 43760.11, 12327.08, -33140.93, 0.00, 0.00, 0.00, 0.00, 0.00, 0.00, 0.00
208, 1687.31, 60917.75, 13753.52, 34830.50, -25964.77, -15113.15, 10875.87, -25709.82, -2582.05, 43770.77, 12333.45, -33128.86, 0.00, 0.00, 0.00, 0.00, 0.00, 0.00, 0.00
209, 1691.24, 60916.91, 13751.40, 34837.56, -25953.97, -15105.08, 10885.75, -25698.85, -2582.05, 43770.77, 12333.45, -33128.86, 0.00, 0.00, 0.00, 0.00, -0.14, 0.40, 0.90
210, 1691.24, 60916.91, 13751.40, 34837.56, -25953.97, -15105.08, 10885.75, -25698.85, -2589.07, 43756.45, 12323.08, -33131.30, 0.00, 0.00, 0.00, 0.00, 0.00, 0.00, 0.00
211, 1680.16, 60895.96, 13742.32, 34823.52, -25973.69, -15117.78, 10868.51, -25714.88, -2589.07, 43756.45, 12323.08, -33131.30, 0.00, 0.00, 0.00, 0.00, 0.00, 0.00, 0.00
212, 1680.16, 60895.96, 13742.32, 34823.52, -25973.69, -15117.78, 10868.51, -25714.88, -2584.22, 43768.78, 12324.42, -33132.23, 0.00, 0.00, 0.00, 0.00, 0.00, 0.00, 0.00
213, 1687.80, 60908.66, 13753.30, 34839.51, -25952.59, -15104.64, 10885.14, -25697.55, -2584.22, 43768.78, 12324.42, -33132.23, 0.00, 0.00, 0.00, 0.00, 0.00, 0.00, 0.00
214, 1687.80, 60908.66, 13753.30, 34839.51, -25952.59, -15104.64, 10885.14, -25697.55, -2587.42, 43761.59, 12317.96, -33145.60, 0.00, 0.00, 0.00, 0.00, 0.00, 0.00, 0.00
215, 1691.65, 60894.09, 13740.78, 34824.98, -25967.43, -15117.67, 10870.30, -25716.78, -2587.42, 43761.59, 12317.96, -33145.60, 0.00, 0.00, 0.00, 0.00, 0.00, 0.00, 0.00
216, 1691.65, 60894.09, 13740.78, 34824.98, -25967.43, -15117.67, 10870.30, -25716.78, -2585.20, 43762.25, 12321.80, -33131.18, 0.00, 0.00, 0.00, 0.00, 0.00, 0.00, 0.00
217, 1707.67, 60929.20, 13753.03, 34845.21, -25954.53, -15099.99, 10891.20, -25697.44, -2585.20, 43762.25, 12321.80, -33131.18, 0.00, 0.00, 0.00, 0.00, 0.00, 0.00, 0.00
218, 1707.67, 60929.20, 13753.03, 34845.21, -25954.53, -15099.99, 10891.20, -25697.44, -2586.05, 43763.24, 12324.13, -33120.12, 0.00, 0.00, 0.00, 0.00, 0.00, 0.00, 0.00
219, 1687.00, 60905.24, 13747.35, 34821.96, -25970.04, -15118.94, 10871.40, -25715.21, -2586.05, 43763.24, 12324.13, -33120.12, 0.00, 0.00, 0.00, 0.00, -0.14, 0.41, 0.90
220, 1687.00, 60905.24, 13747.35, 34821.96, -25970.04, -15118.94, 10871.40, -25715.21, -2585.45, 43762.01, 12324.01, -33133.06, 0.00, 0.00, 0.00, 0.00, 0.00, 0.00, 0.00
221, 1688.14, 60910.34, 13758.79, 34842.01, -25948.63, -15103.48, 10887.89, -25699.90, -2585.45, 43762.01, 12324.01, -33133.06, 0.00, 0.00, 0.00, 0.00, 0.00, 0.00, 0.00
222, 1688.14, 60910.34, 13758.79, 34842.01, -25948.63, -15103.48, 10887.89, -25699.90, -2581.98, 43762.12, 12330.05, -33140.77, 0.00, 0.00, 0.00, 0.00, 0.00, 0.00, 0.00
223, 1686.24, 60904.05, 13744.85, 34825.74, -25962.42, -15114.67, 10874.59, -25716.11, -2581.98, 43762.12, 12330.05, -33140.77, 0.00, 0.00, 0.00, 0.00, 0.00, 0.00, 0.00
224, 1686.24, 60904.05, 13744.85, 34825.74, -25962.42, -15114.67, 10874.59, -25716.11, -2583.28, 43757.45, 12322.56, -33137.51, 0.00, 0.00, 0.00, 0.00, 0.00, 0.00, 0.00
225, 1704.37, 60929.22, 13758.33, 34842.39, -25950.22, -15100.26, 10894.04, -25696.97, -2583.28, 43757.45, 12322.56, -33137.51, 0.00, 0.00, 0.00, 0.00, 0.00, 0.00, 0.00
226, 1704.37, 60929.22, 13758.33, 34842.39, -25950.22, -15100.26, 10894.04, -25696.97, -2578.47, 43773.34, 12336.73, -33130.78, 0.00, 0.00, 0.00, 0.00, 0.00, 0.00, 0.00
227, 1686.91, 60908.57, 13755.11, 34830.66, -25961.28, -15111.21, 10877.43, -25712.57, -2578.47, 43773.34, 12336.73, -33130.78, 0.00, 0.00, 0.00, 0.00, 0.00, 0.00, 0.00
228, 1686.91, 60908.57, 13755.11, 34830.66, -25961.28, -15111.21, 10877.43, -25712.57, -2587.82, 43758.10, 12319.77, -33129.71, 0.00, 0.00, 0.00, 0.00, 0.00, 0.00, 0.00
229, 1702.15, 60908.70, 13751.55, 34841.12, -25947.54, -15101.49, 10892.54, -25700.75, -2587.82, 43758.10, 12319.77, -33129.71, 0.00, 0.00, 0.00, 0.00, -0.14, 0.41, 0.90
230, 1702.15, 60908.70, 13751.55, 34841.12, -25947.54, -15101.49, 10892.54, -25700.75, -2584.29, 43766.30, 12325.06, -33133.29, 0.00, 0.00, 0.00, 0.00, 0.00, 0.00, 0.00
231, 1677.54, 60897.30, 13742.17, 34828.62, -25966.40, -15111.23, 10876.40, -25715.61, -2584.29, 43766.30, 12325.06, -33133.29, 0.00, 0.00, 0.00, 0.00, 0.00, 0.00, 0.00
232, 1677.54, 60897.30, 13742.17, 34828.62, -25966.40, -15111.23, 10876.40, -25715.61, -2587.57, 43755.59, 12310.00, -33140.33, 0.00, 0.00, 0.00, 0.00, 0.00, 0.00, 0.00
233, 1675.51, 60913.40, 13752.27, 34831.73, -25955.94, -15106.29, 10888.72, -25702.63, -2587.57, 43755.59, 12310.00, -33140.33, 0.00, 0.00, 0.00, 0.00, 0.00, 0.00, 0.00
234, 1675.51, 60913.40, 13752.27, 34831.73, -25955.94, -15106.29, 10888.72, -25702.63, -2582.27, 43768.40, 12322.61, -33128.17, 0.00, 0.00, 0.00, 0.00, 0.00, 0.00, 0.00
235, 1675.87, 60905.26, 13743.95, 34827.14, -25963.32, -15110.32, 10879.49, -25712.48, -2582.27, 43768.40, 12322.61, -33128.17, 0.00, 0.00, 0.00, 0.00, 0.00, 0.00, 0.00
236, 1675.87, 60905.26, 13743.95, 34827.14, -25963.32, -15110.32, 10879.49, -25712.48, -2582.43, 43757.18, 12312.82, -33132.53, 0.00, 0.00, 0.00, 0.00, 0.00, 0.00, 0.00
237, 1693.21, 60908.46, 13742.70, 34835.77, -25951.18, -15101.13, 10893.66, -25699.16, -2582.43, 43757.18, 12312.82, -33132.53, 0.00, 0.00, 0.00, 0.00, 0.00, 0.00, 0.00
238, 1693.21, 60908.46, 13742.70, 34835.77, -25951.18, -15101.13, 10893.66, -25699.16, -2574.70, 43778.17, 12326.23, -33120.86, 0.00, 0.00, 0.00, 0.00, -0.15, 0.41, 0.90
239, 1672.78, 60899.58, 13745.58, 34833.52, -25956.28, -15103.79, 10887.15, -25705.15, -2574.70, 43778.17, 12326.23, -33120.86, 0.00, 0.00, 0.00, 0.00, 0.00, 0.00, 0.00
240, 1672.78, 60899.58, 13745.58, 34833.52, -25956.28, -15103.79, 10887.15, -25705.15, -2582.19, 43760.71, 12316.19, -33131.63, 0.00, 0.00, 0.00, 0.00, 0.00, 0.00, 0.00
241, 1684.85, 60903.56, 13749.27, 34833.49, -25953.26, -15101.04, 10893.30, -25698.85, -2582.19, 43760.71, 12316.19, -33131.63, 0.00, 0.00, 0.00, 0.00, 0.00, 0.00, 0.00
242, 1684.85, 60903.56, 13749.27, 34833.49, -25953.26, -15101.04, 10893.30, -25698.85, -2566.11, 43785.12, 12331.55, -33119.90, 0.00, 0.00, 0.00, 0.00, 0.00, 0.00, 0.00
243, 1673.99, 60903.29, 13754.26, 34835.80, -25953.50, -15099.21, 10894.20, -25696.59, -2566.11, 43785.12, 12331.55, -33119.90, 0.00, 0.00, 0.00, 0.00, 0.00, 0.00, 0.00
244, 1673.99, 60903.29, 13754.26, 34835.80, -25953.50, -15099.21, 10894.20, -25696.59, -2576.75, 43765.70, 12313.08, -33133.26, 0.00, 0.00, 0.00, 0.00, 0.00, 0.00, 0.00
245, 1684.07, 60905.75, 13742.81, 34827.05, -25951.63, -15104.50, 10890.82, -25701.24, -2576.75, 43765.70, 12313.08, -33133.26, 0.00, 0.00, 0.00, 0.00, 0.00, 0.00, 0.00
246, 1684.07, 60905.75, 13742.81, 34827.05, -25951.63, -15104.50, 10890.82, -25701.24, -2571.48, 43776.47, 12336.53, -33120.01, 0.00, 0.00, 0.00, 0.00, 0.00, 0.00, 0.00
247, 1697.66, 60937.80, 13751.42, 34837.85, -25945.39, -15097.98, 10896.94, -25698.94, -2571.48, 43776.47, 12336.53, -33120.01, 0.00, 0.00, 0.00, 0.00, 0.00, 0.00, 0.00
248, 1697.66, 60937.80, 13751.42, 34837.85, -25945.39, -15097.98, 10896.94, -25698.94, -2572.91, 43758.84, 12323.83, -33121.17, 0.00, 0.00, 0.00, 0.00, -0.14, 0.41, 0.91
249, 1688.00, 60917.87, 13749.56, 34826.45, -25955.98, -15104.64, 10889.93, -25700.91, -2572.91, 43758.84, 12323.83, -33121.17, 0.00, 0.00, 0.00, 0.00, 0.00, 0.00, 0.00
250, 1688.00, 60917.87, 13749.56, 34826.45, -25955.98, -15104.64, 10889.93, -25700.91, -2570.45, 43778.08, 12335.68, -33127.30, 0.00, 0.00, 0.00, 0.00, 0.00, 0.00, 0.00
251, 1687.47, 60915.07, 13761.41, 34836.94, -25944.70, -15097.02, 10899.13, -25693.89, -2570.45, 43778.08, 12335.68, -33127.30, 0.00, 0.00, 0.00, 0.00, 0.00, 0.00, 0.00
252, 1687.47, 60915.07, 13761.41, 34836.94, -25944.70, -15097.02, 10899.13, -25693.89, -2575.66, 43760.91, 12321.94, -33128.37, 0.00, 0.00, 0.00, 0.00, 0.00, 0.00, 0.00
253, 1691.09, 60899.70, 13740.35, 34827.37, -25954.44, -15104.50, 10888.81, -25706.65, -2575.66, 43760.91, 12321.94, -33128.37, 0.00, 0.00, 0.00, 0.00, 0.00, 0.00, 0.00
254, 1691.09, 60899.70, 13740.35, 34827.37, -25954.44, -15104.50, 10888.81, -25706.65, -2571.48, 43776.18, 12328.77, -33130.85, 0.00, 0.00, 0.00, 0.00, 0.00, 0.00, 0.00
255, 1694.89, 60915.07, 13752.74, 34837.79, -25942.89, -15096.35, 10900.41, -25692.68, -2571.48, 43776.18, 12328.77, -33130.85, 0.00, 0.00, 0.00, 0.00, 0.00, 0.00, 0.00
0, 1694.89, 60915.07, 13752.74, 34837.79, -25942.89, -15096.35, 10900.41, -25692.68, -2573.83, 43763.98, 12321.33, -33127.25, 0.00, 0.00, 0.00, 0.00, 0.00, 0.00, 0.00
1, 1673.21, 60902.94, 13740.89, 34823.84, -25960.92, -15105.73, 10886.82, -25707.75, -2573.83, 43763.98, 12321.33, -33127.25, 0.00, 0.00, 0.00, 0.00, 0.00, 0.00, 0.00
2, 1673.21, 60902.94, 13740.89, 34823.84, -25960.92, -15105.73, 10886.82, -25707.75, -2571.14, 43773.75, 12318.31, -33110.87, 0.00, 0.00, 0.00, 0.00, -0.14, 0.42, 0.90
3, 1679.96, 60915.81, 13751.24, 34837.27, -25947.00, -15093.26, 10901.62, -25692.66, -2571.14, 43773.75, 12318.31, -33110.87, 0.00, 0.00, 0.00, 0.00, 0.00, 0.00, 0.00
4, 1679.96, 60915.81, 13751.24, 34837.27, -25947.00, -15093.26, 10901.62, -25692.66, -2571.05, 43768.89, 12321.31, -33123.50, 0.00, 0.00, 0.00, 0.00, 0.00, 0.00, 0.00
5, 1675.04, 60907.61, 13741.14, 34823.55, -25953.88, -15104.84, 10885.84, -25707.72, -2571.05, 43768.89, 12321.31, -33123.50, 0.00, 0.00, 0.00, 0.00, 0.00, 0.00, 0.00
6, 1675.04, 60907.61, 13741.14, 34823.55, -25953.88, -15104.84, 10885.84, -25707.72, -2570.36, 43773.52, 12317.46, -33128.30, 0.00, 0.00, 0.00, 0.00, 0.00, 0.00, 0.00
7, 1681.57, 60919.97, 13752.20, 34839.39, -25944.88, -15091.63, 10902.38, -25693.55, -2570.36, 43773.52, 12317.46, -33128.30, 0.00, 0.00, 0.00, 0.00, 0.00, 0.00, 0.00
8, 1681.57, 60919.97, 13752.20, 34839.39, -25944.88, -15091.63, 10902.38, -25693.55, -2571.41, 43766.37, 12318.56, -33116.50, 0.00, 0.00, 0.00, 0.00, 0.00, 0.00, 0.00
9, 1686.77, 60899.07, 13742.77, 34820.78, -25962.18, -15104.73, 10885.90, -25708.44, -2571.41, 43766.37, 12318.56, -33116.50, 0.00, 0.00, 0.00, 0.00, 0.00, 0.00, 0.00
10, 1686.77, 60899.07, 13742.77, 34820.78, -25962.18, -15104.73, 10885.90, -25708.44, -2571.46, 43769.12, 12317.96, -33120.70, 0.00, 0.00, 0.00, 0.00, 0.00, 0.00, 0.00
11, 1685.19, 60921.00, 13747.22, 34837.79, -25943.98, -15091.50, 10904.95, -25691.59, -2571.46, 43769.12, 12317.96, -33120.70, 0.00, 0.00, 0.00, 0.00, 0.00, 0.00, 0.00
12, 1685.19, 60921.00, 13747.22, 34837.79, -25943.98, -15091.50, 10904.95, -25691.59, -2565.47, 43773.75, 12324.97, -33122.40, 0.00, 0.00, 0.00, 0.00, -0.14, 0.41, 0.90
13, 1667.31, 60903.45, 13741.00, 34821.96, -25953.84, -15101.78, 10888.58, -25704.35, -2565.47, 43773.75, 12324.97, -33122.40, 0.00, 0.00, 0.00, 0.00, 0.00, 0.00, 0.00
14, 1667.31, 60903.45, 13741.00, 34821.96, -25953.84, -15101.78, 10888.58, -25704.35, -2564.97, 43775.84, 12315.70, -33124.57, 0.00, 0.00, 0.00, 0.00, 0.00, 0.00, 0.00
15, 1690.06, 60914.74, 13757.59, 34840.29, -25941.77, -15089.30, 10908.37, -25687.18, -2564.97, 43775.84, 12315.70, -33124.57, 0.00, 0.00, 0.00, 0.00, 0.00, 0.00, 0.00
16, 1690.06, 60914.74, 13757.59, 34840.29, -25941.77, -15089.30, 10908.37, -25687.18, -2563.72, 43773.99, 12324.21, -33110.96, 0.00, 0.00, 0.00, 0.00, 0.00, 0.00, 0.00
17, 1678.26, 60901.91, 13744.24, 34820.86, -25958.20, -15102.22, 10888.94, -25703.86, -2563.72, 43773.99, 12324.21, -33110.96, 0.00, 0.00, 0.00, 0.00, 0.00, 0.00, 0.00
18, 1678.26, 60901.91, 13744.24, 34820.86, -25958.20, -15102.22, 10888.94, -25703.86, -2568.73, 43767.55, 12317.53, -33123.61, 0.00, 0.00, 0.00, 0.00, 0.00, 0.00, 0.00
19, 1696.05, 60910.42, 13745.94, 34833.54, -25944.88, -15091.05, 10904.32, -25686.89, -2568.73, 43767.55, 12317.53, -33123.61, 0.00, 0.00, 0.00, 0.00, 0.00, 0.00, 0.00
20, 1696.05, 60910.42, 13745.94, 34833.54, -25944.88, -15091.05, 10904.32, -25686.89, -2561.04, 43781.37, 12328.98, -33113.93, 0.00, 0.00, 0.00, 0.00, 0.00, 0.00, 0.00
21, 1684.49, 60922.34, 13751.46, 34823.82, -25947.92, -15096.90, 10895.76, -25695.63, -2561.04, 43781.37, 12328.98, -33113.93, 0.00, 0.00, 0.00, 0.00, -0.14, 0.40, 0.91
22, 1684.49, 60922.34, 13751.46, 34823.82, -25947.92, -15096.90, 10895.76, -25695.63, -2560.86, 43774.06, 12327.59, -33118.07, 0.00, 0.00, 0.00, 0.00, 0.00, 0.00, 0.00
23, 1692.56, 60932.84, 13765.95, 34845.50, -25930.48, -15080.36, 10918.98, -25679.36, -2560.86, 43774.06, 12327.59, -33118.07, 0.00, 0.00, 0.00, 0.00, 0.00, 0.00, 0.00
24, 1692.56, 60932.84, 13765.95, 34845.50, -25930.48, -15080.36, 10918.98, -25679.36, -2558.72, 43783.85, 12337.74, -33110.53, 0.00, 0.00, 0.00, 0.00, 0.00, 0.00, 0.00
25, 1686.26, 60881.19, 13732.82, 34814.47, -25962.60, -15104.53, 10887.20, -25701.64, -2558.72, 43783.85, 12337.74, -33110.53, 0.00, 0.00, 0.00, 0.00, 0.00, 0.00, 0.00
26, 1686.26, 60881.19, 13732.82, 34814.47, -25962.60, -15104.53, 10887.20, -25701.64, -2572.17, 43761.07, 12296.59, -33134.38, 0.00, 0.00, 0.00, 0.00, 0.00, 0.00, 0.00
27, 1672.83, 60895.85, 13739.01, 34813.58, -25967.92, -15103.10, 10891.02, -25694.74, -2572.17, 43761.07, 12296.59, -33134.38, 0.00, 0.00, 0.00, 0.00, 0.00, 0.00, 0.00
28, 1672.83, 60895.85, 13739.01, 34813.58, -25967.92, -15103.10, 10891.02, -25694.74, -2566.23, 43777.43, 12319.05, -33105.82, 0.00, 0.00, 0.00, 0.00, 0.00, 0.00, 0.00
29, 1676.89, 60907.81, 13745.25, 34804.68, -25958.69, -15103.39, 10889.86, -25699.77, -2566.23, 43777.43, 12319.05, -33105.82, 0.00, 0.00, 0.00, 0.00, 0.00, 0.00, 0.00
30, 1676.89, 60907.81, 13745.25, 34804.68, -25958.69, -15103.39, 10889.86, -25699.77, -2571.46, 43764.22, 12313.60, -33117.73, 0.00, 0.00, 0.00, 0.00, 0.00, 0.00, 0.00
31, 1683.42, 60922.23, 13752.85, 34817.04, -25956.41, -15095.34, 10900.21, -25690.87, -2571.46, 43764.22, 12313.60, -33117.73, 0.00, 0.00, 0.00, 0.00, -0.14, 0.41, 0.91
32, 1683.42, 60922.23, 13752.85, 34817.04, -25956.41, -15095.34, 10900.21, -25690.87, -2564.28, 43784.68, 12337.54, -33114.96, 0.00, 0.00, 0.00, 0.00, 0.00, 0.00, 0.00
33, 1683.31, 60932.86, 13739.62, 34813.91, -25962.00, -15097.42, 10892.74, -25696.03, -2564.28, 43784.68, 12337.54, -33114.96, 0.00, 0.00, 0.00, 0.00, 0.00, 0.00, 0.00
34, 1683.31, 60932.86, 13739.62, 34813.91, -25962.00, -15097.42, 10892.74, -25696.03, -2571.14, 43764.20, 12315.79, -33129.98, 0.00, 0.00, 0.00, 0.00, 0.00, 0.00, 0.00
35, 1688.81, 60888.00, 13745.54, 34810.81, -25957.71, -15096.66, 10896.14, -25694.58, -2571.14, 43764.20, 12315.79, -33129.98, 0.00, 0.00, 0.00, 0.00, 0.00, 0.00, 0.00
36, 1688.81, 60888.00, 13745.54, 34810.81, -25957.71, -15096.66, 10896.14, -25694.58, -2561.76, 43782.71, 12331.12, -33106.40, 0.00, 0.00, 0.00, 0.00, 0.00, 0.00, 0.00
37, 1699.78, 60896.83, 13750.03, 34813.78, -25959.56, -15095.34, 10897.86, -25693.66, -2561.76, 43782.71, 12331.12, -33106.40, 0.00, 0.00, 0.00, 0.00, 0.00, 0.00, 0.00
38, 1699.78, 60896.83, 13750.03, 34813.78, -25959.56, -15095.34, 10897.86, -25693.66, -2572.48, 43762.81, 12313.60, -33111.63, 0.00, 0.00, 0.00, 0.00, 0.00, 0.00, 0.00
39, 1676.54, 60909.95, 13741.38, 34808.66, -25964.12, -15098.04, 10892.16, -25697.55, -2572.48, 43762.81, 12313.60, -33111.63, 0.00, 0.00, 0.00, 0.00, 0.00, 0.00, 0.00
40, 1676.54, 60909.95, 13741.38, 34808.66, -25964.12, -15098.04, 10892.16, -25697.55, -2564.17, 43780.56, 12322.11, -33121.08, 0.00, 0.00, 0.00, 0.00, 0.00, 0.00, 0.00
41, 1680.05, 60913.35, 13743.82, 34813.36, -25961.28, -15094.65, 10897.21, -25690.80, -2564.17, 43780.56, 12322.11, -33121.08, 0.00, 0.00, 0.00, 0.00, -0.13, 0.40, 0.90
42, 1680.05, 60913.35, 13743.82, 34813.36, -25961.28, -15094.65, 10897.21, -25690.80, -2570.23, 43765.38, 12314.31, -33123.07, 0.00, 0.00, 0.00, 0.00, 0.00, 0.00, 0.00
43, 1679.00, 60904.97, 13738.14, 34807.99, -25968.57, -15099.68, 10891.04, -25696.73, -2570.23, 43765.38, 12314.31, -33123.07, 0.00, 0.00, 0.00, 0.00, 0.00, 0.00, 0.00
44, 1679.00, 60904.97, 13738.14, 34807.99, -25968.57, -15099.68, 10891.04, -25696.73, -2558.56, 43786.48, 12322.92, -33101.48, 0.00, 0.00, 0.00, 0.00, 0.00, 0.00, 0.00
45, 1685.88, 60916.37, 13757.30, 34820.42, -25950.24, -15089.17, 10906.38, -25686.18, -2558.56, 43786.48, 12322.92, -33101.48, 0.00, 0.00, 0.00, 0.00, 0.00, 0.00, 0.00
46, 1685.88, 60916.37, 13757.30, 34820.42, -25950.24, -15089.17, 10906.38, -25686.18, -2561.96, 43771.22, 12321.33, -33117.75, 0.00, 0.00, 0.00, 0.00, 0.00, 0.00, 0.00
47, 1680.65, 60901.82, 13746.32, 34806.07, -25972.32, -15099.92, 10885.95, -25702.85, -2561.96, 43771.22, 12321.33, -33117.75, 0.00, 0.00, 0.00, 0.00, 0.00, 0.00, 0.00
48, 1680.65, 60901.82, 13746.32, 34806.07, -25972.32, -15099.92, 10885.95, -25702.85, -2562.47, 43779.98, 12334.05, -33107.47, 0.00, 0.00, 0.00, 0.00, 0.00, 0.00, 0.00
49, 1698.67, 60928.04, 13756.40, 34818.88, -25950.64, -15088.05, 10908.01, -25679.83, -2562.47, 43779.98, 12334.05, -33107.47, 0.00, 0.00, 0.00, 0.00, 0.00, 0.00, 0.00
50, 1698.67, 60928.04, 13756.40, 34818.88, -25950.64, -15088.05, 10908.01, -25679.83, -2562.43, 43777.61, 12328.71, -33113.68, 0.00, 0.00, 0.00, 0.00, 0.00, 0.00, 0.00
51, 1684.05, 60917.73, 13741.74, 34804.88, -25963.03, -15099.00, 10891.94, -25693.87, -2562.43, 43777.61, 12328.71, -33113.68, 0.00, 0.00, 0.00, 0.00, -0.14, 0.41, 0.91
52, 1684.05, 60917.73, 13741.74, 34804.88, -25963.03, -15099.00, 10891.94, -25693.87, -2563.75, 43776.67, 12328.17, -33096.29, 0.00, 0.00, 0.00, 0.00, 0.00, 0.00, 0.00
53, 1686.86, 60920.84, 13752.45, 34818.45, -25952.59, -15087.14, 10907.70, -25682.82, -2563.75, 43776.67, 12328.17, -33096.29, 0.00, 0.00, 0.00, 0.00, 0.00, 0.00, 0.00
54, 1686.86, 60920.84, 13752.45, 34818.45, -25952.59, -15087.14, 10907.70, -25682.82, -2559.99, 43777.63, 12327.57, -33108.12, 0.00, 0.00, 0.00, 0.00, 0.00, 0.00, 0.00
55, 1686.26, 60900.21, 13742.08, 34805.64, -25965.35, -15097.44, 10890.40, -25693.49, -2559.99, 43777.63, 12327.57, -33108.12, 0.00, 0.00, 0.00, 0.00, 0.00, 0.00, 0.00
56, 1686.26, 60900.21, 13742.08, 34805.64, -25965.35, -15097.44, 10890.40, -25693.49, -2554.20, 43785.01, 12332.91, -33100.18, 0.00, 0.00, 0.00, 0.00, 0.00, 0.00, 0.00
57, 1687.06, 60917.82, 13755.04, 34819.75, -25952.43, -15084.16, 10910.96, -25674.08, -2554.20, 43785.01, 12332.91, -33100.18, 0.00, 0.00, 0.00, 0.00, 0.00, 0.00, 0.00
58, 1687.06, 60917.82, 13755.04, 34819.75, -25952.43, -15084.16, 10910.96, -25674.08, -2557.62, 43782.98, 12326.54, -33110.71, 0.00, 0.00, 0.00, 0.00, 0.00, 0.00, 0.00
59, 1664.96, 60903.43, 13743.42, 34804.50, -25971.38, -15096.81, 10891.92, -25694.42, -2557.62, 43782.98, 12326.54, -33110.71, 0.00, 0.00, 0.00, 0.00, 0.00, 0.00, 0.00
60, 1664.96, 60903.43, 13743.42, 34804.50, -25971.38, -15096.81, 10891.92, -25694.42, -2565.06, 43774.59, 12315.32, -33109.97, 0.00, 0.00, 0.00, 0.00, -0.13, 0.41, 0.91
61, 1683.31, 60921.40, 13745.32, 34812.21, -25958.15, -15089.84, 10903.81, -25683.54, -2565.06, 43774.59, 12315.32, -33109.97, 0.00, 0.00, 0.00, 0.00, 0.00, 0.00, 0.00
62, 1683.31, 60921.40, 13745.32, 34812.21, -25958.15, -15089.84, 10903.81, -25683.54, -2564.44, 43774.30, 12315.01, -33101.57, 0.00, 0.00, 0.00, 0.00, 0.00, 0.00, 0.00
63, 1662.19, 60895.05, 13727.03, 34794.27, -25979.30, -15104.71, 10882.64, -25705.00, -2564.44, 43774.30, 12315.01, -33101.57, 0.00, 0.00, 0.00, 0.00, 0.00, 0.00, 0.00
64, 1662.19, 60895.05, 13727.03, 34794.27, -25979.30, -15104.71, 10882.64, -25705.00, -2569.69, 43769.30, 12301.64, -33114.96, 0.00, 0.00, 0.00, 0.00, 0.00, 0.00, 0.00
65, 1679.51, 60903.65, 13736.44, 34805.82, -25967.81, -15090.65, 10899.18, -25684.54, -2569.69, 43769.30, 12301.64, -33114.96, 0.00, 0.00, 0.00, 0.00, 0.00, 0.00, 0.00
66, 1679.51, 60903.65, 13736.44, 34805.82, -25967.81, -15090.65, 10899.18, -25684.54, -2562.45, 43782.75, 12315.34, -33110.58, 0.00, 0.00, 0.00, 0.00, 0.00, 0.00, 0.00
67, 1669.18, 60886.51, 13726.41, 34795.50, -25984.48, -15101.82, 10883.53, -25699.97, -2562.45, 43782.75, 12315.34, -33110.58, 0.00, 0.00, 0.00, 0.00, 0.00, 0.00, 0.00
68, 1669.18, 60886.51, 13726.41, 34795.50, -25984.48, -15101.82, 10883.53, -25699.97, -2571.17, 43766.84, 12303.34, -33104.05, 0.00, 0.00, 0.00, 0.00, 0.00, 0.00, 0.00
69, 1675.11, 60906.60, 13743.48, 34807.41, -25963.41, -15088.25, 10901.37, -25684.81, -2571.17, 43766.84, 12303.34, -33104.05, 0.00, 0.00, 0.00, 0.00, 0.00, 0.00, 0.00
70, 1675.11, 60906.60, 13743.48, 34807.41, -25963.41, -15088.25, 10901.37, -25684.81, -2562.14, 43784.05, 12316.62, -33098.86, 0.00, 0.00, 0.00, 0.00, -0.14, 0.41, 0.91
71, 1683.40, 60907.65, 13736.40, 34800.77, -25974.67, -15095.58, 10891.80, -25695.36, -2562.14, 43784.05, 12316.62, -33098.86, 0.00, 0.00, 0.00, 0.00, 0.00, 0.00, 0.00
72, 1683.40, 60907.65, 13736.40, 34800.77, -25974.67, -15095.58, 10891.80, -25695.36, -2566.38, 43771.02, 12310.74, -33109.23, 0.00, 0.00, 0.00, 0.00, 0.00, 0.00, 0.00
73, 1674.03, 60911.45, 13743.28, 34809.76, -25969.53, -15088.48, 10900.34, -25684.50, -2566.38, 43771.02, 12310.74, -33109.23, 0.00, 0.00, 0.00, 0.00, 0.00, 0.00, 0.00
74, 1674.03, 60911.45, 13743.28, 34809.76, -25969.53, -15088.48, 10900.34, -25684.50, -2563.48, 43784.07, 12316.55, -33120.95, 0.00, 0.00, 0.00, 0.00, 0.00, 0.00, 0.00
75, 1671.51, 60902.46, 13735.53, 34795.18, -25981.15, -15098.83, 10888.14, -25696.88, -2563.48, 43784.07, 12316.55, -33120.95, 0.00, 0.00, 0.00, 0.00, 0.00, 0.00, 0.00
76, 1671.51, 60902.46, 13735.53, 34795.18, -25981.15, -15098.83, 10888.14, -25696.88, -2569.38, 43769.32, 12304.05, -33095.42, 0.00, 0.00, 0.00, 0.00, 0.00, 0.00, 0.00
77, 1677.86, 60899.47, 13743.37, 34808.13, -25968.61, -15086.87, 10901.30, -25683.00, -2569.38, 43769.32, 12304.05, -33095.42, 0.00, 0.00, 0.00, 0.00, 0.00, 0.00, 0.00
78, 1677.86, 60899.47, 13743.37, 34808.13, -25968.61, -15086.87, 10901.30, -25683.00, -2560.24, 43790.69, 12320.39, -33089.34, 0.00, 0.00, 0.00, 0.00, 0.00, 0.00, 0.00
79, 1673.43, 60892.36, 13735.59, 34800.66, -25977.35, -15094.24, 10893.41, -25692.28, -2560.24, 43790.69, 12320.39, -33089.34, 0.00, 0.00, 0.00, 0.00, 0.00, 0.00, 0.00
80, 1673.43, 60892.36, 13735.59, 34800.66, -25977.35, -15094.24, 10893.41, -25692.28, -2566.70, 43768.27, 12309.35, -33120.12, 0.00, 0.00, 0.00, 0.00, -0.14, 0.41, 0.90
81, 1680.94, 60918.80, 13741.87, 34807.99, -25966.71, -15087.27, 10900.41, -25685.64, -2566.70, 43768.27, 12309.35, -33120.12, 0.00, 0.00, 0.00, 0.00, 0.00, 0.00, 0.00
82, 1680.94, 60918.80, 13741.87, 34807.99, -25966.71, -15087.27, 10900.41, -25685.64, -2555.81, 43791.38, 12324.35, -33092.00, 0.00, 0.00, 0.00, 0.00, 0.00, 0.00, 0.00
83, 1676.05, 60917.13, 13748.27, 34808.93, -25972.84, -15085.62, 10902.02, -25683.12, -2555.81, 43791.38, 12324.35, -33092.00, 0.00, 0.00, 0.00, 0.00, 0.00, 0.00, 0.00
84, 1676.05, 60917.13, 13748.27, 34808.93, -25972.84, -15085.62, 10902.02, -25683.12, -2560.95, 43771.80, 12313.13, -33093.77, 0.00, 0.00, 0.00, 0.00, 0.00, 0.00, 0.00
85, 1667.24, 60905.77, 13742.34, 34805.51, -25968.28, -15085.82, 10898.13, -25685.95, -2560.95, 43771.80, 12313.13, -33093.77, 0.00, 0.00, 0.00, 0.00, 0.00, 0.00, 0.00
86, 1667.24, 60905.77, 13742.34, 34805.51, -25968.28, -15085.82, 10898.13, -25685.95, -2555.47, 43791.78, 12325.44, -33097.75, 0.00, 0.00, 0.00, 0.00, 0.00, 0.00, 0.00
87, 1693.82, 60902.09, 13740.58, 34810.43, -25966.13, -15083.81, 10904.30, -25680.12, -2555.47, 43791.78, 12325.44, -33097.75, 0.00, 0.00, 0.00, 0.00, 0.00, 0.00, 0.00
88, 1693.82, 60902.09, 13740.58, 34810.43, -25966.13, -15083.81, 10904.30, -25680.12, -2563.66, 43776.67, 12306.02, -33110.71, 0.00, 0.00, 0.00, 0.00, 0.00, 0.00, 0.00
89, 1685.23, 60918.74, 13742.43, 34806.16, -25977.96, -15087.61, 10896.56, -25684.72, -2563.66, 43776.67, 12306.02, -33110.71, 0.00, 0.00, 0.00, 0.00, 0.00, 0.00, 0.00
90, 1685.23, 60918.74, 13742.43, 34806.16, -25977.96, -15087.61, 10896.56, -25684.72, -2557.22, 43792.43, 12319.99, -33085.63, 0.00, 0.00, 0.00, 0.00, -0.14, 0.41, 0.91
91, 1682.62, 60913.73, 13750.10, 34814.11, -25971.74, -15080.99, 10904.92, -25679.02, -2557.22, 43792.43, 12319.99, -33085.63, 0.00, 0.00, 0.00, 0.00, 0.00, 0.00, 0.00
92, 1682.62, 60913.73, 13750.10, 34814.11, -25971.74, -15080.99, 10904.92, -25679.02, -2563.75, 43774.53, 12307.50, -33097.97, 0.00, 0.00, 0.00, 0.00, 0.00, 0.00, 0.00
93, 1675.04, 60907.18, 13734.36, 34799.45, -25978.96, -15089.68, 10890.15, -25690.20, -2563.75, 43774.53, 12307.50, -33097.97, 0.00, 0.00, 0.00, 0.00, 0.00, 0.00, 0.00
94, 1675.04, 60907.18, 13734.36, 34799.45, -25978.96, -15089.68, 10890.15, -25690.20, -2559.27, 43786.60, 12313.96, -33107.80, 0.00, 0.00, 0.00, 0.00, 0.00, 0.00, 0.00
95, 1687.74, 60918.49, 13735.59, 34808.23, -25972.01, -15082.80, 10902.22, -25678.40, -2559.27, 43786.60, 12313.96, -33107.80, 0.00, 0.00, 0.00, 0.00, 0.00, 0.00, 0.00
96, 1687.74, 60918.49, 13735.59, 34808.23, -25972.01, -15082.80, 10902.22, -25678.40, -2564.55, 43775.53, 12301.93, -33105.97, 0.00, 0.00, 0.00, 0.00, 0.00, 0.00, 0.00
97, 1678.53, 60894.35, 13736.69, 34800.82, -25981.13, -15089.48, 10895.13, -25684.39, -2564.55, 43775.53, 12301.93, -33105.97, 0.00, 0.00, 0.00, 0.00, 0.00, 0.00, 0.00
98, 1678.53, 60894.35, 13736.69, 34800.82, -25981.13, -15089.48, 10895.13, -25684.39, -2553.17, 43792.27, 12317.29, -33083.22, 0.00, 0.00, 0.00, 0.00, 0.00, 0.00, 0.00
99, 1681.90, 60919.07, 13750.82, 34812.33, -25968.44, -15076.77, 10907.87, -25671.22, -2553.17, 43792.27, 12317.29, -33083.22, 0.00, 0.00, 0.00, 0.00, -0.14, 0.41, 0.91
100, 1681.90, 60919.07, 13750.82, 34812.33, -25968.44, -15076.77, 10907.87, -25671.22, -2560.66, 43780.14, 12308.30, -33098.26, 0.00, 0.00, 0.00, 0.00, 0.00, 0.00, 0.00
101, 1673.79, 60913.96, 13736.49, 34799.81, -25979.12, -15089.35, 10891.56, -25688.17, -2560.66, 43780.14, 12308.30, -33098.26, 0.00, 0.00, 0.00, 0.00, 0.00, 0.00, 0.00
102, 1673.79, 60913.96, 13736.49, 34799.81, -25979.12, -15089.35, 10891.56, -25688.17, -2554.87, 43788.50, 12317.58, -33094.84, 0.00, 0.00, 0.00, 0.00, 0.00, 0.00, 0.00
103, 1692.90, 60912.48, 13747.62, 34817.02, -25967.34, -15073.99, 10912.28, -25668.34, -2554.87, 43788.50, 12317.58, -33094.84, 0.00, 0.00, 0.00, 0.00, 0.00, 0.00, 0.00
104, 1692.90, 60912.48, 13747.62, 34817.02, -25967.34, -15073.99, 10912.28, -25668.34, -2557.96, 43781.28, 12305.51, -33098.37, 0.00, 0.00, 0.00, 0.00, 0.00, 0.00, 0.00
105, 1664.13, 60897.59, 13730.90, 34797.98, -25986.25, -15087.90, 10888.61, -25687.58, -2557.96, 43781.28, 12305.51, -33098.37, 0.00, 0.00, 0.00, 0.00, 0.00, 0.00, 0.00
106, 1664.13, 60897.59, 13730.90, 34797.98, -25986.25, -15087.90, 10888.61, -25687.58, -2553.66, 43786.04, 12305.37, -33097.59, 0.00, 0.00, 0.00, 0.00, 0.00, 0.00, 0.00
107, 1668.85, 60908.86, 13743.68, 34816.37, -25975.25, -15073.84, 10907.92, -25670.91, -2553.66, 43786.04, 12305.37, -33097.59, 0.00, 0.00, 0.00, 0.00, 0.00, 0.00, 0.00
108, 1668.85, 60908.86, 13743.68, 34816.37, -25975.25, -15073.84, 10907.92, -25670.91, -2559.21, 43782.17, 12305.60, -33092.29, 0.00, 0.00, 0.00, 0.00, 0.00, 0.00, 0.00
109, 1676.25, 60894.75, 13728.35, 34793.06, -25988.95, -15091.90, 10885.05, -25693.15, -2559.21, 43782.17, 12305.60, -33092.29, 0.00, 0.00, 0.00, 0.00, -0.14, 0.41, 0.90
110, 1676.25, 60894.75, 13728.35, 34793.06, -25988.95, -15091.90, 10885.05, -25693.15, -2561.60, 43781.77, 12302.31, -33100.52, 0.00, 0.00, 0.00, 0.00, 0.00, 0.00, 0.00
111, 1690.33, 60916.35, 13741.29, 34813.02, -25972.68, -15074.17, 10904.97, -25673.73, -2561.60, 43781.77, 12302.31, -33100.52, 0.00, 0.00, 0.00, 0.00, 0.00, 0.00, 0.00
112, 1690.33, 60916.35, 13741.29, 34813.02, -25972.68, -15074.17, 10904.97, -25673.73, -2555.88, 43788.16, 12308.48, -33097.66, 0.00, 0.00, 0.00, 0.00, 0.00, 0.00, 0.00
113, 1656.09, 60912.75, 13736.20, 34799.59, -25989.40, -15085.53, 10890.55, -25685.60, -2555.88, 43788.16, 12308.48, -33097.66, 0.00, 0.00, 0.00, 0.00, 0.00, 0.00, 0.00
114, 1656.09, 60912.75, 13736.20, 34799.59, -25989.40, -15085.53, 10890.55, -25685.60, -2558.43, 43781.12, 12304.63, -33096.20, 0.00, 0.00, 0.00, 0.00, 0.00, 0.00, 0.00
115, 1684.94, 60907.99, 13735.50, 34810.43, -25979.37, -15076.41, 10904.83, -25669.70, -2558.43, 43781.12, 12304.63, -33096.20, 0.00, 0.00, 0.00, 0.00, 0.00, 0.00, 0.00
116, 1684.94, 60907.99, 13735.50, 34810.43, -25979.37, -15076.41, 10904.83, -25669.70, -2556.39, 43786.71, 12305.71, -33090.93, 0.00, 0.00, 0.00, 0.00, 0.00, 0.00, 0.00
117, 1693.10, 60898.69, 13724.08, 34793.57, -25990.72, -15086.44, 10887.00, -25686.38, -2556.39, 43786.71, 12305.71, -33090.93, 0.00, 0.00, 0.00, 0.00, 0.00, 0.00, 0.00
118, 1693.10, 60898.69, 13724.08, 34793.57, -25990.72, -15086.44, 10887.00, -25686.38, -2560.19, 43772.85, 12306.13, -33102.42, 0.00, 0.00, 0.00, 0.00, 0.00, 0.00, 0.00
119, 1669.54, 60914.38, 13749.00, 34810.02, -25976.95, -15076.25, 10901.44, -25673.35, -2560.19, 43772.85, 12306.13, -33102.42, 0.00, 0.00, 0.00, 0.00, -0.14, 0.42, 0.90
120, 1669.54, 60914.38, 13749.00, 34810.02, -25976.95, -15076.25, 10901.44, -25673.35, -2553.73, 43789.86, 12318.02, -33097.41, 0.00, 0.00, 0.00, 0.00, 0.00, 0.00, 0.00
121, 1672.27, 60908.55, 13740.29, 34798.83, -25986.23, -15082.69, 10890.60, -25682.82, -2553.73, 43789.86, 12318.02, -33097.41, 0.00, 0.00, 0.00, 0.00, 0.00, 0.00, 0.00
122, 1672.27, 60908.55, 13740.29, 34798.83, -25986.23, -15082.69, 10890.60, -25682.82, -2555.45, 43776.47, 12308.55, -33098.68, 0.00, 0.00, 0.00, 0.00, 0.00, 0.00, 0.00
123, 1690.28, 60928.59, 13741.90, 34810.47, -25977.60, -15075.42, 10901.64, -25672.39, -2555.45, 43776.47, 12308.55, -33098.68, 0.00, 0.00, 0.00, 0.00, 0.00, 0.00, 0.00
124, 1690.28, 60928.59, 13741.90, 34810.47, -25977.60, -15075.42, 10901.64, -25672.39, -2550.49, 43792.25, 12321.44, -33094.98, 0.00, 0.00, 0.00, 0.00, 0.00, 0.00, 0.00
125, 1686.73, 60903.02, 13740.78, 34804.35, -25984.57, -15078.20, 10896.18, -25677.44, -2550.49, 43792.25, 12321.44, -33094.98, 0.00, 0.00, 0.00, 0.00, 0.00, 0.00, 0.00
126, 1686.73, 60903.02, 13740.78, 34804.35, -25984.57, -15078.20, 10896.18, -25677.44, -2556.12, 43781.01, 12308.26, -33094.86, 0.00, 0.00, 0.00, 0.00, 0.00, 0.00, 0.00
127, 1671.02, 60911.56, 13747.95, 34809.87, -25985.33, -15075.45, 10900.74, -25670.87, -2556.12, 43781.01, 12308.26, -33094.86, 0.00, 0.00, 0.00, 0.00, 0.00, 0.00, 0.00
128, 1671.02, 60911.56, 13747.95, 34809.87, -25985.33, -15075.45, 10900.74, -25670.87, -2548.30, 43798.69, 12317.62, -33080.47, 0.00, 0.00, 0.00, 0.00, 0.00, 0.00, 0.00
129, 1673.88, 60902.22, 13738.54, 34802.58, -25985.38, -15078.82, 10895.56, -25675.38, -2548.30, 43798.69, 12317.62, -33080.47, 0.00, 0.00, 0.00, 0.00, -0.13, 0.42, 0.89
130, 1673.88, 60902.22, 13738.54, 34802.58, -25985.38, -15078.82, 10895.56, -25675.38, -2554.67, 43775.84, 12302.87, -33101.03, 0.00, 0.00, 0.00, 0.00, 0.00, 0.00, 0.00
131, 1692.07, 60910.89, 13737.54, 34806.80, -25981.13, -15075.89, 10896.83, -25670.84, -2554.67, 43775.84, 12302.87, -33101.03, 0.00, 0.00, 0.00, 0.00, 0.00, 0.00, 0.00
132, 1692.07, 60910.89, 13737.54, 34806.80, -25981.13, -15075.89, 10896.83, -25670.84, -2542.33, 43799.49, 12324.80, -33094.93, 0.00, 0.00, 0.00, 0.00, 0.00, 0.00, 0.00
133, 1679.87, 60925.54, 13749.74, 34809.69, -25983.95, -15073.35, 10896.65, -25672.54, -2542.33, 43799.49, 12324.80, -33094.93, 0.00, 0.00, 0.00, 0.00, 0.00, 0.00, 0.00
134, 1679.87, 60925.54, 13749.74, 34809.69, -25983.95, -15073.35, 10896.65, -25672.54, -2550.65, 43779.71, 12311.38, -33079.29, 0.00, 0.00, 0.00, 0.00, 0.00, 0.00, 0.00
135, 1687.38, 60928.44, 13735.97, 34803.77, -25990.76, -15075.89, 10896.16, -25672.10, -2550.65, 43779.71, 12311.38, -33079.29, 0.00, 0.00, 0.00, 0.00, 0.00, 0.00, 0.00
136, 1687.38, 60928.44, 13735.97, 34803.77, -25990.76, -15075.89, 10896.16, -25672.10, -2541.51, 43801.97, 12324.86, -33085.86, 0.00, 0.00, 0.00, 0.00, 0.00, 0.00, 0.00
137, 1688.72, 60915.03, 13746.30, 34812.77, -25979.57, -15067.80, 10902.29, -25662.44, -2541.51, 43801.97, 12324.86, -33085.86, 0.00, 0.00, 0.00, 0.00, 0.00, 0.00, 0.00
138, 1688.72, 60915.03, 13746.30, 34812.77, -25979.57, -15067.80, 10902.29, -25662.44, -2546.06, 43790.31, 12312.50, -33093.12, 0.00, 0.00, 0.00, 0.00, -0.14, 0.41, 0.90
139, 1678.33, 60917.91, 13745.94, 34805.87, -25988.82, -15072.14, 10895.58, -25669.90, -2546.06, 43790.31, 12312.50, -33093.12, 0.00, 0.00, 0.00, 0.00, 0.00, 0.00, 0.00
140, 1678.33, 60917.91, 13745.94, 34805.87, -25988.82, -15072.14, 10895.58, -25669.90, -2545.42, 43798.15, 12323.41, -33072.94, 0.00, 0.00, 0.00, 0.00, 0.00, 0.00, 0.00
141, 1683.06, 60920.28, 13750.66, 34812.19, -25987.28, -15068.50, 10899.81, -25667.00, -2545.42, 43798.15, 12323.41, -33072.94, 0.00, 0.00, 0.00, 0.00, 0.00, 0.00, 0.00
142, 1683.06, 60920.28, 13750.66, 34812.19, -25987.28, -15068.50, 10899.81, -25667.00, -2554.85, 43778.13, 12313.55, -33096.54, 0.00, 0.00, 0.00, 0.00, 0.00, 0.00, 0.00
143, 1690.15, 60910.42, 13738.81, 34803.32, -25994.16, -15077.26, 10885.81, -25681.19, -2554.85, 43778.13, 12313.55, -33096.54, 0.00, 0.00, 0.00, 0.00, 0.00, 0.00, 0.00
144, 1690.15, 60910.42, 13738.81, 34803.32, -25994.16, -15077.26, 10885.81, -25681.19, -2553.46, 43788.09, 12318.67, -33096.54, 0.00, 0.00, 0.00, 0.00, 0.00, 0.00, 0.00
145, 1696.36, 60939.50, 13751.60, 34817.20, -25989.60, -15066.66, 10894.46, -25669.68, -2553.46, 43788.09, 12318.67, -33096.54, 0.00, 0.00, 0.00, 0.00, 0.00, 0.00, 0.00
146, 1696.36, 60939.50, 13751.60, 34817.20, -25989.60, -15066.66, 10894.46, -25669.68, -2555.47, 43777.84, 12309.53, -33092.34, 0.00, 0.00, 0.00, 0.00, 0.00, 0.00, 0.00
147, 1681.99, 60919.57, 13741.58, 34800.10, -26000.17, -15079.45, 10881.16, -25680.61, -2555.47, 43777.84, 12309.53, -33092.34, 0.00, 0.00, 0.00, 0.00, 0.00, 0.00, 0.00
148, 1681.99, 60919.57, 13741.58, 34800.10, -26000.17, -15079.45, 10881.16, -25680.61, -2546.76, 43791.00, 12322.99, -33088.34, 0.00, 0.00, 0.00, 0.00, -0.14, 0.41, 0.90
149, 1687.89, 60911.00, 13751.40, 34815.48, -25987.48, -15067.67, 10895.80, -25664.09, -2546.76, 43791.00, 12322.99, -33088.34, 0.00, 0.00, 0.00, 0.00, 0.00, 0.00, 0.00
150, 1687.89, 60911.00, 13751.40, 34815.48, -25987.48, -15067.67, 10895.80, -25664.09, -2550.54, 43784.29, 12317.46, -33102.62, 0.00, 0.00, 0.00, 0.00, 0.00, 0.00, 0.00
151, 1689.21, 60905.66, 13741.45, 34799.79, -26004.22, -15079.02, 10879.31, -25679.07, -2550.54, 43784.29, 12317.46, -33102.62, 0.00, 0.00, 0.00, 0.00, 0.00, 0.00, 0.00
152, 1689.21, 60905.66, 13741.45, 34799.79, -26004.22, -15079.02, 10879.31, -25679.07, -2549.37, 43785.59, 12318.65, -33085.88, 0.00, 0.00, 0.00, 0.00, 0.00, 0.00, 0.00
153, 1688.25, 60940.09, 13752.92, 34813.18, -25987.23, -15066.84, 10895.09, -25664.12, -2549.37, 43785.59, 12318.65, -33085.88, 0.00, 0.00, 0.00, 0.00, 0.00, 0.00, 0.00
154, 1688.25, 60940.09, 13752.92, 34813.18, -25987.23, -15066.84, 10895.09, -25664.12, -2543.09, 43791.18, 12324.68, -33082.95, 0.00, 0.00, 0.00, 0.00, 0.00, 0.00, 0.00
155, 1671.15, 60923.54, 13740.69, 34798.18, -26003.01, -15079.04, 10876.43, -25676.54, -2543.09, 43791.18, 12324.68, -33082.95, 0.00, 0.00, 0.00, 0.00, 0.00, 0.00, 0.00
156, 1671.15, 60923.54, 13740.69, 34798.18, -26003.01, -15079.04, 10876.43, -25676.54, -2545.30, 43786.69, 12321.13, -33097.86, 0.00, 0.00, 0.00, 0.00, 0.00, 0.00, 0.00
157, 1689.37, 60926.52, 13753.72, 34812.73, -25989.51, -15068.18, 10890.91, -25660.58, -2545.30, 43786.69, 12321.13, -33097.86, 0.00, 0.00, 0.00, 0.00, 0.00, 0.00, 0.00
158, 1689.37, 60926.52, 13753.72, 34812.73, -25989.51, -15068.18, 10890.91, -25660.58, -2542.02, 43792.70, 12327.61, -33090.44, 0.00, 0.00, 0.00, 0.00, -0.14, 0.41, 0.90
159, 1687.74, 60919.25, 13744.71, 34795.92, -26004.26, -15080.07, 10875.89, -25675.45, -2542.02, 43792.70, 12327.61, -33090.44, 0.00, 0.00, 0.00, 0.00, 0.00, 0.00, 0.00
160, 1687.74, 60919.25, 13744.71, 34795.92, -26004.26, -15080.07, 10875.89, -25675.45, -2542.13, 43784.05, 12327.61, -33073.61, 0.00, 0.00, 0.00, 0.00, 0.00, 0.00, 0.00
161, 1700.72, 60933.34, 13756.65, 34815.32, -25988.48, -15065.05, 10893.30, -25655.94, -2542.13, 43784.05, 12327.61, -33073.61, 0.00, 0.00, 0.00, 0.00, 0.00, 0.00, 0.00
162, 1700.72, 60933.34, 13756.65, 34815.32, -25988.48, -15065.05, 10893.30, -25655.94, -2535.47, 43798.58, 12333.29, -33085.39, 0.00, 0.00, 0.00, 0.00, 0.00, 0.00, 0.00
163, 1693.28, 60926.25, 13741.85, 34800.30, -26001.94, -15075.51, 10876.49, -25670.87, -2535.47, 43798.58, 12333.29, -33085.39, 0.00, 0.00, 0.00, 0.00, 0.00, 0.00, 0.00
164, 1693.28, 60926.25, 13741.85, 34800.30, -26001.94, -15075.51, 10876.49, -25670.87, -2540.88, 43783.02, 12322.47, -33098.86, 0.00, 0.00, 0.00, 0.00, 0.00, 0.00, 0.00
165, 1688.09, 60943.66, 13762.44, 34814.52, -25993.38, -15065.08, 10887.85, -25659.24, -2540.88, 43783.02, 12322.47, -33098.86, 0.00, 0.00, 0.00, 0.00, 0.00, 0.00, 0.00
166, 1688.09, 60943.66, 13762.44, 34814.52, -25993.38, -15065.08, 10887.85, -25659.24, -2534.84, 43793.86, 12331.37, -33069.65, 0.00, 0.00, 0.00, 0.00, 0.00, 0.00, 0.00
167, 1672.85, 60908.88, 13742.77, 34799.25, -26007.95, -15078.62, 10869.21, -25672.79, -2534.84, 43793.86, 12331.37, -33069.65, 0.00, 0.00, 0.00, 0.00, 0.00, 0.00, 0.00
168, 1672.85, 60908.88, 13742.77, 34799.25, -26007.95, -15078.62, 10869.21, -25672.79, -2539.65, 43781.81, 12315.10, -33084.98, 0.00, 0.00, 0.00, 0.00, -0.14, 0.42, 0.91
169, 1684.72, 60920.84, 13750.35, 34811.32, -26001.83, -15067.15, 10880.25, -25660.92, -2539.65, 43781.81, 12315.10, -33084.98, 0.00, 0.00, 0.00, 0.00, 0.00, 0.00, 0.00
170, 1684.72, 60920.84, 13750.35, 34811.32, -26001.83, -15067.15, 10880.25, -25660.92, -2533.53, 43798.40, 12333.65, -33100.63, 0.00, 0.00, 0.00, 0.00, 0.00, 0.00, 0.00
171, 1683.42, 60930.92, 13743.64, 34802.67, -26010.72, -15073.77, 10870.37, -25666.55, -2533.53, 43798.40, 12333.65, -33100.63, 0.00, 0.00, 0.00, 0.00, 0.00, 0.00, 0.00
172, 1683.42, 60930.92, 13743.64, 34802.67, -26010.72, -15073.77, 10870.37, -25666.55, -2538.78, 43780.47, 12319.41, -33072.51, 0.00, 0.00, 0.00, 0.00, 0.00, 0.00, 0.00
173, 1678.53, 60927.52, 13747.10, 34809.00, -26007.86, -15069.70, 10875.06, -25661.57, -2538.78, 43780.47, 12319.41, -33072.51, 0.00, 0.00, 0.00, 0.00, 0.00, 0.00, 0.00
174, 1678.53, 60927.52, 13747.10, 34809.00, -26007.86, -15069.70, 10875.06, -25661.57, -2532.47, 43799.80, 12330.14, -33074.52, 0.00, 0.00, 0.00, 0.00, 0.00, 0.00, 0.00
175, 1685.30, 60925.76, 13742.75, 34804.05, -26012.82, -15072.14, 10868.58, -25665.68, -2532.47, 43799.80, 12330.14, -33074.52, 0.00, 0.00, 0.00, 0.00, 0.00, 0.00, 0.00
176, 1685.30, 60925.76, 13742.75, 34804.05, -26012.82, -15072.14, 10868.58, -25665.68, -2540.75, 43782.91, 12313.73, -33092.25, 0.00, 0.00, 0.00, 0.00, 0.00, 0.00, 0.00
177, 1684.11, 60920.93, 13753.45, 34810.14, -26013.38, -15068.07, 10872.65, -25658.91, -2540.75, 43782.91, 12313.73, -33092.25, 0.00, 0.00, 0.00, 0.00, -0.14, 0.41, 0.90
178, 1684.11, 60920.93, 13753.45, 34810.14, -26013.38, -15068.07, 10872.65, -25658.91, -2527.92, 43803.76, 12335.99, -33091.62, 0.00, 0.00, 0.00, 0.00, 0.00, 0.00, 0.00
179, 1684.45, 60923.10, 13755.80, 34808.10, -26011.98, -15069.63, 10869.72, -25661.34, -2527.92, 43803.76, 12335.99, -33091.62, 0.00, 0.00, 0.00, 0.00, 0.00, 0.00, 0.00
180, 1684.45, 60923.10, 13755.80, 34808.10, -26011.98, -15069.63, 10869.72, -25661.34, -2537.95, 43781.30, 12317.35, -33082.08, 0.00, 0.00, 0.00, 0.00, 0.00, 0.00, 0.00
181, 1684.85, 60926.63, 13749.36, 34806.49, -26020.49, -15071.40, 10862.41, -25663.74, -2537.95, 43781.30, 12317.35, -33082.08, 0.00, 0.00, 0.00, 0.00, 0.00, 0.00, 0.00
182, 1684.85, 60926.63, 13749.36, 34806.49, -26020.49, -15071.40, 10862.41, -25663.74, -2533.84, 43800.48, 12327.30, -33064.64, 0.00, 0.00, 0.00, 0.00, 0.00, 0.00, 0.00
183, 1684.94, 60929.11, 13748.24, 34815.25, -26024.98, -15066.66, 10865.65, -25659.89, -2533.84, 43800.48, 12327.30, -33064.64, 0.00, 0.00, 0.00, 0.00, 0.00, 0.00, 0.00
184, 1684.94, 60929.11, 13748.24, 34815.25, -26024.98, -15066.66, 10865.65, -25659.89, -2540.28, 43784.90, 12323.19, -33092.20, 0.00, 0.00, 0.00, 0.00, 0.00, 0.00, 0.00
185, 1689.64, 60936.84, 13754.55, 34816.20, -26015.04, -15067.47, 10863.48, -25659.36, -2540.28, 43784.90, 12323.19, -33092.20, 0.00, 0.00, 0.00, 0.00, 0.00, 0.00, 0.00
186, 1689.64, 60936.84, 13754.55, 34816.20, -26015.04, -15067.47, 10863.48, -25659.36, -2529.79, 43800.97, 12332.15, -33067.57, 0.00, 0.00, 0.00, 0.00, 0.00, 0.00, 0.00
187, 1691.67, 60926.20, 13751.49, 34806.79, -26021.74, -15070.19, 10863.06, -25657.46, -2529.79, 43800.97, 12332.15, -33067.57, 0.00, 0.00, 0.00, 0.00, -0.14, 0.41, 0.90
188, 1691.67, 60926.20, 13751.49, 34806.79, -26021.74, -15070.19, 10863.06, -25657.46, -2536.14, 43789.46, 12320.82, -33079.20, 0.00, 0.00, 0.00, 0.00, 0.00, 0.00, 0.00
189, 1675.55, 60922.45, 13748.71, 34798.89, -26032.18, -15075.89, 10853.16, -25663.98, -2536.14, 43789.46, 12320.82, -33079.20, 0.00, 0.00, 0.00, 0.00, 0.00, 0.00, 0.00
190, 1675.55, 60922.45, 13748.71, 34798.89, -26032.18, -15075.89, 10853.16, -25663.98, -2528.41, 43803.16, 12332.98, -33089.66, 0.00, 0.00, 0.00, 0.00, 0.00, 0.00, 0.00
191, 1684.45, 60929.18, 13749.92, 34802.16, -26026.64, -15069.57, 10861.56, -25654.44, -2528.41, 43803.16, 12332.98, -33089.66, 0.00, 0.00, 0.00, 0.00, 0.00, 0.00, 0.00
192, 1684.45, 60929.18, 13749.92, 34802.16, -26026.64, -15069.57, 10861.56, -25654.44, -2536.10, 43786.64, 12320.17, -33069.63, 0.00, 0.00, 0.00, 0.00, 0.00, 0.00, 0.00
193, 1683.85, 60924.04, 13739.35, 34793.77, -26042.51, -15078.20, 10846.21, -25667.83, -2536.10, 43786.64, 12320.17, -33069.63, 0.00, 0.00, 0.00, 0.00, 0.00, 0.00, 0.00
194, 1683.85, 60924.04, 13739.35, 34793.77, -26042.51, -15078.20, 10846.21, -25667.83, -2528.88, 43797.19, 12332.17, -33078.93, 0.00, 0.00, 0.00, 0.00, 0.00, 0.00, 0.00
195, 1689.84, 60937.63, 13759.06, 34811.25, -26023.04, -15066.89, 10860.02, -25651.08, -2528.88, 43797.19, 12332.17, -33078.93, 0.00, 0.00, 0.00, 0.00, 0.00, 0.00, 0.00
196, 1689.84, 60937.63, 13759.06, 34811.25, -26023.04, -15066.89, 10860.02, -25651.08, -2528.21, 43791.27, 12332.35, -33082.35, 0.00, 0.00, 0.00, 0.00, 0.00, 0.00, 0.00
197, 1688.74, 60944.15, 13740.40, 34792.84, -26042.62, -15080.21, 10842.29, -25667.92, -2528.21, 43791.27, 12332.35, -33082.35, 0.00, 0.00, 0.00, 0.00, -0.14, 0.41, 0.90
