%OpenBCI Raw EEG Data
%
%Sample Rate = 250.0 Hz
%First Column = SampleIndex
%Other Columns = EEG data in microvolts followed by Accel Data (in G) interleaved with Aux Data
0, 0.00, 0.00, 0.00, 0.00, 0.00, 0.00, 0.00, 0.00, -4120.01, 40392.57, 11686.32, -9137.33, 0.00, 0.00, 0.00, 0.00, 0.07, 0.42, 0.92
1, 6300.40, 77540.50, 10669.38, 30681.88, -21349.51, -4102.84, 7484.24, -50932.83, -4120.01, 40392.57, 11686.32, -9137.33, 0.00, 0.00, 0.00, 0.00, 0.00, 0.00, 0.00
2, 6300.40, 77540.50, 10669.38, 30681.88, -21349.51, -4102.84, 7484.24, -50932.83, -4074.88, 40404.20, 11758.65, -8996.80, 0.00, 0.00, 0.00, 0.00, 0.00, 0.00, 0.00
3, 6296.04, 77544.55, 10673.18, 30687.89, -21347.88, -4096.96, 7490.45, -50921.92, -4074.88, 40404.20, 11758.65, -8996.80, 0.00, 0.00, 0.00, 0.00, 0.00, 0.00, 0.00
4, 6296.04, 77544.55, 10673.18, 30687.89, -21347.88, -4096.96, 7490.45, -50921.92, -4047.77, 40477.02, 11799.44, -9034.35, 0.00, 0.00, 0.00, 0.00, 0.00, 0.00, 0.00
5, 6312.40, 77553.78, 10683.66, 30699.56, -21328.68, -4078.05, 7506.92, -50900.57, -4047.77, 40477.02, 11799.44, -9034.35, 0.00, 0.00, 0.00, 0.00, 0.00, 0.00, 0.00
6, 6312.40, 77553.78, 10683.66, 30699.56, -21328.68, -4078.05, 7506.92, -50900.57, -4052.33, 40435.55, 11757.38, -8960.72, 0.00, 0.00, 0.00, 0.00, 0.06, 0.41, 0.92
7, 6286.50, 77536.05, 10665.87, 30692.16, -21335.28, -4088.31, 7507.50, -50898.54, -4052.33, 40435.55, 11757.38, -8960.72, 0.00, 0.00, 0.00, 0.00, 0.00, 0.00, 0.00
8, 6286.50, 77536.05, 10665.87, 30692.16, -21335.28, -4088.31, 7507.50, -50898.54, -4050.52, 40481.60, 11782.79, -9010.86, 0.00, 0.00, 0.00, 0.00, 0.00, 0.00, 0.00
9, 6302.23, 77547.66, 10675.57, 30698.82, -21328.99, -4079.77, 7509.05, -50906.10, -4050.52, 40481.60, 11782.79, -9010.86, 0.00, 0.00, 0.00, 0.00, 0.00, 0.00, 0.00
10, 6302.23, 77547.66, 10675.57, 30698.82, -21328.99, -4079.77, 7509.05, -50906.10, -4051.88, 40430.08, 11754.80, -8967.85, 0.00, 0.00, 0.00, 0.00, 0.00, 0.00, 0.00
11, 6277.60, 77523.60, 10656.10, 30679.09, -21340.19, -4098.57, 7496.04, -50910.57, -4051.88, 40430.08, 11754.80, -8967.85, 0.00, 0.00, 0.00, 0.00, 0.00, 0.00, 0.00
12, 6277.60, 77523.60, 10656.10, 30679.09, -21340.19, -4098.57, 7496.04, -50910.57, -4041.33, 40495.59, 11779.06, -9001.45, 0.00, 0.00, 0.00, 0.00, 0.00, 0.00, 0.00
13, 6293.80, 77536.12, 10674.41, 30709.33, -21312.70, -4064.78, 7532.40, -50876.08, -4041.33, 40495.59, 11779.06, -9001.45, 0.00, 0.00, 0.00, 0.00, 0.00, 0.00, 0.00
14, 6293.80, 77536.12, 10674.41, 30709.33, -21312.70, -4064.78, 7532.40, -50876.08, -4040.95, 40461.80, 11756.30, -8935.04, 0.00, 0.00, 0.00, 0.00, 0.00, 0.00, 0.00
15, 6282.63, 77526.13, 10664.49, 30694.93, -21318.76, -4071.79, 7513.96, -50892.37, -4040.95, 40461.80, 11756.30, -8935.04, 0.00, 0.00, 0.00, 0.00, 0.00, 0.00, 0.00
16, 6282.63, 77526.13, 10664.49, 30694.93, -21318.76, -4071.79, 7513.96, -50892.37, -4024.77, 40498.07, 11780.24, -8992.08, 0.00, 0.00, 0.00, 0.00, 0.06, 0.41, 0.92
17, 6291.41, 77539.38, 10672.40, 30704.14, -21322.24, -4079.64, 7512.71, -50900.00, -4024.77, 40498.07, 11780.24, -8992.08, 0.00, 0.00, 0.00, 0.00, 0.00, 0.00, 0.00
18, 6291.41, 77539.38, 10672.40, 30704.14, -21322.24, -4079.64, 7512.71, -50900.00, -4052.80, 40438.86, 11754.16, -8964.57, 0.00, 0.00, 0.00, 0.00, 0.00, 0.00, 0.00
19, 6280.12, 77518.24, 10662.50, 30692.88, -21318.71, -4083.28, 7514.59, -50895.25, -4052.80, 40438.86, 11754.16, -8964.57, 0.00, 0.00, 0.00, 0.00, 0.00, 0.00, 0.00
20, 6280.12, 77518.24, 10662.50, 30692.88, -21318.71, -4083.28, 7514.59, -50895.25, -4034.11, 40486.81, 11769.56, -8982.58, 0.00, 0.00, 0.00, 0.00, 0.00, 0.00, 0.00
21, 6299.10, 77541.98, 10677.72, 30710.38, -21306.55, -4067.97, 7527.35, -50887.05, -4034.11, 40486.81, 11769.56, -8982.58, 0.00, 0.00, 0.00, 0.00, 0.00, 0.00, 0.00
22, 6299.10, 77541.98, 10677.72, 30710.38, -21306.55, -4067.97, 7527.35, -50887.05, -4043.92, 40455.54, 11757.49, -8959.23, 0.00, 0.00, 0.00, 0.00, 0.00, 0.00, 0.00
23, 6282.16, 77530.76, 10666.88, 30696.10, -21313.26, -4075.57, 7510.12, -50897.22, -4043.92, 40455.54, 11757.49, -8959.23, 0.00, 0.00, 0.00, 0.00, 0.00, 0.00, 0.00
24, 6282.16, 77530.76, 10666.88, 30696.10, -21313.26, -4075.57, 7510.12, -50897.22, -4026.64, 40493.83, 11765.76, -8973.46, 0.00, 0.00, 0.00, 0.00, 0.00, 0.00, 0.00
25, 6300.42, 77552.93, 10685.07, 30715.92, -21294.64, -4061.69, 7540.94, -50873.38, -4026.64, 40493.83, 11765.76, -8973.46, 0.00, 0.00, 0.00, 0.00, 0.00, 0.00, 0.00
26, 6300.42, 77552.93, 10685.07, 30715.92, -21294.64, -4061.69, 7540.94, -50873.38, -4037.75, 40476.80, 11766.94, -8951.69, 0.00, 0.00, 0.00, 0.00, 0.06, 0.41, 0.92
27, 6271.05, 77513.84, 10651.88, 30681.75, -21328.75, -4094.86, 7498.16, -50918.46, -4037.75, 40476.80, 11766.94, -8951.69, 0.00, 0.00, 0.00, 0.00, 0.00, 0.00, 0.00
28, 6271.05, 77513.84, 10651.88, 30681.75, -21328.75, -4094.86, 7498.16, -50918.46, -4052.73, 40443.36, 11751.41, -9007.19, 0.00, 0.00, 0.00, 0.00, 0.00, 0.00, 0.00
29, 6296.37, 77539.31, 10680.09, 30712.93, -21299.92, -4072.15, 7522.35, -50901.49, -4052.73, 40443.36, 11751.41, -9007.19, 0.00, 0.00, 0.00, 0.00, 0.00, 0.00, 0.00
30, 6296.37, 77539.31, 10680.09, 30712.93, -21299.92, -4072.15, 7522.35, -50901.49, -4037.80, 40458.73, 11778.07, -8989.20, 0.00, 0.00, 0.00, 0.00, 0.00, 0.00, 0.00
31, 6287.21, 77529.17, 10669.54, 30693.91, -21307.09, -4082.77, 7514.41, -50903.50, -4037.80, 40458.73, 11778.07, -8989.20, 0.00, 0.00, 0.00, 0.00, 0.00, 0.00, 0.00
32, 6287.21, 77529.17, 10669.54, 30693.91, -21307.09, -4082.77, 7514.41, -50903.50, -4048.84, 40439.89, 11762.90, -8997.78, 0.00, 0.00, 0.00, 0.00, 0.00, 0.00, 0.00
33, 6296.46, 77544.37, 10677.34, 30705.75, -21308.74, -4081.12, 7515.66, -50908.49, -4048.84, 40439.89, 11762.90, -8997.78, 0.00, 0.00, 0.00, 0.00, 0.00, 0.00, 0.00
34, 6296.46, 77544.37, 10677.34, 30705.75, -21308.74, -4081.12, 7515.66, -50908.49, -4045.11, 40457.24, 11774.27, -9007.51, 0.00, 0.00, 0.00, 0.00, 0.00, 0.00, 0.00
35, 6295.06, 77535.45, 10672.94, 30697.91, -21306.89, -4080.98, 7505.76, -50921.23, -4045.11, 40457.24, 11774.27, -9007.51, 0.00, 0.00, 0.00, 0.00, 0.00, 0.00, 0.00
36, 6295.06, 77535.45, 10672.94, 30697.91, -21306.89, -4080.98, 7505.76, -50921.23, -4038.20, 40440.59, 11761.35, -8988.75, 0.00, 0.00, 0.00, 0.00, 0.06, 0.41, 0.92
37, 6305.07, 77551.09, 10689.65, 30717.76, -21285.07, -4067.03, 7536.11, -50886.94, -4038.20, 40440.59, 11761.35, -8988.75, 0.00, 0.00, 0.00, 0.00, 0.00, 0.00, 0.00
38, 6305.07, 77551.09, 10689.65, 30717.76, -21285.07, -4067.03, 7536.11, -50886.94, -4027.96, 40468.01, 11778.34, -9022.48, 0.00, 0.00, 0.00, 0.00, 0.00, 0.00, 0.00
39, 6293.29, 77542.02, 10674.01, 30699.45, -21297.72, -4081.20, 7514.61, -50910.10, -4027.96, 40468.01, 11778.34, -9022.48, 0.00, 0.00, 0.00, 0.00, 0.00, 0.00, 0.00
40, 6293.29, 77542.02, 10674.01, 30699.45, -21297.72, -4081.20, 7514.61, -50910.10, -4024.30, 40454.38, 11763.66, -8957.57, 0.00, 0.00, 0.00, 0.00, 0.00, 0.00, 0.00
41, 6309.79, 77564.41, 10696.45, 30723.63, -21276.36, -4060.84, 7539.24, -50889.98, -4024.30, 40454.38, 11763.66, -8957.57, 0.00, 0.00, 0.00, 0.00, 0.00, 0.00, 0.00
42, 6309.79, 77564.41, 10696.45, 30723.63, -21276.36, -4060.84, 7539.24, -50889.98, -4042.38, 40456.32, 11783.91, -9035.29, 0.00, 0.00, 0.00, 0.00, 0.00, 0.00, 0.00
43, 6288.75, 77525.75, 10666.45, 30689.75, -21310.20, -4097.43, 7500.02, -50930.66, -4042.38, 40456.32, 11783.91, -9035.29, 0.00, 0.00, 0.00, 0.00, 0.00, 0.00, 0.00
44, 6288.75, 77525.75, 10666.45, 30689.75, -21310.20, -4097.43, 7500.02, -50930.66, -4048.35, 40410.75, 11746.29, -8994.88, 0.00, 0.00, 0.00, 0.00, 0.00, 0.00, 0.00
45, 6305.05, 77554.09, 10685.90, 30709.80, -21289.34, -4083.33, 7521.16, -50912.89, -4048.35, 40410.75, 11746.29, -8994.88, 0.00, 0.00, 0.00, 0.00, 0.06, 0.41, 0.93
46, 6305.05, 77554.09, 10685.90, 30709.80, -21289.34, -4083.33, 7521.16, -50912.89, -4033.73, 40455.47, 11790.08, -9050.91, 0.00, 0.00, 0.00, 0.00, 0.00, 0.00, 0.00
47, 6305.94, 77550.07, 10685.38, 30708.93, -21282.06, -4073.14, 7525.41, -50905.58, -4033.73, 40455.47, 11790.08, -9050.91, 0.00, 0.00, 0.00, 0.00, 0.00, 0.00, 0.00
48, 6305.94, 77550.07, 10685.38, 30708.93, -21282.06, -4073.14, 7525.41, -50905.58, -4029.95, 40425.83, 11752.17, -8983.10, 0.00, 0.00, 0.00, 0.00, 0.00, 0.00, 0.00
49, 6309.81, 77560.15, 10690.59, 30720.37, -21278.28, -4066.90, 7531.49, -50901.45, -4029.95, 40425.83, 11752.17, -8983.10, 0.00, 0.00, 0.00, 0.00, 0.00, 0.00, 0.00
50, 6309.81, 77560.15, 10690.59, 30720.37, -21278.28, -4066.90, 7531.49, -50901.45, -4024.86, 40482.50, 11794.28, -9030.04, 0.00, 0.00, 0.00, 0.00, 0.00, 0.00, 0.00
51, 6299.44, 77552.77, 10679.84, 30699.45, -21282.19, -4084.36, 7520.60, -50910.88, -4024.86, 40482.50, 11794.28, -9030.04, 0.00, 0.00, 0.00, 0.00, 0.00, 0.00, 0.00
52, 6299.44, 77552.77, 10679.84, 30699.45, -21282.19, -4084.36, 7520.60, -50910.88, -4046.43, 40383.43, 11750.27, -9017.74, 0.00, 0.00, 0.00, 0.00, 0.00, 0.00, 0.00
53, 6301.74, 77546.07, 10680.74, 30701.64, -21288.43, -4089.34, 7511.35, -50929.90, -4046.43, 40383.43, 11750.27, -9017.74, 0.00, 0.00, 0.00, 0.00, 0.00, 0.00, 0.00
54, 6301.74, 77546.07, 10680.74, 30701.64, -21288.43, -4089.34, 7511.35, -50929.90, -4016.52, 40465.46, 11791.75, -9046.20, 0.00, 0.00, 0.00, 0.00, 0.00, 0.00, 0.00
55, 6315.55, 77565.31, 10698.91, 30723.21, -21259.19, -4061.11, 7537.34, -50900.17, -4016.52, 40465.46, 11791.75, -9046.20, 0.00, 0.00, 0.00, 0.00, 0.06, 0.41, 0.93
56, 6315.55, 77565.31, 10698.91, 30723.21, -21259.19, -4061.11, 7537.34, -50900.17, -4036.95, 40405.07, 11770.63, -8991.10, 0.00, 0.00, 0.00, 0.00, 0.00, 0.00, 0.00
57, 6301.29, 77548.88, 10682.66, 30703.79, -21280.94, -4082.05, 7519.71, -50921.34, -4036.95, 40405.07, 11770.63, -8991.10, 0.00, 0.00, 0.00, 0.00, 0.00, 0.00, 0.00
58, 6301.29, 77548.88, 10682.66, 30703.79, -21280.94, -4082.05, 7519.71, -50921.34, -4028.99, 40457.06, 11789.96, -9054.36, 0.00, 0.00, 0.00, 0.00, 0.00, 0.00, 0.00
59, 6306.95, 77561.94, 10691.98, 30709.87, -21266.30, -4076.31, 7529.63, -50908.36, -4028.99, 40457.06, 11789.96, -9054.36, 0.00, 0.00, 0.00, 0.00, 0.00, 0.00, 0.00
60, 6306.95, 77561.94, 10691.98, 30709.87, -21266.30, -4076.31, 7529.63, -50908.36, -4036.57, 40422.55, 11764.28, -8980.35, 0.00, 0.00, 0.00, 0.00, 0.00, 0.00, 0.00
61, 6303.62, 77555.92, 10685.56, 30703.05, -21272.74, -4077.49, 7526.95, -50911.53, -4036.57, 40422.55, 11764.28, -8980.35, 0.00, 0.00, 0.00, 0.00, 0.00, 0.00, 0.00
62, 6303.62, 77555.92, 10685.56, 30703.05, -21272.74, -4077.49, 7526.95, -50911.53, -4024.74, 40452.90, 11793.21, -9054.04, 0.00, 0.00, 0.00, 0.00, 0.00, 0.00, 0.00
63, 6308.65, 77560.93, 10693.86, 30714.94, -21260.71, -4069.31, 7537.28, -50902.92, -4024.74, 40452.90, 11793.21, -9054.04, 0.00, 0.00, 0.00, 0.00, 0.00, 0.00, 0.00
64, 6308.65, 77560.93, 10693.86, 30714.94, -21260.71, -4069.31, 7537.28, -50902.92, -4036.34, 40414.25, 11759.95, -8990.34, 0.00, 0.00, 0.00, 0.00, 0.00, 0.00, 0.00
65, 6293.69, 77544.97, 10679.91, 30705.28, -21271.71, -4077.03, 7525.39, -50912.96, -4036.34, 40414.25, 11759.95, -8990.34, 0.00, 0.00, 0.00, 0.00, 0.07, 0.41, 0.93
66, 6293.69, 77544.97, 10679.91, 30705.28, -21271.71, -4077.03, 7525.39, -50912.96, -4004.29, 40473.64, 11800.00, -9022.55, 0.00, 0.00, 0.00, 0.00, 0.00, 0.00, 0.00
67, 6320.11, 77580.55, 10709.08, 30732.15, -21235.41, -4048.17, 7569.10, -50875.99, -4004.29, 40473.64, 11800.00, -9022.55, 0.00, 0.00, 0.00, 0.00, 0.00, 0.00, 0.00
68, 6320.11, 77580.55, 10709.08, 30732.15, -21235.41, -4048.17, 7569.10, -50875.99, -4003.85, 40461.93, 11783.26, -8954.02, 0.00, 0.00, 0.00, 0.00, 0.00, 0.00, 0.00
69, 6306.72, 77557.69, 10691.60, 30715.03, -21250.76, -4054.38, 7544.70, -50894.81, -4003.85, 40461.93, 11783.26, -8954.02, 0.00, 0.00, 0.00, 0.00, 0.00, 0.00, 0.00
70, 6306.72, 77557.69, 10691.60, 30715.03, -21250.76, -4054.38, 7544.70, -50894.81, -4016.30, 40464.70, 11779.77, -9018.55, 0.00, 0.00, 0.00, 0.00, 0.00, 0.00, 0.00
71, 6309.47, 77565.16, 10695.15, 30724.88, -21245.60, -4053.71, 7556.32, -50881.98, -4016.30, 40464.70, 11779.77, -9018.55, 0.00, 0.00, 0.00, 0.00, 0.00, 0.00, 0.00
72, 6309.47, 77565.16, 10695.15, 30724.88, -21245.60, -4053.71, 7556.32, -50881.98, -4020.88, 40442.13, 11770.38, -8985.58, 0.00, 0.00, 0.00, 0.00, 0.00, 0.00, 0.00
73, 6295.21, 77550.91, 10680.49, 30701.86, -21259.26, -4073.34, 7535.26, -50900.44, -4020.88, 40442.13, 11770.38, -8985.58, 0.00, 0.00, 0.00, 0.00, 0.00, 0.00, 0.00
74, 6295.21, 77550.91, 10680.49, 30701.86, -21259.26, -4073.34, 7535.26, -50900.44, -3991.26, 40493.85, 11789.63, -8970.69, 0.00, 0.00, 0.00, 0.00, 0.00, 0.00, 0.00
75, 6326.79, 77585.88, 10716.61, 30743.48, -21218.76, -4030.06, 7583.99, -50854.26, -3991.26, 40493.85, 11789.63, -8970.69, 0.00, 0.00, 0.00, 0.00, 0.06, 0.40, 0.93
76, 6326.79, 77585.88, 10716.61, 30743.48, -21218.76, -4030.06, 7583.99, -50854.26, -4011.87, 40468.28, 11778.25, -8965.69, 0.00, 0.00, 0.00, 0.00, 0.00, 0.00, 0.00
77, 6288.42, 77542.89, 10677.03, 30704.88, -21252.08, -4061.20, 7548.47, -50889.46, -4011.87, 40468.28, 11778.25, -8965.69, 0.00, 0.00, 0.00, 0.00, 0.00, 0.00, 0.00
78, 6288.42, 77542.89, 10677.03, 30704.88, -21252.08, -4061.20, 7548.47, -50889.46, -3997.59, 40481.73, 11782.43, -8959.92, 0.00, 0.00, 0.00, 0.00, 0.00, 0.00, 0.00
79, 6320.49, 77577.88, 10713.64, 30742.14, -21215.07, -4029.48, 7582.72, -50852.99, -3997.59, 40481.73, 11782.43, -8959.92, 0.00, 0.00, 0.00, 0.00, 0.00, 0.00, 0.00
80, 6320.49, 77577.88, 10713.64, 30742.14, -21215.07, -4029.48, 7582.72, -50852.99, -4001.39, 40486.43, 11788.51, -8963.14, 0.00, 0.00, 0.00, 0.00, 0.00, 0.00, 0.00
81, 6296.62, 77546.45, 10682.05, 30707.96, -21249.69, -4063.84, 7542.15, -50894.56, -4001.39, 40486.43, 11788.51, -8963.14, 0.00, 0.00, 0.00, 0.00, 0.00, 0.00, 0.00
82, 6296.62, 77546.45, 10682.05, 30707.96, -21249.69, -4063.84, 7542.15, -50894.56, -4008.18, 40467.25, 11775.59, -8955.34, 0.00, 0.00, 0.00, 0.00, 0.00, 0.00, 0.00
83, 6324.38, 77584.02, 10713.08, 30739.48, -21217.46, -4032.43, 7578.63, -50857.08, -4008.18, 40467.25, 11775.59, -8955.34, 0.00, 0.00, 0.00, 0.00, 0.00, 0.00, 0.00
84, 6324.38, 77584.02, 10713.08, 30739.48, -21217.46, -4032.43, 7578.63, -50857.08, -3989.63, 40499.30, 11800.20, -8957.37, 0.00, 0.00, 0.00, 0.00, 0.06, 0.40, 0.94
85, 6309.14, 77567.55, 10699.67, 30724.73, -21221.42, -4038.16, 7569.55, -50864.07, -3989.63, 40499.30, 11800.20, -8957.37, 0.00, 0.00, 0.00, 0.00, 0.00, 0.00, 0.00
86, 6309.14, 77567.55, 10699.67, 30724.73, -21221.42, -4038.16, 7569.55, -50864.07, -3994.30, 40488.17, 11771.48, -8917.27, 0.00, 0.00, 0.00, 0.00, 0.00, 0.00, 0.00
87, 6314.79, 77572.77, 10705.90, 30739.12, -21215.27, -4030.27, 7588.35, -50849.52, -3994.30, 40488.17, 11771.48, -8917.27, 0.00, 0.00, 0.00, 0.00, 0.00, 0.00, 0.00
88, 6314.79, 77572.77, 10705.90, 30739.12, -21215.27, -4030.27, 7588.35, -50849.52, -3990.61, 40516.94, 11796.83, -8944.27, 0.00, 0.00, 0.00, 0.00, 0.00, 0.00, 0.00
89, 6312.96, 77565.27, 10701.41, 30727.46, -21216.01, -4031.49, 7573.40, -50857.82, -3990.61, 40516.94, 11796.83, -8944.27, 0.00, 0.00, 0.00, 0.00, 0.00, 0.00, 0.00
90, 6312.96, 77565.27, 10701.41, 30727.46, -21216.01, -4031.49, 7573.40, -50857.82, -3991.64, 40490.90, 11768.26, -8902.39, 0.00, 0.00, 0.00, 0.00, 0.00, 0.00, 0.00
91, 6321.74, 77580.24, 10711.38, 30742.10, -21206.20, -4025.08, 7595.41, -50845.30, -3991.64, 40490.90, 11768.26, -8902.39, 0.00, 0.00, 0.00, 0.00, 0.00, 0.00, 0.00
92, 6321.74, 77580.24, 10711.38, 30742.10, -21206.20, -4025.08, 7595.41, -50845.30, -3986.52, 40522.75, 11806.30, -8950.13, 0.00, 0.00, 0.00, 0.00, 0.00, 0.00, 0.00
93, 6315.73, 77569.02, 10704.16, 30729.65, -21212.88, -4032.37, 7576.75, -50864.32, -3986.52, 40522.75, 11806.30, -8950.13, 0.00, 0.00, 0.00, 0.00, 0.00, 0.00, 0.00
94, 6315.73, 77569.02, 10704.16, 30729.65, -21212.88, -4032.37, 7576.75, -50864.32, -3991.57, 40480.13, 11776.15, -8901.45, 0.00, 0.00, 0.00, 0.00, 0.06, 0.41, 0.93
95, 6327.18, 77584.20, 10718.00, 30749.16, -21196.20, -4018.06, 7608.42, -50832.47, -3991.57, 40480.13, 11776.15, -8901.45, 0.00, 0.00, 0.00, 0.00, 0.00, 0.00, 0.00
96, 6327.18, 77584.20, 10718.00, 30749.16, -21196.20, -4018.06, 7608.42, -50832.47, -3974.65, 40540.52, 11805.77, -8938.55, 0.00, 0.00, 0.00, 0.00, 0.00, 0.00, 0.00
97, 6309.63, 77564.17, 10697.79, 30725.96, -21212.07, -4032.43, 7578.38, -50854.91, -3974.65, 40540.52, 11805.77, -8938.55, 0.00, 0.00, 0.00, 0.00, 0.00, 0.00, 0.00
98, 6309.63, 77564.17, 10697.79, 30725.96, -21212.07, -4032.43, 7578.38, -50854.91, -3986.81, 40488.13, 11763.72, -8883.07, 0.00, 0.00, 0.00, 0.00, 0.00, 0.00, 0.00
99, 6320.58, 77577.11, 10712.21, 30744.64, -21194.82, -4017.17, 7603.35, -50830.93, -3986.81, 40488.13, 11763.72, -8883.07, 0.00, 0.00, 0.00, 0.00, 0.00, 0.00, 0.00
100, 6320.58, 77577.11, 10712.21, 30744.64, -21194.82, -4017.17, 7603.35, -50830.93, -3963.19, 40554.94, 11809.61, -8926.71, 0.00, 0.00, 0.00, 0.00, 0.00, 0.00, 0.00
101, 6321.45, 77574.63, 10711.54, 30743.50, -21189.27, -4014.19, 7606.92, -50829.68, -3963.19, 40554.94, 11809.61, -8926.71, 0.00, 0.00, 0.00, 0.00, 0.00, 0.00, 0.00
102, 6321.45, 77574.63, 10711.54, 30743.50, -21189.27, -4014.19, 7606.92, -50829.68, -3983.91, 40499.04, 11766.25, -8868.28, 0.00, 0.00, 0.00, 0.00, 0.00, 0.00, 0.00
103, 6311.93, 77570.50, 10703.83, 30739.79, -21198.26, -4016.03, 7603.91, -50844.25, -3983.91, 40499.04, 11766.25, -8868.28, 0.00, 0.00, 0.00, 0.00, 0.00, 0.00, 0.00
104, 6311.93, 77570.50, 10703.83, 30739.79, -21198.26, -4016.03, 7603.91, -50844.25, -3982.50, 40539.89, 11796.36, -8938.84, 0.00, 0.00, 0.00, 0.00, 0.06, 0.41, 0.93
105, 6319.15, 77580.69, 10709.61, 30744.96, -21193.12, -4019.22, 7594.50, -50843.96, -3982.50, 40539.89, 11796.36, -8938.84, 0.00, 0.00, 0.00, 0.00, 0.00, 0.00, 0.00
106, 6319.15, 77580.69, 10709.61, 30744.96, -21193.12, -4019.22, 7594.50, -50843.96, -3982.88, 40497.31, 11768.93, -8867.43, 0.00, 0.00, 0.00, 0.00, 0.00, 0.00, 0.00
107, 6315.15, 77569.42, 10705.10, 30737.02, -21193.12, -4025.26, 7597.67, -50834.46, -3982.88, 40497.31, 11768.93, -8867.43, 0.00, 0.00, 0.00, 0.00, 0.00, 0.00, 0.00
108, 6315.15, 77569.42, 10705.10, 30737.02, -21193.12, -4025.26, 7597.67, -50834.46, -3977.87, 40538.98, 11795.80, -8940.07, 0.00, 0.00, 0.00, 0.00, 0.00, 0.00, 0.00
109, 6317.39, 77572.64, 10709.73, 30746.77, -21186.32, -4015.18, 7606.54, -50835.26, -3977.87, 40538.98, 11795.80, -8940.07, 0.00, 0.00, 0.00, 0.00, 0.00, 0.00, 0.00
110, 6317.39, 77572.64, 10709.73, 30746.77, -21186.32, -4015.18, 7606.54, -50835.26, -3983.59, 40501.63, 11758.56, -8869.93, 0.00, 0.00, 0.00, 0.00, 0.00, 0.00, 0.00
111, 6304.62, 77559.63, 10697.48, 30734.88, -21194.17, -4019.29, 7598.30, -50843.40, -3983.59, 40501.63, 11758.56, -8869.93, 0.00, 0.00, 0.00, 0.00, 0.00, 0.00, 0.00
112, 6304.62, 77559.63, 10697.48, 30734.88, -21194.17, -4019.29, 7598.30, -50843.40, -3976.26, 40544.41, 11788.91, -8924.76, 0.00, 0.00, 0.00, 0.00, 0.00, 0.00, 0.00
113, 6317.85, 77582.52, 10715.69, 30753.50, -21174.50, -4002.30, 7617.16, -50824.16, -3976.26, 40544.41, 11788.91, -8924.76, 0.00, 0.00, 0.00, 0.00, 0.00, 0.00, 0.00
114, 6317.85, 77582.52, 10715.69, 30753.50, -21174.50, -4002.30, 7617.16, -50824.16, -3973.87, 40516.04, 11772.04, -8864.43, 0.00, 0.00, 0.00, 0.00, 0.07, 0.41, 0.92
115, 6303.68, 77564.87, 10698.39, 30732.51, -21188.96, -4021.57, 7601.22, -50842.62, -3973.87, 40516.04, 11772.04, -8864.43, 0.00, 0.00, 0.00, 0.00, 0.00, 0.00, 0.00
116, 6303.68, 77564.87, 10698.39, 30732.51, -21188.96, -4021.57, 7601.22, -50842.62, -3974.18, 40544.59, 11788.11, -8915.06, 0.00, 0.00, 0.00, 0.00, 0.00, 0.00, 0.00
117, 6321.83, 77584.40, 10720.66, 30761.19, -21167.10, -3997.54, 7625.79, -50819.77, -3974.18, 40544.59, 11788.11, -8915.06, 0.00, 0.00, 0.00, 0.00, 0.00, 0.00, 0.00
118, 6321.83, 77584.40, 10720.66, 30761.19, -21167.10, -3997.54, 7625.79, -50819.77, -3976.62, 40525.48, 11773.13, -8864.81, 0.00, 0.00, 0.00, 0.00, 0.00, 0.00, 0.00
119, 6304.11, 77561.73, 10699.62, 30731.70, -21184.76, -4019.67, 7599.88, -50840.43, -3976.62, 40525.48, 11773.13, -8864.81, 0.00, 0.00, 0.00, 0.00, 0.00, 0.00, 0.00
120, 6304.11, 77561.73, 10699.62, 30731.70, -21184.76, -4019.67, 7599.88, -50840.43, -3973.11, 40546.38, 11783.42, -8903.01, 0.00, 0.00, 0.00, 0.00, 0.00, 0.00, 0.00
121, 6320.09, 77583.04, 10721.68, 30760.80, -21159.57, -3996.22, 7631.69, -50811.35, -3973.11, 40546.38, 11783.42, -8903.01, 0.00, 0.00, 0.00, 0.00, 0.00, 0.00, 0.00
122, 6320.09, 77583.04, 10721.68, 30760.80, -21159.57, -3996.22, 7631.69, -50811.35, -3965.33, 40536.99, 11779.79, -8869.60, 0.00, 0.00, 0.00, 0.00, 0.00, 0.00, 0.00
123, 6299.64, 77560.08, 10698.42, 30732.37, -21179.30, -4019.20, 7599.08, -50840.83, -3965.33, 40536.99, 11779.79, -8869.60, 0.00, 0.00, 0.00, 0.00, 0.00, 0.00, 0.00
124, 6299.64, 77560.08, 10698.42, 30732.37, -21179.30, -4019.20, 7599.08, -50840.83, -3978.57, 40526.62, 11773.76, -8905.94, 0.00, 0.00, 0.00, 0.00, 0.06, 0.41, 0.92
125, 6319.26, 77585.25, 10719.85, 30762.24, -21160.53, -3997.52, 7632.63, -50826.66, -3978.57, 40526.62, 11773.76, -8905.94, 0.00, 0.00, 0.00, 0.00, 0.00, 0.00, 0.00
126, 6319.26, 77585.25, 10719.85, 30762.24, -21160.53, -3997.52, 7632.63, -50826.66, -3971.95, 40527.42, 11784.98, -8889.65, 0.00, 0.00, 0.00, 0.00, 0.00, 0.00, 0.00
127, 6312.27, 77573.80, 10705.75, 30738.23, -21174.66, -4019.51, 7602.68, -50846.51, -3971.95, 40527.42, 11784.98, -8889.65, 0.00, 0.00, 0.00, 0.00, 0.00, 0.00, 0.00
128, 6312.27, 77573.80, 10705.75, 30738.23, -21174.66, -4019.51, 7602.68, -50846.51, -3964.39, 40530.55, 11776.20, -8888.44, 0.00, 0.00, 0.00, 0.00, 0.00, 0.00, 0.00
129, 6330.39, 77595.77, 10732.14, 30770.55, -21146.11, -3995.24, 7637.01, -50808.75, -3964.39, 40530.55, 11776.20, -8888.44, 0.00, 0.00, 0.00, 0.00, 0.00, 0.00, 0.00
130, 6330.39, 77595.77, 10732.14, 30770.55, -21146.11, -3995.24, 7637.01, -50808.75, -3962.29, 40536.09, 11793.41, -8898.59, 0.00, 0.00, 0.00, 0.00, 0.00, 0.00, 0.00
131, 6312.94, 77567.10, 10705.41, 30740.78, -21170.59, -4017.61, 7605.54, -50844.90, -3962.29, 40536.09, 11793.41, -8898.59, 0.00, 0.00, 0.00, 0.00, 0.00, 0.00, 0.00
132, 6312.94, 77567.10, 10705.41, 30740.78, -21170.59, -4017.61, 7605.54, -50844.90, -3965.78, 40521.92, 11773.33, -8879.36, 0.00, 0.00, 0.00, 0.00, 0.00, 0.00, 0.00
133, 6327.71, 77594.75, 10728.17, 30767.33, -21147.39, -3993.72, 7635.09, -50814.95, -3965.78, 40521.92, 11773.33, -8879.36, 0.00, 0.00, 0.00, 0.00, 0.06, 0.41, 0.92
134, 6327.71, 77594.75, 10728.17, 30767.33, -21147.39, -3993.72, 7635.09, -50814.95, -3969.60, 40537.19, 11788.42, -8910.57, 0.00, 0.00, 0.00, 0.00, 0.00, 0.00, 0.00
135, 6303.06, 77562.30, 10699.29, 30738.45, -21170.03, -4017.46, 7602.77, -50847.51, -3969.60, 40537.19, 11788.42, -8910.57, 0.00, 0.00, 0.00, 0.00, 0.00, 0.00, 0.00
136, 6303.06, 77562.30, 10699.29, 30738.45, -21170.03, -4017.46, 7602.77, -50847.51, -3976.67, 40507.73, 11761.13, -8886.85, 0.00, 0.00, 0.00, 0.00, 0.00, 0.00, 0.00
137, 6316.92, 77576.48, 10715.94, 30758.01, -21158.21, -4013.68, 7623.64, -50835.24, -3976.67, 40507.73, 11761.13, -8886.85, 0.00, 0.00, 0.00, 0.00, 0.00, 0.00, 0.00
138, 6316.92, 77576.48, 10715.94, 30758.01, -21158.21, -4013.68, 7623.64, -50835.24, -3981.99, 40515.15, 11777.07, -8946.35, 0.00, 0.00, 0.00, 0.00, 0.00, 0.00, 0.00
139, 6303.12, 77553.04, 10695.53, 30736.58, -21178.84, -4029.13, 7588.91, -50867.00, -3981.99, 40515.15, 11777.07, -8946.35, 0.00, 0.00, 0.00, 0.00, 0.00, 0.00, 0.00
140, 6303.12, 77553.04, 10695.53, 30736.58, -21178.84, -4029.13, 7588.91, -50867.00, -3987.84, 40472.13, 11754.74, -8916.51, 0.00, 0.00, 0.00, 0.00, 0.00, 0.00, 0.00
141, 6321.14, 77581.16, 10716.97, 30759.04, -21161.65, -4012.34, 7609.67, -50851.74, -3987.84, 40472.13, 11754.74, -8916.51, 0.00, 0.00, 0.00, 0.00, 0.00, 0.00, 0.00
142, 6321.14, 77581.16, 10716.97, 30759.04, -21161.65, -4012.34, 7609.67, -50851.74, -3984.67, 40507.19, 11789.90, -8964.35, 0.00, 0.00, 0.00, 0.00, 0.00, 0.00, 0.00
143, 6308.20, 77566.52, 10703.69, 30740.11, -21170.86, -4033.17, 7593.69, -50867.67, -3984.67, 40507.19, 11789.90, -8964.35, 0.00, 0.00, 0.00, 0.00, 0.06, 0.41, 0.92
144, 6308.20, 77566.52, 10703.69, 30740.11, -21170.86, -4033.17, 7593.69, -50867.67, -3982.07, 40467.14, 11759.07, -8911.71, 0.00, 0.00, 0.00, 0.00, 0.00, 0.00, 0.00
145, 6320.16, 77581.31, 10716.34, 30755.28, -21158.99, -4016.12, 7612.69, -50855.18, -3982.07, 40467.14, 11759.07, -8911.71, 0.00, 0.00, 0.00, 0.00, 0.00, 0.00, 0.00
146, 6320.16, 77581.31, 10716.34, 30755.28, -21158.99, -4016.12, 7612.69, -50855.18, -3978.19, 40506.50, 11794.70, -8978.32, 0.00, 0.00, 0.00, 0.00, 0.00, 0.00, 0.00
147, 6314.59, 77573.49, 10709.26, 30745.16, -21164.73, -4025.84, 7594.72, -50869.21, -3978.19, 40506.50, 11794.70, -8978.32, 0.00, 0.00, 0.00, 0.00, 0.00, 0.00, 0.00
148, 6314.59, 77573.49, 10709.26, 30745.16, -21164.73, -4025.84, 7594.72, -50869.21, -3985.14, 40457.48, 11759.48, -8916.33, 0.00, 0.00, 0.00, 0.00, 0.00, 0.00, 0.00
149, 6322.17, 77588.20, 10720.05, 30755.42, -21153.04, -4019.02, 7613.32, -50853.08, -3985.14, 40457.48, 11759.48, -8916.33, 0.00, 0.00, 0.00, 0.00, 0.00, 0.00, 0.00
150, 6322.17, 77588.20, 10720.05, 30755.42, -21153.04, -4019.02, 7613.32, -50853.08, -3968.46, 40509.74, 11802.23, -8973.78, 0.00, 0.00, 0.00, 0.00, 0.00, 0.00, 0.00
151, 6320.20, 77577.18, 10719.74, 30754.99, -21147.77, -4016.30, 7610.37, -50853.88, -3968.46, 40509.74, 11802.23, -8973.78, 0.00, 0.00, 0.00, 0.00, 0.00, 0.00, 0.00
152, 6320.20, 77577.18, 10719.74, 30754.99, -21147.77, -4016.30, 7610.37, -50853.88, -3975.39, 40464.48, 11772.71, -8908.42, 0.00, 0.00, 0.00, 0.00, 0.00, 0.00, 0.00
153, 6317.52, 77582.90, 10720.57, 30758.32, -21150.03, -4016.50, 7616.22, -50855.31, -3975.39, 40464.48, 11772.71, -8908.42, 0.00, 0.00, 0.00, 0.00, 0.06, 0.41, 0.93
154, 6317.52, 77582.90, 10720.57, 30758.32, -21150.03, -4016.50, 7616.22, -50855.31, -3967.95, 40515.24, 11799.62, -8971.54, 0.00, 0.00, 0.00, 0.00, 0.00, 0.00, 0.00
155, 6325.59, 77590.01, 10724.57, 30759.91, -21142.22, -4009.37, 7613.85, -50846.95, -3967.95, 40515.24, 11799.62, -8971.54, 0.00, 0.00, 0.00, 0.00, 0.00, 0.00, 0.00
156, 6325.59, 77590.01, 10724.57, 30759.91, -21142.22, -4009.37, 7613.85, -50846.95, -3980.60, 40459.41, 11768.68, -8915.17, 0.00, 0.00, 0.00, 0.00, 0.00, 0.00, 0.00
157, 6312.74, 77572.27, 10712.10, 30752.56, -21156.51, -4024.61, 7601.78, -50869.60, -3980.60, 40459.41, 11768.68, -8915.17, 0.00, 0.00, 0.00, 0.00, 0.00, 0.00, 0.00
158, 6312.74, 77572.27, 10712.10, 30752.56, -21156.51, -4024.61, 7601.78, -50869.60, -3978.10, 40495.66, 11794.81, -8987.17, 0.00, 0.00, 0.00, 0.00, 0.00, 0.00, 0.00
159, 6329.43, 77587.13, 10722.35, 30762.95, -21144.41, -4013.68, 7613.23, -50858.91, -3978.10, 40495.66, 11794.81, -8987.17, 0.00, 0.00, 0.00, 0.00, 0.00, 0.00, 0.00
160, 6329.43, 77587.13, 10722.35, 30762.95, -21144.41, -4013.68, 7613.23, -50858.91, -3979.88, 40461.37, 11762.96, -8919.11, 0.00, 0.00, 0.00, 0.00, 0.00, 0.00, 0.00
161, 6312.36, 77571.75, 10707.45, 30745.40, -21158.65, -4027.47, 7594.43, -50871.38, -3979.88, 40461.37, 11762.96, -8919.11, 0.00, 0.00, 0.00, 0.00, 0.00, 0.00, 0.00
162, 6312.36, 77571.75, 10707.45, 30745.40, -21158.65, -4027.47, 7594.43, -50871.38, -3977.34, 40496.98, 11796.18, -8970.96, 0.00, 0.00, 0.00, 0.00, 0.00, 0.00, 0.00
163, 6337.19, 77601.63, 10736.46, 30773.63, -21131.34, -4002.64, 7626.86, -50843.78, -3977.34, 40496.98, 11796.18, -8970.96, 0.00, 0.00, 0.00, 0.00, 0.06, 0.42, 0.93
164, 6337.19, 77601.63, 10736.46, 30773.63, -21131.34, -4002.64, 7626.86, -50843.78, -3974.25, 40472.13, 11784.67, -8915.37, 0.00, 0.00, 0.00, 0.00, 0.00, 0.00, 0.00
165, 6321.07, 77583.39, 10719.54, 30753.03, -21147.19, -4017.64, 7601.38, -50867.00, -3974.25, 40472.13, 11784.67, -8915.37, 0.00, 0.00, 0.00, 0.00, 0.00, 0.00, 0.00
166, 6321.07, 77583.39, 10719.54, 30753.03, -21147.19, -4017.64, 7601.38, -50867.00, -3967.12, 40503.08, 11799.31, -8962.24, 0.00, 0.00, 0.00, 0.00, 0.00, 0.00, 0.00
167, 6337.77, 77612.34, 10740.73, 30773.28, -21125.57, -4005.14, 7631.85, -50835.60, -3967.12, 40503.08, 11799.31, -8962.24, 0.00, 0.00, 0.00, 0.00, 0.00, 0.00, 0.00
168, 6337.77, 77612.34, 10740.73, 30773.28, -21125.57, -4005.14, 7631.85, -50835.60, -3972.37, 40481.38, 11786.48, -8921.01, 0.00, 0.00, 0.00, 0.00, 0.00, 0.00, 0.00
169, 6314.84, 77580.94, 10714.38, 30743.37, -21151.23, -4027.20, 7590.23, -50873.17, -3972.37, 40481.38, 11786.48, -8921.01, 0.00, 0.00, 0.00, 0.00, 0.00, 0.00, 0.00
170, 6314.84, 77580.94, 10714.38, 30743.37, -21151.23, -4027.20, 7590.23, -50873.17, -3976.06, 40490.39, 11791.42, -8958.06, 0.00, 0.00, 0.00, 0.00, 0.00, 0.00, 0.00
171, 6346.64, 77615.18, 10746.09, 30779.78, -21117.88, -3995.89, 7626.04, -50836.76, -3976.06, 40490.39, 11791.42, -8958.06, 0.00, 0.00, 0.00, 0.00, 0.00, 0.00, 0.00
172, 6346.64, 77615.18, 10746.09, 30779.78, -21117.88, -3995.89, 7626.04, -50836.76, -3972.11, 40485.18, 11792.36, -8931.11, 0.00, 0.00, 0.00, 0.00, 0.06, 0.41, 0.92
173, 6317.16, 77580.42, 10712.77, 30743.13, -21150.65, -4031.61, 7588.62, -50874.20, -3972.11, 40485.18, 11792.36, -8931.11, 0.00, 0.00, 0.00, 0.00, 0.00, 0.00, 0.00
174, 6317.16, 77580.42, 10712.77, 30743.13, -21150.65, -4031.61, 7588.62, -50874.20, -3973.31, 40481.09, 11782.48, -8955.83, 0.00, 0.00, 0.00, 0.00, 0.00, 0.00, 0.00
175, 6339.45, 77603.78, 10735.61, 30774.62, -21123.81, -4003.31, 7615.08, -50845.46, -3973.31, 40481.09, 11782.48, -8955.83, 0.00, 0.00, 0.00, 0.00, 0.00, 0.00, 0.00
176, 6339.45, 77603.78, 10735.61, 30774.62, -21123.81, -4003.31, 7615.08, -50845.46, -3973.56, 40490.21, 11790.50, -8940.12, 0.00, 0.00, 0.00, 0.00, 0.00, 0.00, 0.00
177, 6319.02, 77579.26, 10712.07, 30741.85, -21144.12, -4027.25, 7586.07, -50870.36, -3973.56, 40490.21, 11790.50, -8940.12, 0.00, 0.00, 0.00, 0.00, 0.00, 0.00, 0.00
178, 6319.02, 77579.26, 10712.07, 30741.85, -21144.12, -4027.25, 7586.07, -50870.36, -3971.17, 40481.51, 11778.99, -8938.37, 0.00, 0.00, 0.00, 0.00, 0.00, 0.00, 0.00
179, 6332.88, 77600.34, 10734.20, 30771.60, -21123.58, -4005.70, 7612.67, -50845.14, -3971.17, 40481.51, 11778.99, -8938.37, 0.00, 0.00, 0.00, 0.00, 0.00, 0.00, 0.00
180, 6332.88, 77600.34, 10734.20, 30771.60, -21123.58, -4005.70, 7612.67, -50845.14, -3986.17, 40480.84, 11779.39, -8959.90, 0.00, 0.00, 0.00, 0.00, 0.00, 0.00, 0.00
181, 6310.25, 77567.84, 10704.29, 30740.15, -21151.99, -4027.45, 7575.59, -50881.91, -3986.17, 40480.84, 11779.39, -8959.90, 0.00, 0.00, 0.00, 0.00, 0.00, 0.00, 0.00
182, 6310.25, 77567.84, 10704.29, 30740.15, -21151.99, -4027.45, 7575.59, -50881.91, -3977.36, 40468.30, 11770.72, -8935.58, 0.00, 0.00, 0.00, 0.00, 0.06, 0.41, 0.92
183, 6334.26, 77606.77, 10736.91, 30769.72, -21119.54, -4005.88, 7611.24, -50844.50, -3977.36, 40468.30, 11770.72, -8935.58, 0.00, 0.00, 0.00, 0.00, 0.00, 0.00, 0.00
184, 6334.26, 77606.77, 10736.91, 30769.72, -21119.54, -4005.88, 7611.24, -50844.50, -3972.26, 40496.29, 11793.96, -8964.41, 0.00, 0.00, 0.00, 0.00, 0.00, 0.00, 0.00
185, 6321.65, 77580.11, 10714.29, 30746.63, -21141.51, -4022.51, 7576.08, -50875.68, -3972.26, 40496.29, 11793.96, -8964.41, 0.00, 0.00, 0.00, 0.00, 0.00, 0.00, 0.00
186, 6321.65, 77580.11, 10714.29, 30746.63, -21141.51, -4022.51, 7576.08, -50875.68, -3983.35, 40454.89, 11764.77, -8933.28, 0.00, 0.00, 0.00, 0.00, 0.00, 0.00, 0.00
187, 6333.59, 77596.56, 10730.58, 30765.14, -21131.56, -4014.37, 7593.25, -50859.36, -3983.35, 40454.89, 11764.77, -8933.28, 0.00, 0.00, 0.00, 0.00, 0.00, 0.00, 0.00
188, 6333.59, 77596.56, 10730.58, 30765.14, -21131.56, -4014.37, 7593.25, -50859.36, -3977.78, 40492.53, 11793.47, -8972.15, 0.00, 0.00, 0.00, 0.00, 0.00, 0.00, 0.00
189, 6318.70, 77580.94, 10714.38, 30747.17, -21140.01, -4025.68, 7577.06, -50869.46, -3977.78, 40492.53, 11793.47, -8972.15, 0.00, 0.00, 0.00, 0.00, 0.00, 0.00, 0.00
190, 6318.70, 77580.94, 10714.38, 30747.17, -21140.01, -4025.68, 7577.06, -50869.46, -3982.25, 40460.99, 11759.12, -8920.22, 0.00, 0.00, 0.00, 0.00, 0.00, 0.00, 0.00
191, 6322.73, 77592.42, 10724.23, 30761.65, -21134.47, -4012.83, 7586.29, -50861.97, -3982.25, 40460.99, 11759.12, -8920.22, 0.00, 0.00, 0.00, 0.00, 0.00, 0.00, 0.00
192, 6322.73, 77592.42, 10724.23, 30761.65, -21134.47, -4012.83, 7586.29, -50861.97, -3980.15, 40491.97, 11791.91, -8983.21, 0.00, 0.00, 0.00, 0.00, 0.06, 0.41, 0.92
193, 6319.11, 77579.93, 10717.39, 30748.69, -21140.30, -4022.78, 7572.35, -50876.08, -3980.15, 40491.97, 11791.91, -8983.21, 0.00, 0.00, 0.00, 0.00, 0.00, 0.00, 0.00
194, 6319.11, 77579.93, 10717.39, 30748.69, -21140.30, -4022.78, 7572.35, -50876.08, -3982.75, 40447.02, 11761.22, -8922.37, 0.00, 0.00, 0.00, 0.00, 0.00, 0.00, 0.00
195, 6324.14, 77589.56, 10722.09, 30756.56, -21134.69, -4020.86, 7583.28, -50865.08, -3982.75, 40447.02, 11761.22, -8922.37, 0.00, 0.00, 0.00, 0.00, 0.00, 0.00, 0.00
196, 6324.14, 77589.56, 10722.09, 30756.56, -21134.69, -4020.86, 7583.28, -50865.08, -3985.79, 40490.81, 11790.43, -8987.41, 0.00, 0.00, 0.00, 0.00, 0.00, 0.00, 0.00
197, 6311.46, 77580.84, 10712.88, 30747.60, -21142.67, -4029.13, 7570.47, -50874.38, -3985.79, 40490.81, 11790.43, -8987.41, 0.00, 0.00, 0.00, 0.00, 0.00, 0.00, 0.00
198, 6311.46, 77580.84, 10712.88, 30747.60, -21142.67, -4029.13, 7570.47, -50874.38, -3987.89, 40447.00, 11758.25, -8921.74, 0.00, 0.00, 0.00, 0.00, 0.00, 0.00, 0.00
199, 6317.90, 77586.68, 10719.47, 30749.29, -21139.92, -4023.20, 7573.08, -50872.03, -3987.89, 40447.00, 11758.25, -8921.74, 0.00, 0.00, 0.00, 0.00, 0.00, 0.00, 0.00
200, 6317.90, 77586.68, 10719.47, 30749.29, -21139.92, -4023.20, 7573.08, -50872.03, -3982.12, 40492.98, 11800.27, -8986.90, 0.00, 0.00, 0.00, 0.00, 0.00, 0.00, 0.00
201, 6320.02, 77586.79, 10723.67, 30757.63, -21132.97, -4016.45, 7574.92, -50867.72, -3982.12, 40492.98, 11800.27, -8986.90, 0.00, 0.00, 0.00, 0.00, 0.00, 0.00, 0.00
202, 6320.02, 77586.79, 10723.67, 30757.63, -21132.97, -4016.45, 7574.92, -50867.72, -3983.15, 40449.50, 11762.14, -8917.54, 0.00, 0.00, 0.00, 0.00, 0.05, 0.41, 0.92
203, 6310.08, 77576.94, 10714.80, 30748.69, -21143.63, -4028.16, 7564.55, -50877.15, -3983.15, 40449.50, 11762.14, -8917.54, 0.00, 0.00, 0.00, 0.00, 0.00, 0.00, 0.00
204, 6310.08, 77576.94, 10714.80, 30748.69, -21143.63, -4028.16, 7564.55, -50877.15, -3980.78, 40488.75, 11790.41, -8988.84, 0.00, 0.00, 0.00, 0.00, 0.00, 0.00, 0.00
205, 6319.91, 77585.72, 10722.71, 30756.20, -21134.20, -4021.66, 7576.12, -50863.89, -3980.78, 40488.75, 11790.41, -8988.84, 0.00, 0.00, 0.00, 0.00, 0.00, 0.00, 0.00
206, 6319.91, 77585.72, 10722.71, 30756.20, -21134.20, -4021.66, 7576.12, -50863.89, -3984.96, 40453.01, 11757.98, -8917.61, 0.00, 0.00, 0.00, 0.00, 0.00, 0.00, 0.00
207, 6306.99, 77577.56, 10711.38, 30745.54, -21146.65, -4030.13, 7559.07, -50878.07, -3984.96, 40453.01, 11757.98, -8917.61, 0.00, 0.00, 0.00, 0.00, 0.00, 0.00, 0.00
208, 6306.99, 77577.56, 10711.38, 30745.54, -21146.65, -4030.13, 7559.07, -50878.07, -3976.60, 40489.96, 11790.39, -8980.66, 0.00, 0.00, 0.00, 0.00, 0.00, 0.00, 0.00
209, 6324.98, 77591.58, 10725.31, 30761.61, -21134.80, -4009.75, 7575.52, -50862.44, -3976.60, 40489.96, 11790.39, -8980.66, 0.00, 0.00, 0.00, 0.00, 0.00, 0.00, 0.00
210, 6324.98, 77591.58, 10725.31, 30761.61, -21134.80, -4009.75, 7575.52, -50862.44, -3992.02, 40449.95, 11758.34, -8922.15, 0.00, 0.00, 0.00, 0.00, 0.00, 0.00, 0.00
211, 6299.32, 77563.75, 10702.46, 30738.12, -21156.39, -4036.59, 7550.78, -50888.15, -3992.02, 40449.95, 11758.34, -8922.15, 0.00, 0.00, 0.00, 0.00, 0.05, 0.41, 0.92
212, 6299.32, 77563.75, 10702.46, 30738.12, -21156.39, -4036.59, 7550.78, -50888.15, -3990.99, 40474.96, 11769.96, -8984.53, 0.00, 0.00, 0.00, 0.00, 0.00, 0.00, 0.00
213, 6313.54, 77579.86, 10717.42, 30756.96, -21141.62, -4020.48, 7571.09, -50867.90, -3990.99, 40474.96, 11769.96, -8984.53, 0.00, 0.00, 0.00, 0.00, 0.00, 0.00, 0.00
214, 6313.54, 77579.86, 10717.42, 30756.96, -21141.62, -4020.48, 7571.09, -50867.90, -3987.91, 40453.73, 11759.27, -8932.07, 0.00, 0.00, 0.00, 0.00, 0.00, 0.00, 0.00
215, 6299.39, 77565.18, 10703.56, 30738.07, -21154.79, -4034.06, 7550.75, -50886.38, -3987.91, 40453.73, 11759.27, -8932.07, 0.00, 0.00, 0.00, 0.00, 0.00, 0.00, 0.00
216, 6299.39, 77565.18, 10703.56, 30738.07, -21154.79, -4034.06, 7550.75, -50886.38, -3983.68, 40472.10, 11772.13, -8974.61, 0.00, 0.00, 0.00, 0.00, 0.00, 0.00, 0.00
217, 6318.17, 77593.70, 10725.62, 30762.44, -21133.51, -4016.54, 7577.96, -50858.91, -3983.68, 40472.10, 11772.13, -8974.61, 0.00, 0.00, 0.00, 0.00, 0.00, 0.00, 0.00
218, 6318.17, 77593.70, 10725.62, 30762.44, -21133.51, -4016.54, 7577.96, -50858.91, -3984.65, 40461.35, 11765.69, -8936.36, 0.00, 0.00, 0.00, 0.00, 0.00, 0.00, 0.00
219, 6293.22, 77554.72, 10697.50, 30734.27, -21161.04, -4039.81, 7545.50, -50889.11, -3984.65, 40461.35, 11765.69, -8936.36, 0.00, 0.00, 0.00, 0.00, 0.00, 0.00, 0.00
220, 6293.22, 77554.72, 10697.50, 30734.27, -21161.04, -4039.81, 7545.50, -50889.11, -3987.66, 40464.93, 11766.63, -8962.76, 0.00, 0.00, 0.00, 0.00, 0.00, 0.00, 0.00
221, 6320.16, 77590.44, 10728.30, 30767.85, -21132.88, -4011.69, 7577.55, -50859.18, -3987.66, 40464.93, 11766.63, -8962.76, 0.00, 0.00, 0.00, 0.00, 0.06, 0.41, 0.93
222, 6320.16, 77590.44, 10728.30, 30767.85, -21132.88, -4011.69, 7577.55, -50859.18, -3983.89, 40464.01, 11772.26, -8949.55, 0.00, 0.00, 0.00, 0.00, 0.00, 0.00, 0.00
223, 6297.45, 77564.28, 10701.55, 30735.95, -21160.66, -4032.08, 7542.15, -50891.37, -3983.89, 40464.01, 11772.26, -8949.55, 0.00, 0.00, 0.00, 0.00, 0.00, 0.00, 0.00
224, 6297.45, 77564.28, 10701.55, 30735.95, -21160.66, -4032.08, 7542.15, -50891.37, -3984.24, 40462.47, 11766.58, -8957.28, 0.00, 0.00, 0.00, 0.00, 0.00, 0.00, 0.00
225, 6321.88, 77590.95, 10727.85, 30766.17, -21134.20, -4013.81, 7576.66, -50858.09, -3984.24, 40462.47, 11766.58, -8957.28, 0.00, 0.00, 0.00, 0.00, 0.00, 0.00, 0.00
226, 6321.88, 77590.95, 10727.85, 30766.17, -21134.20, -4013.81, 7576.66, -50858.09, -3980.67, 40473.53, 11779.19, -8949.77, 0.00, 0.00, 0.00, 0.00, 0.00, 0.00, 0.00
227, 6293.98, 77560.62, 10703.85, 30738.36, -21158.18, -4037.42, 7548.12, -50883.97, -3980.67, 40473.53, 11779.19, -8949.77, 0.00, 0.00, 0.00, 0.00, 0.00, 0.00, 0.00
228, 6293.98, 77560.62, 10703.85, 30738.36, -21158.18, -4037.42, 7548.12, -50883.97, -3978.77, 40465.02, 11762.92, -8937.37, 0.00, 0.00, 0.00, 0.00, 0.00, 0.00, 0.00
229, 6315.35, 77589.14, 10727.79, 30765.59, -21134.49, -4012.23, 7577.91, -50856.95, -3978.77, 40465.02, 11762.92, -8937.37, 0.00, 0.00, 0.00, 0.00, 0.00, 0.00, 0.00
230, 6315.35, 77589.14, 10727.79, 30765.59, -21134.49, -4012.23, 7577.91, -50856.95, -3979.08, 40478.79, 11785.36, -8961.33, 0.00, 0.00, 0.00, 0.00, 0.00, 0.00, 0.00
231, 6301.05, 77567.13, 10706.89, 30743.84, -21155.77, -4033.39, 7548.72, -50885.98, -3979.08, 40478.79, 11785.36, -8961.33, 0.00, 0.00, 0.00, 0.00, 0.05, 0.41, 0.93
232, 6301.05, 77567.13, 10706.89, 30743.84, -21155.77, -4033.39, 7548.72, -50885.98, -3981.63, 40453.53, 11758.16, -8932.18, 0.00, 0.00, 0.00, 0.00, 0.00, 0.00, 0.00
233, 6312.60, 77588.47, 10725.37, 30764.45, -21139.74, -4015.89, 7575.99, -50858.40, -3981.63, 40453.53, 11758.16, -8932.18, 0.00, 0.00, 0.00, 0.00, 0.00, 0.00, 0.00
234, 6312.60, 77588.47, 10725.37, 30764.45, -21139.74, -4015.89, 7575.99, -50858.40, -3978.81, 40482.41, 11784.49, -8963.43, 0.00, 0.00, 0.00, 0.00, 0.00, 0.00, 0.00
235, 6300.20, 77564.38, 10704.74, 30741.07, -21160.33, -4031.34, 7547.45, -50885.44, -3978.81, 40482.41, 11784.49, -8963.43, 0.00, 0.00, 0.00, 0.00, 0.00, 0.00, 0.00
236, 6300.20, 77564.38, 10704.74, 30741.07, -21160.33, -4031.34, 7547.45, -50885.44, -3981.00, 40449.01, 11758.22, -8925.43, 0.00, 0.00, 0.00, 0.00, 0.00, 0.00, 0.00
237, 6311.28, 77585.56, 10723.32, 30760.45, -21143.41, -4018.96, 7570.56, -50864.93, -3981.00, 40449.01, 11758.22, -8925.43, 0.00, 0.00, 0.00, 0.00, 0.00, 0.00, 0.00
238, 6311.28, 77585.56, 10723.32, 30760.45, -21143.41, -4018.96, 7570.56, -50864.93, -3973.09, 40492.48, 11788.94, -8971.43, 0.00, 0.00, 0.00, 0.00, 0.00, 0.00, 0.00
239, 6305.83, 77574.14, 10712.77, 30743.73, -21154.92, -4030.71, 7553.30, -50878.13, -3973.09, 40492.48, 11788.94, -8971.43, 0.00, 0.00, 0.00, 0.00, 0.00, 0.00, 0.00
240, 6305.83, 77574.14, 10712.77, 30743.73, -21154.92, -4030.71, 7553.30, -50878.13, -3980.15, 40445.12, 11757.04, -8916.65, 0.00, 0.00, 0.00, 0.00, 0.00, 0.00, 0.00
241, 6313.03, 77592.52, 10721.53, 30759.42, -21149.53, -4018.46, 7563.34, -50871.59, -3980.15, 40445.12, 11757.04, -8916.65, 0.00, 0.00, 0.00, 0.00, 0.07, 0.41, 0.92
242, 6313.03, 77592.52, 10721.53, 30759.42, -21149.53, -4018.46, 7563.34, -50871.59, -3980.44, 40479.21, 11790.39, -8985.33, 0.00, 0.00, 0.00, 0.00, 0.00, 0.00, 0.00
243, 6304.51, 77574.21, 10711.83, 30744.00, -21156.48, -4032.39, 7553.66, -50880.55, -3980.44, 40479.21, 11790.39, -8985.33, 0.00, 0.00, 0.00, 0.00, 0.00, 0.00, 0.00
244, 6304.51, 77574.21, 10711.83, 30744.00, -21156.48, -4032.39, 7553.66, -50880.55, -3985.09, 40438.57, 11750.54, -8920.47, 0.00, 0.00, 0.00, 0.00, 0.00, 0.00, 0.00
245, 6309.65, 77580.04, 10715.83, 30752.65, -21154.94, -4026.91, 7559.81, -50874.42, -3985.09, 40438.57, 11750.54, -8920.47, 0.00, 0.00, 0.00, 0.00, 0.00, 0.00, 0.00
246, 6309.65, 77580.04, 10715.83, 30752.65, -21154.94, -4026.91, 7559.81, -50874.42, -3980.71, 40486.72, 11786.50, -8986.05, 0.00, 0.00, 0.00, 0.00, 0.00, 0.00, 0.00
247, 6301.16, 77573.11, 10709.15, 30746.92, -21157.96, -4030.04, 7556.83, -50876.30, -3980.71, 40486.72, 11786.50, -8986.05, 0.00, 0.00, 0.00, 0.00, 0.00, 0.00, 0.00
248, 6301.16, 77573.11, 10709.15, 30746.92, -21157.96, -4030.04, 7556.83, -50876.30, -3985.34, 40443.16, 11753.17, -8910.86, 0.00, 0.00, 0.00, 0.00, 0.00, 0.00, 0.00
249, 6300.15, 77573.72, 10710.17, 30748.60, -21160.40, -4025.68, 7556.90, -50877.66, -3985.34, 40443.16, 11753.17, -8910.86, 0.00, 0.00, 0.00, 0.00, 0.00, 0.00, 0.00
250, 6300.15, 77573.72, 10710.17, 30748.60, -21160.40, -4025.68, 7556.90, -50877.66, -3981.74, 40483.72, 11785.65, -8984.89, 0.00, 0.00, 0.00, 0.00, 0.06, 0.41, 0.92
251, 6306.16, 77582.59, 10717.55, 30753.16, -21153.91, -4024.32, 7561.42, -50875.56, -3981.74, 40483.72, 11785.65, -8984.89, 0.00, 0.00, 0.00, 0.00, 0.00, 0.00, 0.00
252, 6306.16, 77582.59, 10717.55, 30753.16, -21153.91, -4024.32, 7561.42, -50875.56, -3985.45, 40440.27, 11758.40, -8916.89, 0.00, 0.00, 0.00, 0.00, 0.00, 0.00, 0.00
253, 6304.06, 77575.33, 10713.10, 30747.80, -21160.06, -4032.12, 7556.95, -50878.04, -3985.45, 40440.27, 11758.40, -8916.89, 0.00, 0.00, 0.00, 0.00, 0.00, 0.00, 0.00
254, 6304.06, 77575.33, 10713.10, 30747.80, -21160.06, -4032.12, 7556.95, -50878.04, -3982.32, 40482.20, 11786.19, -8985.07, 0.00, 0.00, 0.00, 0.00, 0.00, 0.00, 0.00
255, 6306.39, 77579.15, 10716.07, 30753.56, -21156.78, -4026.91, 7564.14, -50873.75, -3982.32, 40482.20, 11786.19, -8985.07, 0.00, 0.00, 0.00, 0.00, 0.00, 0.00, 0.00
0, 6306.39, 77579.15, 10716.07, 30753.56, -21156.78, -4026.91, 7564.14, -50873.75, -3990.41, 40439.71, 11753.35, -8921.43, 0.00, 0.00, 0.00, 0.00, 0.00, 0.00, 0.00
1, 6299.08, 77568.44, 10704.90, 30739.75, -21167.04, -4035.18, 7548.81, -50887.14, -3990.41, 40439.71, 11753.35, -8921.43, 0.00, 0.00, 0.00, 0.00, 0.00, 0.00, 0.00
2, 6299.08, 77568.44, 10704.90, 30739.75, -21167.04, -4035.18, 7548.81, -50887.14, -3980.15, 40477.84, 11780.96, -8980.80, 0.00, 0.00, 0.00, 0.00, 0.00, 0.00, 0.00
3, 6313.54, 77588.20, 10721.91, 30758.66, -21152.62, -4017.66, 7569.40, -50869.75, -3980.15, 40477.84, 11780.96, -8980.80, 0.00, 0.00, 0.00, 0.00, 0.00, 0.00, 0.00
4, 6313.54, 77588.20, 10721.91, 30758.66, -21152.62, -4017.66, 7569.40, -50869.75, -3988.58, 40441.77, 11758.11, -8930.39, 0.00, 0.00, 0.00, 0.00, 0.06, 0.41, 0.92
5, 6292.55, 77565.78, 10702.51, 30739.59, -21170.59, -4035.07, 7551.38, -50887.28, -3988.58, 40441.77, 11758.11, -8930.39, 0.00, 0.00, 0.00, 0.00, 0.00, 0.00, 0.00
6, 6292.55, 77565.78, 10702.51, 30739.59, -21170.59, -4035.07, 7551.38, -50887.28, -3979.08, 40482.18, 11776.15, -8967.63, 0.00, 0.00, 0.00, 0.00, 0.00, 0.00, 0.00
7, 6306.30, 77576.64, 10717.30, 30757.92, -21152.08, -4022.04, 7578.94, -50859.98, -3979.08, 40482.18, 11776.15, -8967.63, 0.00, 0.00, 0.00, 0.00, 0.00, 0.00, 0.00
8, 6306.30, 77576.64, 10717.30, 30757.92, -21152.08, -4022.04, 7578.94, -50859.98, -3984.27, 40459.85, 11756.21, -8919.53, 0.00, 0.00, 0.00, 0.00, 0.00, 0.00, 0.00
9, 6287.10, 77557.53, 10698.91, 30734.21, -21169.34, -4037.64, 7554.20, -50883.97, -3984.27, 40459.85, 11756.21, -8919.53, 0.00, 0.00, 0.00, 0.00, 0.00, 0.00, 0.00
10, 6287.10, 77557.53, 10698.91, 30734.21, -21169.34, -4037.64, 7554.20, -50883.97, -3977.36, 40471.77, 11772.73, -8961.75, 0.00, 0.00, 0.00, 0.00, 0.00, 0.00, 0.00
11, 6310.30, 77587.88, 10720.28, 30761.10, -21155.01, -4015.69, 7572.66, -50868.88, -3977.36, 40471.77, 11772.73, -8961.75, 0.00, 0.00, 0.00, 0.00, 0.00, 0.00, 0.00
12, 6310.30, 77587.88, 10720.28, 30761.10, -21155.01, -4015.69, 7572.66, -50868.88, -3988.42, 40452.10, 11759.14, -8943.04, 0.00, 0.00, 0.00, 0.00, 0.00, 0.00, 0.00
13, 6290.45, 77562.07, 10698.13, 30733.00, -21177.63, -4043.41, 7546.64, -50896.35, -3988.42, 40452.10, 11759.14, -8943.04, 0.00, 0.00, 0.00, 0.00, 0.00, 0.00, 0.00
14, 6290.45, 77562.07, 10698.13, 30733.00, -21177.63, -4043.41, 7546.64, -50896.35, -3986.84, 40456.16, 11763.50, -8965.53, 0.00, 0.00, 0.00, 0.00, 0.06, 0.42, 0.92
15, 6307.04, 77583.82, 10719.76, 30759.51, -21154.90, -4024.16, 7577.62, -50868.07, -3986.84, 40456.16, 11763.50, -8965.53, 0.00, 0.00, 0.00, 0.00, 0.00, 0.00, 0.00
16, 6307.04, 77583.82, 10719.76, 30759.51, -21154.90, -4024.16, 7577.62, -50868.07, -3982.61, 40457.41, 11772.35, -8950.93, 0.00, 0.00, 0.00, 0.00, 0.00, 0.00, 0.00
17, 6287.48, 77558.67, 10699.04, 30733.04, -21175.39, -4041.04, 7551.72, -50894.56, -3982.61, 40457.41, 11772.35, -8950.93, 0.00, 0.00, 0.00, 0.00, 0.00, 0.00, 0.00
18, 6287.48, 77558.67, 10699.04, 30733.04, -21175.39, -4041.04, 7551.72, -50894.56, -3980.76, 40454.44, 11762.54, -8946.78, 0.00, 0.00, 0.00, 0.00, 0.00, 0.00, 0.00
19, 6304.96, 77588.05, 10722.11, 30760.92, -21152.42, -4019.92, 7584.21, -50861.95, -3980.76, 40454.44, 11762.54, -8946.78, 0.00, 0.00, 0.00, 0.00, 0.00, 0.00, 0.00
20, 6304.96, 77588.05, 10722.11, 30760.92, -21152.42, -4019.92, 7584.21, -50861.95, -3976.78, 40471.92, 11774.97, -8954.20, 0.00, 0.00, 0.00, 0.00, 0.00, 0.00, 0.00
21, 6290.41, 77566.83, 10701.46, 30732.87, -21174.86, -4042.47, 7550.31, -50895.41, -3976.78, 40471.92, 11774.97, -8954.20, 0.00, 0.00, 0.00, 0.00, 0.00, 0.00, 0.00
22, 6290.41, 77566.83, 10701.46, 30732.87, -21174.86, -4042.47, 7550.31, -50895.41, -3982.32, 40446.53, 11764.46, -8946.06, 0.00, 0.00, 0.00, 0.00, 0.00, 0.00, 0.00
23, 6311.84, 77594.91, 10729.15, 30761.65, -21151.16, -4022.64, 7586.99, -50860.57, -3982.32, 40446.53, 11764.46, -8946.06, 0.00, 0.00, 0.00, 0.00, 0.00, 0.00, 0.00
24, 6311.84, 77594.91, 10729.15, 30761.65, -21151.16, -4022.64, 7586.99, -50860.57, -3978.66, 40471.48, 11789.38, -8959.14, 0.00, 0.00, 0.00, 0.00, 0.06, 0.41, 0.92
25, 6297.72, 77570.52, 10708.99, 30742.50, -21168.29, -4038.51, 7561.71, -50886.96, -3978.66, 40471.48, 11789.38, -8959.14, 0.00, 0.00, 0.00, 0.00, 0.00, 0.00, 0.00
26, 6297.72, 77570.52, 10708.99, 30742.50, -21168.29, -4038.51, 7561.71, -50886.96, -3983.95, 40442.48, 11763.41, -8931.78, 0.00, 0.00, 0.00, 0.00, 0.00, 0.00, 0.00
27, 6316.65, 77598.50, 10731.38, 30767.11, -21149.51, -4017.50, 7586.18, -50865.89, -3983.95, 40442.48, 11763.41, -8931.78, 0.00, 0.00, 0.00, 0.00, 0.00, 0.00, 0.00
28, 6316.65, 77598.50, 10731.38, 30767.11, -21149.51, -4017.50, 7586.18, -50865.89, -3984.27, 40473.71, 11782.16, -8973.31, 0.00, 0.00, 0.00, 0.00, 0.00, 0.00, 0.00
29, 6290.29, 77568.59, 10702.69, 30738.88, -21173.27, -4040.59, 7559.83, -50889.31, -3984.27, 40473.71, 11782.16, -8973.31, 0.00, 0.00, 0.00, 0.00, 0.00, 0.00, 0.00
30, 6290.29, 77568.59, 10702.69, 30738.88, -21173.27, -4040.59, 7559.83, -50889.31, -3988.91, 40435.85, 11752.35, -8928.16, 0.00, 0.00, 0.00, 0.00, 0.00, 0.00, 0.00
31, 6306.48, 77589.02, 10720.01, 30756.51, -21158.96, -4029.80, 7584.42, -50870.02, -3988.91, 40435.85, 11752.35, -8928.16, 0.00, 0.00, 0.00, 0.00, 0.00, 0.00, 0.00
32, 6306.48, 77589.02, 10720.01, 30756.51, -21158.96, -4029.80, 7584.42, -50870.02, -3981.45, 40476.44, 11782.59, -8974.56, 0.00, 0.00, 0.00, 0.00, 0.00, 0.00, 0.00
33, 6297.49, 77572.60, 10706.08, 30741.45, -21171.28, -4039.16, 7565.84, -50888.75, -3981.45, 40476.44, 11782.59, -8974.56, 0.00, 0.00, 0.00, 0.00, 0.06, 0.41, 0.93
34, 6297.49, 77572.60, 10706.08, 30741.45, -21171.28, -4039.16, 7565.84, -50888.75, -3987.01, 40431.49, 11748.39, -8925.65, 0.00, 0.00, 0.00, 0.00, 0.00, 0.00, 0.00
35, 6305.90, 77577.09, 10714.17, 30753.21, -21163.70, -4030.18, 7578.27, -50878.40, -3987.01, 40431.49, 11748.39, -8925.65, 0.00, 0.00, 0.00, 0.00, 0.00, 0.00, 0.00
36, 6305.90, 77577.09, 10714.17, 30753.21, -21163.70, -4030.18, 7578.27, -50878.40, -3981.94, 40476.39, 11782.16, -8986.99, 0.00, 0.00, 0.00, 0.00, 0.00, 0.00, 0.00
37, 6300.11, 77576.82, 10710.73, 30746.81, -21167.04, -4035.14, 7570.71, -50883.77, -3981.94, 40476.39, 11782.16, -8986.99, 0.00, 0.00, 0.00, 0.00, 0.00, 0.00, 0.00
38, 6300.11, 77576.82, 10710.73, 30746.81, -21167.04, -4035.14, 7570.71, -50883.77, -3989.12, 40427.55, 11749.62, -8924.92, 0.00, 0.00, 0.00, 0.00, 0.00, 0.00, 0.00
39, 6297.16, 77578.59, 10713.66, 30748.87, -21163.62, -4034.42, 7577.46, -50880.19, -3989.12, 40427.55, 11749.62, -8924.92, 0.00, 0.00, 0.00, 0.00, 0.00, 0.00, 0.00
40, 6297.16, 77578.59, 10713.66, 30748.87, -21163.62, -4034.42, 7577.46, -50880.19, -3983.91, 40475.05, 11780.84, -8986.65, 0.00, 0.00, 0.00, 0.00, 0.00, 0.00, 0.00
41, 6296.20, 77578.03, 10710.84, 30751.04, -21163.21, -4029.71, 7578.74, -50877.93, -3983.91, 40475.05, 11780.84, -8986.65, 0.00, 0.00, 0.00, 0.00, 0.00, 0.00, 0.00
42, 6296.20, 77578.03, 10710.84, 30751.04, -21163.21, -4029.71, 7578.74, -50877.93, -3983.86, 40435.31, 11750.42, -8914.28, 0.00, 0.00, 0.00, 0.00, 0.00, 0.00, 0.00
43, 6298.48, 77577.00, 10708.52, 30745.99, -21165.85, -4037.40, 7579.74, -50878.36, -3983.86, 40435.31, 11750.42, -8914.28, 0.00, 0.00, 0.00, 0.00, 0.06, 0.42, 0.92
44, 6298.48, 77577.00, 10708.52, 30745.99, -21165.85, -4037.40, 7579.74, -50878.36, -3983.06, 40475.01, 11777.07, -8985.98, 0.00, 0.00, 0.00, 0.00, 0.00, 0.00, 0.00
45, 6302.88, 77581.56, 10713.62, 30753.23, -21161.58, -4029.71, 7583.28, -50878.92, -3983.06, 40475.01, 11777.07, -8985.98, 0.00, 0.00, 0.00, 0.00, 0.00, 0.00, 0.00
46, 6302.88, 77581.56, 10713.62, 30753.23, -21161.58, -4029.71, 7583.28, -50878.92, -3987.71, 40433.99, 11752.12, -8922.01, 0.00, 0.00, 0.00, 0.00, 0.00, 0.00, 0.00
47, 6295.46, 77572.91, 10707.25, 30744.42, -21167.71, -4037.40, 7576.03, -50886.14, -3987.71, 40433.99, 11752.12, -8922.01, 0.00, 0.00, 0.00, 0.00, 0.00, 0.00, 0.00
48, 6295.46, 77572.91, 10707.25, 30744.42, -21167.71, -4037.40, 7576.03, -50886.14, -3982.23, 40474.65, 11781.60, -8980.80, 0.00, 0.00, 0.00, 0.00, 0.00, 0.00, 0.00
49, 6308.02, 77590.23, 10723.72, 30760.09, -21153.36, -4027.16, 7596.40, -50868.63, -3982.23, 40474.65, 11781.60, -8980.80, 0.00, 0.00, 0.00, 0.00, 0.00, 0.00, 0.00
50, 6308.02, 77590.23, 10723.72, 30760.09, -21153.36, -4027.16, 7596.40, -50868.63, -3987.53, 40439.76, 11760.01, -8917.59, 0.00, 0.00, 0.00, 0.00, 0.00, 0.00, 0.00
51, 6291.55, 77573.16, 10706.33, 30739.95, -21169.76, -4043.27, 7578.47, -50886.52, -3987.53, 40439.76, 11760.01, -8917.59, 0.00, 0.00, 0.00, 0.00, 0.00, 0.00, 0.00
52, 6291.55, 77573.16, 10706.33, 30739.95, -21169.76, -4043.27, 7578.47, -50886.52, -3987.26, 40468.23, 11774.81, -8980.89, 0.00, 0.00, 0.00, 0.00, 0.00, 0.00, 0.00
53, 6307.82, 77592.71, 10724.25, 30762.19, -21152.53, -4024.36, 7598.21, -50870.73, -3987.26, 40468.23, 11774.81, -8980.89, 0.00, 0.00, 0.00, 0.00, 0.06, 0.42, 0.93
54, 6307.82, 77592.71, 10724.25, 30762.19, -21152.53, -4024.36, 7598.21, -50870.73, -3990.30, 40438.33, 11759.54, -8931.82, 0.00, 0.00, 0.00, 0.00, 0.00, 0.00, 0.00
55, 6289.89, 77565.34, 10700.12, 30736.15, -21174.14, -4047.25, 7573.22, -50893.76, -3990.30, 40438.33, 11759.54, -8931.82, 0.00, 0.00, 0.00, 0.00, 0.00, 0.00, 0.00
56, 6289.89, 77565.34, 10700.12, 30736.15, -21174.14, -4047.25, 7573.22, -50893.76, -3982.52, 40466.60, 11774.16, -8967.09, 0.00, 0.00, 0.00, 0.00, 0.00, 0.00, 0.00
57, 6312.40, 77596.34, 10728.14, 30768.27, -21146.67, -4022.31, 7605.94, -50865.80, -3982.52, 40466.60, 11774.16, -8967.09, 0.00, 0.00, 0.00, 0.00, 0.00, 0.00, 0.00
58, 6312.40, 77596.34, 10728.14, 30768.27, -21146.67, -4022.31, 7605.94, -50865.80, -3982.86, 40448.45, 11767.54, -8932.29, 0.00, 0.00, 0.00, 0.00, 0.00, 0.00, 0.00
59, 6295.32, 77573.23, 10705.86, 30739.57, -21168.22, -4041.89, 7579.86, -50891.48, -3982.86, 40448.45, 11767.54, -8932.29, 0.00, 0.00, 0.00, 0.00, 0.00, 0.00, 0.00
60, 6295.32, 77573.23, 10705.86, 30739.57, -21168.22, -4041.89, 7579.86, -50891.48, -3980.76, 40462.71, 11775.97, -8962.69, 0.00, 0.00, 0.00, 0.00, 0.00, 0.00, 0.00
61, 6312.71, 77598.98, 10729.35, 30769.70, -21146.69, -4019.58, 7610.72, -50862.76, -3980.76, 40462.71, 11775.97, -8962.69, 0.00, 0.00, 0.00, 0.00, 0.00, 0.00, 0.00
62, 6312.71, 77598.98, 10729.35, 30769.70, -21146.69, -4019.58, 7610.72, -50862.76, -3990.79, 40446.75, 11767.12, -8944.30, 0.00, 0.00, 0.00, 0.00, 0.00, 0.00, 0.00
63, 6291.93, 77572.80, 10702.95, 30738.63, -21169.78, -4047.68, 7581.04, -50895.14, -3990.79, 40446.75, 11767.12, -8944.30, 0.00, 0.00, 0.00, 0.00, 0.06, 0.42, 0.93
64, 6291.93, 77572.80, 10702.95, 30738.63, -21169.78, -4047.68, 7581.04, -50895.14, -3981.85, 40455.52, 11767.83, -8952.10, 0.00, 0.00, 0.00, 0.00, 0.00, 0.00, 0.00
65, 6314.88, 77599.15, 10732.01, 30771.73, -21142.11, -4020.70, 7617.07, -50860.03, -3981.85, 40455.52, 11767.83, -8952.10, 0.00, 0.00, 0.00, 0.00, 0.00, 0.00, 0.00
66, 6314.88, 77599.15, 10732.01, 30771.73, -21142.11, -4020.70, 7617.07, -50860.03, -3985.41, 40456.66, 11771.75, -8950.08, 0.00, 0.00, 0.00, 0.00, 0.00, 0.00, 0.00
67, 6292.08, 77564.80, 10700.99, 30738.86, -21171.06, -4045.84, 7581.15, -50896.75, -3985.41, 40456.66, 11771.75, -8950.08, 0.00, 0.00, 0.00, 0.00, 0.00, 0.00, 0.00
68, 6292.08, 77564.80, 10700.99, 30738.86, -21171.06, -4045.84, 7581.15, -50896.75, -3986.41, 40448.48, 11756.95, -8949.37, 0.00, 0.00, 0.00, 0.00, 0.00, 0.00, 0.00
69, 6308.67, 77594.80, 10724.99, 30768.36, -21146.25, -4022.53, 7613.03, -50867.09, -3986.41, 40448.48, 11756.95, -8949.37, 0.00, 0.00, 0.00, 0.00, 0.00, 0.00, 0.00
70, 6308.67, 77594.80, 10724.99, 30768.36, -21146.25, -4022.53, 7613.03, -50867.09, -3986.90, 40463.32, 11773.04, -8960.01, 0.00, 0.00, 0.00, 0.00, 0.00, 0.00, 0.00
71, 6290.45, 77566.32, 10701.01, 30741.09, -21166.27, -4040.79, 7587.99, -50890.88, -3986.90, 40463.32, 11773.04, -8960.01, 0.00, 0.00, 0.00, 0.00, 0.00, 0.00, 0.00
72, 6290.45, 77566.32, 10701.01, 30741.09, -21166.27, -4040.79, 7587.99, -50890.88, -3984.22, 40440.83, 11756.41, -8934.66, 0.00, 0.00, 0.00, 0.00, 0.05, 0.41, 0.93
73, 6306.81, 77596.56, 10725.91, 30765.32, -21143.56, -4026.26, 7620.09, -50865.73, -3984.22, 40440.83, 11756.41, -8934.66, 0.00, 0.00, 0.00, 0.00, 0.00, 0.00, 0.00
74, 6306.81, 77596.56, 10725.91, 30765.32, -21143.56, -4026.26, 7620.09, -50865.73, -3980.58, 40466.42, 11783.35, -8969.71, 0.00, 0.00, 0.00, 0.00, 0.00, 0.00, 0.00
75, 6286.27, 77567.93, 10704.27, 30742.79, -21159.10, -4043.79, 7595.61, -50887.34, -3980.58, 40466.42, 11783.35, -8969.71, 0.00, 0.00, 0.00, 0.00, 0.00, 0.00, 0.00
76, 6286.27, 77567.93, 10704.27, 30742.79, -21159.10, -4043.79, 7595.61, -50887.34, -3983.89, 40441.77, 11752.05, -8931.26, 0.00, 0.00, 0.00, 0.00, 0.00, 0.00, 0.00
77, 6295.19, 77582.43, 10717.21, 30758.50, -21147.77, -4033.31, 7615.22, -50869.30, -3983.89, 40441.77, 11752.05, -8931.26, 0.00, 0.00, 0.00, 0.00, 0.00, 0.00, 0.00
78, 6295.19, 77582.43, 10717.21, 30758.50, -21147.77, -4033.31, 7615.22, -50869.30, -3984.62, 40465.89, 11780.84, -8981.78, 0.00, 0.00, 0.00, 0.00, 0.00, 0.00, 0.00
79, 6281.89, 77565.05, 10700.90, 30741.63, -21162.85, -4046.09, 7595.08, -50891.95, -3984.62, 40465.89, 11780.84, -8981.78, 0.00, 0.00, 0.00, 0.00, 0.00, 0.00, 0.00
80, 6281.89, 77565.05, 10700.90, 30741.63, -21162.85, -4046.09, 7595.08, -50891.95, -3992.11, 40424.20, 11746.65, -8931.51, 0.00, 0.00, 0.00, 0.00, 0.00, 0.00, 0.00
81, 6288.48, 77577.13, 10711.85, 30756.29, -21154.81, -4031.85, 7611.37, -50878.69, -3992.11, 40424.20, 11746.65, -8931.51, 0.00, 0.00, 0.00, 0.00, 0.00, 0.00, 0.00
82, 6288.48, 77577.13, 10711.85, 30756.29, -21154.81, -4031.85, 7611.37, -50878.69, -3985.20, 40469.82, 11779.95, -8988.78, 0.00, 0.00, 0.00, 0.00, 0.06, 0.41, 0.92
83, 6283.39, 77568.17, 10701.97, 30745.74, -21156.86, -4045.22, 7602.68, -50884.30, -3985.20, 40469.82, 11779.95, -8988.78, 0.00, 0.00, 0.00, 0.00, 0.00, 0.00, 0.00
84, 6283.39, 77568.17, 10701.97, 30745.74, -21156.86, -4045.22, 7602.68, -50884.30, -3984.69, 40432.47, 11748.01, -8922.93, 0.00, 0.00, 0.00, 0.00, 0.00, 0.00, 0.00
85, 6291.79, 77580.31, 10713.35, 30750.68, -21151.39, -4039.25, 7612.33, -50878.11, -3984.69, 40432.47, 11748.01, -8922.93, 0.00, 0.00, 0.00, 0.00, 0.00, 0.00, 0.00
86, 6291.79, 77580.31, 10713.35, 30750.68, -21151.39, -4039.25, 7612.33, -50878.11, -3979.64, 40476.17, 11784.24, -8985.54, 0.00, 0.00, 0.00, 0.00, 0.00, 0.00, 0.00
87, 6295.91, 77583.13, 10712.99, 30751.66, -21153.76, -4040.28, 7610.30, -50881.33, -3979.64, 40476.17, 11784.24, -8985.54, 0.00, 0.00, 0.00, 0.00, 0.00, 0.00, 0.00
88, 6295.91, 77583.13, 10712.99, 30751.66, -21153.76, -4040.28, 7610.30, -50881.33, -3986.12, 40426.28, 11752.73, -8920.92, 0.00, 0.00, 0.00, 0.00, 0.00, 0.00, 0.00
89, 6297.65, 77582.43, 10716.72, 30754.84, -21151.52, -4037.98, 7614.01, -50880.32, -3986.12, 40426.28, 11752.73, -8920.92, 0.00, 0.00, 0.00, 0.00, 0.00, 0.00, 0.00
90, 6297.65, 77582.43, 10716.72, 30754.84, -21151.52, -4037.98, 7614.01, -50880.32, -3979.26, 40474.22, 11788.15, -8988.33, 0.00, 0.00, 0.00, 0.00, 0.00, 0.00, 0.00
91, 6298.63, 77580.55, 10716.30, 30756.49, -21146.52, -4034.53, 7617.99, -50878.07, -3979.26, 40474.22, 11788.15, -8988.33, 0.00, 0.00, 0.00, 0.00, 0.00, 0.00, 0.00
92, 6298.63, 77580.55, 10716.30, 30756.49, -21146.52, -4034.53, 7617.99, -50878.07, -3982.32, 40432.63, 11746.76, -8919.13, 0.00, 0.00, 0.00, 0.00, 0.06, 0.41, 0.92
93, 6287.28, 77568.69, 10703.89, 30744.55, -21155.12, -4045.87, 7607.62, -50885.02, -3982.32, 40432.63, 11746.76, -8919.13, 0.00, 0.00, 0.00, 0.00, 0.00, 0.00, 0.00
94, 6287.28, 77568.69, 10703.89, 30744.55, -21155.12, -4045.87, 7607.62, -50885.02, -3978.83, 40471.32, 11777.02, -8989.51, 0.00, 0.00, 0.00, 0.00, 0.00, 0.00, 0.00
95, 6293.85, 77577.47, 10710.35, 30755.11, -21146.00, -4033.55, 7620.76, -50875.86, -3978.83, 40471.32, 11777.02, -8989.51, 0.00, 0.00, 0.00, 0.00, 0.00, 0.00, 0.00
96, 6293.85, 77577.47, 10710.35, 30755.11, -21146.00, -4033.55, 7620.76, -50875.86, -3981.83, 40430.59, 11747.43, -8926.24, 0.00, 0.00, 0.00, 0.00, 0.00, 0.00, 0.00
97, 6271.41, 77559.57, 10695.80, 30742.14, -21157.27, -4050.02, 7610.30, -50887.61, -3981.83, 40430.59, 11747.43, -8926.24, 0.00, 0.00, 0.00, 0.00, 0.00, 0.00, 0.00
98, 6271.41, 77559.57, 10695.80, 30742.14, -21157.27, -4050.02, 7610.30, -50887.61, -3973.00, 40473.49, 11774.36, -8982.27, 0.00, 0.00, 0.00, 0.00, 0.00, 0.00, 0.00
99, 6287.37, 77575.39, 10711.38, 30756.58, -21139.36, -4035.32, 7630.64, -50868.05, -3973.00, 40473.49, 11774.36, -8982.27, 0.00, 0.00, 0.00, 0.00, 0.00, 0.00, 0.00
100, 6287.37, 77575.39, 10711.38, 30756.58, -21139.36, -4035.32, 7630.64, -50868.05, -3980.60, 40437.93, 11746.65, -8927.11, 0.00, 0.00, 0.00, 0.00, 0.00, 0.00, 0.00
101, 6269.06, 77555.88, 10691.89, 30739.24, -21160.51, -4050.72, 7608.20, -50890.50, -3980.60, 40437.93, 11746.65, -8927.11, 0.00, 0.00, 0.00, 0.00, 0.00, 0.00, 0.00
102, 6269.06, 77555.88, 10691.89, 30739.24, -21160.51, -4050.72, 7608.20, -50890.50, -3975.28, 40464.84, 11769.51, -8975.95, 0.00, 0.00, 0.00, 0.00, 0.06, 0.42, 0.93
103, 6293.89, 77584.80, 10718.00, 30763.06, -21133.15, -4031.16, 7638.75, -50864.25, -3975.28, 40464.84, 11769.51, -8975.95, 0.00, 0.00, 0.00, 0.00, 0.00, 0.00, 0.00
104, 6293.89, 77584.80, 10718.00, 30763.06, -21133.15, -4031.16, 7638.75, -50864.25, -3976.60, 40441.12, 11760.82, -8930.24, 0.00, 0.00, 0.00, 0.00, 0.00, 0.00, 0.00
105, 6277.22, 77563.91, 10697.28, 30742.46, -21155.32, -4050.83, 7612.80, -50889.45, -3976.60, 40441.12, 11760.82, -8930.24, 0.00, 0.00, 0.00, 0.00, 0.00, 0.00, 0.00
106, 6277.22, 77563.91, 10697.28, 30742.46, -21155.32, -4050.83, 7612.80, -50889.45, -3974.74, 40462.54, 11768.66, -8970.65, 0.00, 0.00, 0.00, 0.00, 0.00, 0.00, 0.00
107, 6300.96, 77591.64, 10723.54, 30768.11, -21130.96, -4028.97, 7642.35, -50862.93, -3974.74, 40462.54, 11768.66, -8970.65, 0.00, 0.00, 0.00, 0.00, 0.00, 0.00, 0.00
108, 6300.96, 77591.64, 10723.54, 30768.11, -21130.96, -4028.97, 7642.35, -50862.93, -3977.69, 40447.63, 11761.49, -8941.64, 0.00, 0.00, 0.00, 0.00, 0.00, 0.00, 0.00
109, 6280.33, 77561.63, 10696.83, 30740.17, -21156.73, -4049.58, 7608.91, -50896.30, -3977.69, 40447.63, 11761.49, -8941.64, 0.00, 0.00, 0.00, 0.00, 0.00, 0.00, 0.00
110, 6280.33, 77561.63, 10696.83, 30740.17, -21156.73, -4049.58, 7608.91, -50896.30, -3982.05, 40452.01, 11764.35, -8964.32, 0.00, 0.00, 0.00, 0.00, 0.00, 0.00, 0.00
111, 6302.05, 77589.16, 10721.26, 30766.95, -21132.19, -4031.20, 7645.26, -50865.08, -3982.05, 40452.01, 11764.35, -8964.32, 0.00, 0.00, 0.00, 0.00, 0.06, 0.42, 0.93
112, 6302.05, 77589.16, 10721.26, 30766.95, -21132.19, -4031.20, 7645.26, -50865.08, -3980.55, 40453.64, 11762.90, -8944.79, 0.00, 0.00, 0.00, 0.00, 0.00, 0.00, 0.00
113, 6279.59, 77562.41, 10697.39, 30742.46, -21153.80, -4051.72, 7616.33, -50893.82, -3980.55, 40453.64, 11762.90, -8944.79, 0.00, 0.00, 0.00, 0.00, 0.00, 0.00, 0.00
114, 6279.59, 77562.41, 10697.39, 30742.46, -21153.80, -4051.72, 7616.33, -50893.82, -3982.83, 40446.24, 11757.82, -8955.11, 0.00, 0.00, 0.00, 0.00, 0.00, 0.00, 0.00
115, 6299.37, 77587.04, 10720.99, 30766.84, -21131.43, -4031.16, 7645.97, -50867.61, -3982.83, 40446.24, 11757.82, -8955.11, 0.00, 0.00, 0.00, 0.00, 0.00, 0.00, 0.00
116, 6299.37, 77587.04, 10720.99, 30766.84, -21131.43, -4031.16, 7645.97, -50867.61, -3976.89, 40457.95, 11767.05, -8953.95, 0.00, 0.00, 0.00, 0.00, 0.00, 0.00, 0.00
117, 6281.85, 77560.15, 10697.19, 30740.17, -21148.66, -4053.09, 7620.92, -50891.14, -3976.89, 40457.95, 11767.05, -8953.95, 0.00, 0.00, 0.00, 0.00, 0.00, 0.00, 0.00
118, 6281.85, 77560.15, 10697.19, 30740.17, -21148.66, -4053.09, 7620.92, -50891.14, -3973.20, 40449.01, 11757.06, -8940.25, 0.00, 0.00, 0.00, 0.00, 0.00, 0.00, 0.00
119, 6298.05, 77589.90, 10721.66, 30770.10, -21126.42, -4030.11, 7652.72, -50861.23, -3973.20, 40449.01, 11757.06, -8940.25, 0.00, 0.00, 0.00, 0.00, 0.00, 0.00, 0.00
120, 6298.05, 77589.90, 10721.66, 30770.10, -21126.42, -4030.11, 7652.72, -50861.23, -3973.20, 40466.56, 11774.65, -8962.58, 0.00, 0.00, 0.00, 0.00, 0.00, 0.00, 0.00
121, 6284.68, 77569.73, 10701.99, 30743.10, -21145.87, -4049.49, 7629.01, -50886.45, -3973.20, 40466.56, 11774.65, -8962.58, 0.00, 0.00, 0.00, 0.00, 0.06, 0.42, 0.93
122, 6284.68, 77569.73, 10701.99, 30743.10, -21145.87, -4049.49, 7629.01, -50886.45, -3973.40, 40444.99, 11755.68, -8932.63, 0.00, 0.00, 0.00, 0.00, 0.00, 0.00, 0.00
123, 6297.16, 77589.30, 10723.14, 30768.65, -21123.52, -4026.42, 7655.05, -50863.27, -3973.40, 40444.99, 11755.68, -8932.63, 0.00, 0.00, 0.00, 0.00, 0.00, 0.00, 0.00
124, 6297.16, 77589.30, 10723.14, 30768.65, -21123.52, -4026.42, 7655.05, -50863.27, -3975.44, 40468.59, 11779.64, -8969.20, 0.00, 0.00, 0.00, 0.00, 0.00, 0.00, 0.00
125, 6277.51, 77555.43, 10696.74, 30747.33, -21144.62, -4046.27, 7629.52, -50889.78, -3975.44, 40468.59, 11779.64, -8969.20, 0.00, 0.00, 0.00, 0.00, 0.00, 0.00, 0.00
126, 6277.51, 77555.43, 10696.74, 30747.33, -21144.62, -4046.27, 7629.52, -50889.78, -3980.38, 40436.18, 11742.62, -8924.96, 0.00, 0.00, 0.00, 0.00, 0.00, 0.00, 0.00
127, 6287.17, 77569.13, 10709.19, 30759.75, -21131.92, -4041.35, 7650.42, -50871.41, -3980.38, 40436.18, 11742.62, -8924.96, 0.00, 0.00, 0.00, 0.00, 0.00, 0.00, 0.00
128, 6287.17, 77569.13, 10709.19, 30759.75, -21131.92, -4041.35, 7650.42, -50871.41, -3979.37, 40467.45, 11770.07, -8979.50, 0.00, 0.00, 0.00, 0.00, 0.00, 0.00, 0.00
129, 6274.20, 77559.84, 10697.03, 30747.30, -21143.07, -4047.07, 7634.35, -50888.62, -3979.37, 40467.45, 11770.07, -8979.50, 0.00, 0.00, 0.00, 0.00, 0.00, 0.00, 0.00
130, 6274.20, 77559.84, 10697.03, 30747.30, -21143.07, -4047.07, 7634.35, -50888.62, -3980.76, 40434.75, 11742.64, -8921.07, 0.00, 0.00, 0.00, 0.00, 0.00, 0.00, 0.00
131, 6286.47, 77574.14, 10709.37, 30758.75, -21131.47, -4038.98, 7650.89, -50873.71, -3980.76, 40434.75, 11742.64, -8921.07, 0.00, 0.00, 0.00, 0.00, 0.06, 0.42, 0.92
132, 6286.47, 77574.14, 10709.37, 30758.75, -21131.47, -4038.98, 7650.89, -50873.71, -3977.22, 40472.10, 11779.77, -8983.25, 0.00, 0.00, 0.00, 0.00, 0.00, 0.00, 0.00
133, 6281.78, 77567.39, 10703.92, 30752.00, -21134.94, -4043.41, 7643.22, -50883.70, -3977.22, 40472.10, 11779.77, -8983.25, 0.00, 0.00, 0.00, 0.00, 0.00, 0.00, 0.00
134, 6281.78, 77567.39, 10703.92, 30752.00, -21134.94, -4043.41, 7643.22, -50883.70, -3979.62, 40431.36, 11747.14, -8916.92, 0.00, 0.00, 0.00, 0.00, 0.00, 0.00, 0.00
135, 6290.74, 77578.55, 10712.79, 30760.76, -21128.68, -4036.14, 7650.89, -50875.41, -3979.62, 40431.36, 11747.14, -8916.92, 0.00, 0.00, 0.00, 0.00, 0.00, 0.00, 0.00
136, 6290.74, 77578.55, 10712.79, 30760.76, -21128.68, -4036.14, 7650.89, -50875.41, -3973.92, 40477.76, 11780.75, -8985.07, 0.00, 0.00, 0.00, 0.00, 0.00, 0.00, 0.00
137, 6292.62, 77583.17, 10716.68, 30761.16, -21125.66, -4039.25, 7653.48, -50874.09, -3973.92, 40477.76, 11780.75, -8985.07, 0.00, 0.00, 0.00, 0.00, 0.00, 0.00, 0.00
138, 6292.62, 77583.17, 10716.68, 30761.16, -21125.66, -4039.25, 7653.48, -50874.09, -3975.01, 40434.42, 11754.18, -8911.64, 0.00, 0.00, 0.00, 0.00, 0.00, 0.00, 0.00
139, 6291.99, 77580.76, 10715.87, 30758.32, -21127.03, -4043.41, 7653.91, -50875.79, -3975.01, 40434.42, 11754.18, -8911.64, 0.00, 0.00, 0.00, 0.00, 0.00, 0.00, 0.00
140, 6291.99, 77580.76, 10715.87, 30758.32, -21127.03, -4043.41, 7653.91, -50875.79, -3970.56, 40476.75, 11788.26, -8986.14, 0.00, 0.00, 0.00, 0.00, 0.00, 0.00, 0.00
141, 6292.24, 77578.66, 10716.83, 30763.62, -21126.31, -4036.17, 7658.06, -50875.07, -3970.56, 40476.75, 11788.26, -8986.14, 0.00, 0.00, 0.00, 0.00, 0.06, 0.41, 0.93
142, 6292.24, 77578.66, 10716.83, 30763.62, -21126.31, -4036.17, 7658.06, -50875.07, -3981.58, 40428.49, 11753.89, -8922.39, 0.00, 0.00, 0.00, 0.00, 0.00, 0.00, 0.00
143, 6287.12, 77575.55, 10709.66, 30752.98, -21135.07, -4048.21, 7648.95, -50885.46, -3981.58, 40428.49, 11753.89, -8922.39, 0.00, 0.00, 0.00, 0.00, 0.00, 0.00, 0.00
144, 6287.12, 77575.55, 10709.66, 30752.98, -21135.07, -4048.21, 7648.95, -50885.46, -3974.92, 40470.27, 11783.37, -8989.74, 0.00, 0.00, 0.00, 0.00, 0.00, 0.00, 0.00
145, 6298.65, 77587.84, 10720.72, 30762.41, -21121.28, -4038.38, 7664.21, -50870.56, -3974.92, 40470.27, 11783.37, -8989.74, 0.00, 0.00, 0.00, 0.00, 0.00, 0.00, 0.00
146, 6298.65, 77587.84, 10720.72, 30762.41, -21121.28, -4038.38, 7664.21, -50870.56, -3977.87, 40431.91, 11753.20, -8919.91, 0.00, 0.00, 0.00, 0.00, 0.00, 0.00, 0.00
147, 6281.56, 77570.70, 10704.43, 30747.35, -21134.29, -4051.07, 7649.15, -50884.86, -3977.87, 40431.91, 11753.20, -8919.91, 0.00, 0.00, 0.00, 0.00, 0.00, 0.00, 0.00
148, 6281.56, 77570.70, 10704.43, 30747.35, -21134.29, -4051.07, 7649.15, -50884.86, -3969.31, 40472.30, 11778.88, -8976.66, 0.00, 0.00, 0.00, 0.00, 0.00, 0.00, 0.00
149, 6294.41, 77587.71, 10720.10, 30765.48, -21115.02, -4034.00, 7671.97, -50864.30, -3969.31, 40472.30, 11778.88, -8976.66, 0.00, 0.00, 0.00, 0.00, 0.00, 0.00, 0.00
150, 6294.41, 77587.71, 10720.10, 30765.48, -21115.02, -4034.00, 7671.97, -50864.30, -3970.23, 40446.69, 11759.36, -8918.70, 0.00, 0.00, 0.00, 0.00, 0.06, 0.41, 0.93
151, 6274.00, 77562.85, 10699.15, 30745.79, -21132.43, -4048.71, 7652.68, -50881.26, -3970.23, 40446.69, 11759.36, -8918.70, 0.00, 0.00, 0.00, 0.00, 0.00, 0.00, 0.00
152, 6274.00, 77562.85, 10699.15, 30745.79, -21132.43, -4048.71, 7652.68, -50881.26, -3969.49, 40472.84, 11770.99, -8960.46, 0.00, 0.00, 0.00, 0.00, 0.00, 0.00, 0.00
153, 6293.96, 77587.69, 10718.06, 30767.96, -21116.14, -4030.06, 7677.80, -50862.00, -3969.49, 40472.84, 11770.99, -8960.46, 0.00, 0.00, 0.00, 0.00, 0.00, 0.00, 0.00
154, 6293.96, 77587.69, 10718.06, 30767.96, -21116.14, -4030.06, 7677.80, -50862.00, -3977.02, 40447.96, 11755.01, -8924.87, 0.00, 0.00, 0.00, 0.00, 0.00, 0.00, 0.00
155, 6273.15, 77554.34, 10693.19, 30742.21, -21139.32, -4054.05, 7646.38, -50892.68, -3977.02, 40447.96, 11755.01, -8924.87, 0.00, 0.00, 0.00, 0.00, 0.00, 0.00, 0.00
156, 6273.15, 77554.34, 10693.19, 30742.21, -21139.32, -4054.05, 7646.38, -50892.68, -3977.22, 40457.55, 11759.12, -8967.30, 0.00, 0.00, 0.00, 0.00, 0.00, 0.00, 0.00
157, 6290.65, 77582.01, 10716.86, 30766.95, -21116.50, -4032.88, 7676.26, -50868.77, -3977.22, 40457.55, 11759.12, -8967.30, 0.00, 0.00, 0.00, 0.00, 0.00, 0.00, 0.00
158, 6290.65, 77582.01, 10716.86, 30766.95, -21116.50, -4032.88, 7676.26, -50868.77, -3977.38, 40447.07, 11761.38, -8944.81, 0.00, 0.00, 0.00, 0.00, 0.00, 0.00, 0.00
159, 6271.25, 77555.74, 10693.28, 30737.40, -21136.50, -4057.74, 7651.09, -50890.43, -3977.38, 40447.07, 11761.38, -8944.81, 0.00, 0.00, 0.00, 0.00, 0.00, 0.00, 0.00
160, 6271.25, 77555.74, 10693.28, 30737.40, -21136.50, -4057.74, 7651.09, -50890.43, -3973.29, 40456.90, 11761.11, -8948.97, 0.00, 0.00, 0.00, 0.00, 0.06, 0.41, 0.92
161, 6290.72, 77584.22, 10719.16, 30771.18, -21112.21, -4029.84, 7683.01, -50862.98, -3973.29, 40456.90, 11761.11, -8948.97, 0.00, 0.00, 0.00, 0.00, 0.00, 0.00, 0.00
162, 6290.72, 77584.22, 10719.16, 30771.18, -21112.21, -4029.84, 7683.01, -50862.98, -3974.54, 40455.61, 11767.61, -8944.41, 0.00, 0.00, 0.00, 0.00, 0.00, 0.00, 0.00
163, 6273.51, 77558.65, 10696.07, 30739.46, -21133.44, -4055.68, 7655.25, -50891.46, -3974.54, 40455.61, 11767.61, -8944.41, 0.00, 0.00, 0.00, 0.00, 0.00, 0.00, 0.00
164, 6273.51, 77558.65, 10696.07, 30739.46, -21133.44, -4055.68, 7655.25, -50891.46, -3970.00, 40451.74, 11758.72, -8946.20, 0.00, 0.00, 0.00, 0.00, 0.00, 0.00, 0.00
165, 6291.73, 77587.80, 10719.83, 30766.82, -21110.42, -4034.29, 7685.47, -50861.95, -3970.00, 40451.74, 11758.72, -8946.20, 0.00, 0.00, 0.00, 0.00, 0.00, 0.00, 0.00
166, 6291.73, 77587.80, 10719.83, 30766.82, -21110.42, -4034.29, 7685.47, -50861.95, -3970.70, 40461.62, 11773.58, -8956.72, 0.00, 0.00, 0.00, 0.00, 0.00, 0.00, 0.00
167, 6278.38, 77564.51, 10700.07, 30743.79, -21130.31, -4052.46, 7656.93, -50892.30, -3970.70, 40461.62, 11773.58, -8956.72, 0.00, 0.00, 0.00, 0.00, 0.00, 0.00, 0.00
168, 6278.38, 77564.51, 10700.07, 30743.79, -21130.31, -4052.46, 7656.93, -50892.30, -3978.19, 40438.57, 11751.47, -8940.03, 0.00, 0.00, 0.00, 0.00, 0.00, 0.00, 0.00
169, 6295.97, 77587.66, 10719.43, 30767.82, -21114.71, -4032.50, 7682.72, -50869.21, -3978.19, 40438.57, 11751.47, -8940.03, 0.00, 0.00, 0.00, 0.00, 0.00, 0.00, 0.00
170, 6295.97, 77587.66, 10719.43, 30767.82, -21114.71, -4032.50, 7682.72, -50869.21, -3979.68, 40459.90, 11773.04, -8973.42, 0.00, 0.00, 0.00, 0.00, 0.06, 0.41, 0.92
171, 6278.74, 77564.55, 10696.83, 30738.70, -21133.66, -4060.60, 7658.58, -50893.02, -3979.68, 40459.90, 11773.04, -8973.42, 0.00, 0.00, 0.00, 0.00, 0.00, 0.00, 0.00
172, 6278.74, 77564.55, 10696.83, 30738.70, -21133.66, -4060.60, 7658.58, -50893.02, -3981.18, 40430.39, 11748.17, -8931.38, 0.00, 0.00, 0.00, 0.00, 0.00, 0.00, 0.00
173, 6289.18, 77586.44, 10716.45, 30765.19, -21116.41, -4038.67, 7682.92, -50872.19, -3981.18, 40430.39, 11748.17, -8931.38, 0.00, 0.00, 0.00, 0.00, 0.00, 0.00, 0.00
174, 6289.18, 77586.44, 10716.45, 30765.19, -21116.41, -4038.67, 7682.92, -50872.19, -3975.19, 40463.63, 11778.70, -8975.97, 0.00, 0.00, 0.00, 0.00, 0.00, 0.00, 0.00
175, 6281.00, 77569.36, 10700.65, 30744.80, -21127.25, -4052.77, 7663.09, -50890.83, -3975.19, 40463.63, 11778.70, -8975.97, 0.00, 0.00, 0.00, 0.00, 0.00, 0.00, 0.00
176, 6281.00, 77569.36, 10700.65, 30744.80, -21127.25, -4052.77, 7663.09, -50890.83, -3973.22, 40433.52, 11747.88, -8924.29, 0.00, 0.00, 0.00, 0.00, 0.00, 0.00, 0.00
177, 6288.42, 77579.41, 10712.34, 30761.43, -21111.63, -4039.12, 7686.25, -50868.68, -3973.22, 40433.52, 11747.88, -8924.29, 0.00, 0.00, 0.00, 0.00, 0.00, 0.00, 0.00
178, 6288.42, 77579.41, 10712.34, 30761.43, -21111.63, -4039.12, 7686.25, -50868.68, -3968.55, 40475.10, 11780.08, -8978.02, 0.00, 0.00, 0.00, 0.00, 0.00, 0.00, 0.00
179, 6277.38, 77565.22, 10700.56, 30748.24, -21118.93, -4048.33, 7671.36, -50882.45, -3968.55, 40475.10, 11780.08, -8978.02, 0.00, 0.00, 0.00, 0.00, 0.00, 0.00, 0.00
180, 6277.38, 77565.22, 10700.56, 30748.24, -21118.93, -4048.33, 7671.36, -50882.45, -3971.06, 40434.98, 11747.27, -8911.48, 0.00, 0.00, 0.00, 0.00, 0.06, 0.41, 0.93
181, 6290.76, 77583.35, 10715.83, 30766.26, -21108.00, -4038.76, 7691.82, -50864.52, -3971.06, 40434.98, 11747.27, -8911.48, 0.00, 0.00, 0.00, 0.00, 0.00, 0.00, 0.00
182, 6290.76, 77583.35, 10715.83, 30766.26, -21108.00, -4038.76, 7691.82, -50864.52, -3967.37, 40478.09, 11781.67, -8977.11, 0.00, 0.00, 0.00, 0.00, 0.00, 0.00, 0.00
183, 6284.21, 77581.13, 10710.82, 30757.45, -21112.09, -4047.07, 7683.14, -50876.50, -3967.37, 40478.09, 11781.67, -8977.11, 0.00, 0.00, 0.00, 0.00, 0.00, 0.00, 0.00
184, 6284.21, 77581.13, 10710.82, 30757.45, -21112.09, -4047.07, 7683.14, -50876.50, -3975.12, 40428.11, 11747.52, -8917.90, 0.00, 0.00, 0.00, 0.00, 0.00, 0.00, 0.00
185, 6292.13, 77582.55, 10717.06, 30766.17, -21105.66, -4035.61, 7689.22, -50869.73, -3975.12, 40428.11, 11747.52, -8917.90, 0.00, 0.00, 0.00, 0.00, 0.00, 0.00, 0.00
186, 6292.13, 77582.55, 10717.06, 30766.17, -21105.66, -4035.61, 7689.22, -50869.73, -3960.77, 40483.23, 11792.67, -8976.73, 0.00, 0.00, 0.00, 0.00, 0.00, 0.00, 0.00
187, 6294.07, 77581.88, 10717.77, 30760.65, -21101.92, -4042.49, 7692.00, -50866.76, -3960.77, 40483.23, 11792.67, -8976.73, 0.00, 0.00, 0.00, 0.00, 0.00, 0.00, 0.00
188, 6294.07, 77581.88, 10717.77, 30760.65, -21101.92, -4042.49, 7692.00, -50866.76, -3967.26, 40438.89, 11753.71, -8905.18, 0.00, 0.00, 0.00, 0.00, 0.00, 0.00, 0.00
189, 6284.60, 77577.91, 10711.92, 30756.76, -21107.94, -4045.40, 7687.66, -50871.99, -3967.26, 40438.89, 11753.71, -8905.18, 0.00, 0.00, 0.00, 0.00, 0.06, 0.41, 0.93
190, 6284.60, 77577.91, 10711.92, 30756.76, -21107.94, -4045.40, 7687.66, -50871.99, -3969.09, 40474.34, 11781.74, -8980.57, 0.00, 0.00, 0.00, 0.00, 0.00, 0.00, 0.00
191, 6288.69, 77582.66, 10716.97, 30764.98, -21104.16, -4040.03, 7692.58, -50870.36, -3969.09, 40474.34, 11781.74, -8980.57, 0.00, 0.00, 0.00, 0.00, 0.00, 0.00, 0.00
192, 6288.69, 77582.66, 10716.97, 30764.98, -21104.16, -4040.03, 7692.58, -50870.36, -3977.78, 40427.78, 11744.59, -8917.09, 0.00, 0.00, 0.00, 0.00, 0.00, 0.00, 0.00
193, 6283.05, 77570.77, 10702.93, 30750.72, -21115.87, -4050.87, 7681.11, -50880.10, -3977.78, 40427.78, 11744.59, -8917.09, 0.00, 0.00, 0.00, 0.00, 0.00, 0.00, 0.00
194, 6283.05, 77570.77, 10702.93, 30750.72, -21115.87, -4050.87, 7681.11, -50880.10, -3969.58, 40468.30, 11774.67, -8977.15, 0.00, 0.00, 0.00, 0.00, 0.00, 0.00, 0.00
195, 6290.50, 77584.24, 10717.86, 30766.68, -21101.32, -4034.49, 7695.53, -50866.51, -3969.58, 40468.30, 11774.67, -8977.15, 0.00, 0.00, 0.00, 0.00, 0.00, 0.00, 0.00
196, 6290.50, 77584.24, 10717.86, 30766.68, -21101.32, -4034.49, 7695.53, -50866.51, -3970.99, 40435.64, 11754.78, -8916.42, 0.00, 0.00, 0.00, 0.00, 0.00, 0.00, 0.00
197, 6277.87, 77570.12, 10703.13, 30747.77, -21113.10, -4050.58, 7682.32, -50879.48, -3970.99, 40435.64, 11754.78, -8916.42, 0.00, 0.00, 0.00, 0.00, 0.00, 0.00, 0.00
198, 6277.87, 77570.12, 10703.13, 30747.77, -21113.10, -4050.58, 7682.32, -50879.48, -3966.52, 40472.19, 11778.09, -8970.49, 0.00, 0.00, 0.00, 0.00, 0.00, 0.00, 0.00
199, 6291.52, 77588.83, 10721.06, 30766.82, -21094.66, -4037.62, 7702.19, -50862.84, -3966.52, 40472.19, 11778.09, -8970.49, 0.00, 0.00, 0.00, 0.00, 0.06, 0.41, 0.93
200, 6291.52, 77588.83, 10721.06, 30766.82, -21094.66, -4037.62, 7702.19, -50862.84, -3973.36, 40440.12, 11760.84, -8917.92, 0.00, 0.00, 0.00, 0.00, 0.00, 0.00, 0.00
201, 6272.30, 77568.66, 10700.92, 30745.34, -21115.04, -4052.80, 7679.28, -50881.75, -3973.36, 40440.12, 11760.84, -8917.92, 0.00, 0.00, 0.00, 0.00, 0.00, 0.00, 0.00
202, 6272.30, 77568.66, 10700.92, 30745.34, -21115.04, -4052.80, 7679.28, -50881.75, -3967.88, 40465.21, 11771.28, -8958.11, 0.00, 0.00, 0.00, 0.00, 0.00, 0.00, 0.00
203, 6296.67, 77591.33, 10725.55, 30771.51, -21087.64, -4032.34, 7711.89, -50851.94, -3967.88, 40465.21, 11771.28, -8958.11, 0.00, 0.00, 0.00, 0.00, 0.00, 0.00, 0.00
204, 6296.67, 77591.33, 10725.55, 30771.51, -21087.64, -4032.34, 7711.89, -50851.94, -3965.67, 40450.91, 11767.01, -8924.98, 0.00, 0.00, 0.00, 0.00, 0.00, 0.00, 0.00
205, 6272.64, 77564.91, 10701.17, 30742.50, -21111.02, -4055.43, 7681.49, -50882.43, -3965.67, 40450.91, 11767.01, -8924.98, 0.00, 0.00, 0.00, 0.00, 0.00, 0.00, 0.00
206, 6272.64, 77564.91, 10701.17, 30742.50, -21111.02, -4055.43, 7681.49, -50882.43, -3965.45, 40460.03, 11773.07, -8948.32, 0.00, 0.00, 0.00, 0.00, 0.00, 0.00, 0.00
207, 6292.37, 77592.85, 10727.03, 30775.63, -21086.70, -4028.50, 7711.51, -50854.00, -3965.45, 40460.03, 11773.07, -8948.32, 0.00, 0.00, 0.00, 0.00, 0.00, 0.00, 0.00
208, 6292.37, 77592.85, 10727.03, 30775.63, -21086.70, -4028.50, 7711.51, -50854.00, -3965.24, 40454.51, 11771.28, -8935.04, 0.00, 0.00, 0.00, 0.00, 0.00, 0.00, 0.00
209, 6275.83, 77571.52, 10704.56, 30744.18, -21107.24, -4056.01, 7683.26, -50880.75, -3965.24, 40454.51, 11771.28, -8935.04, 0.00, 0.00, 0.00, 0.00, 0.06, 0.41, 0.92
210, 6275.83, 77571.52, 10704.56, 30744.18, -21107.24, -4056.01, 7683.26, -50880.75, -3965.69, 40457.21, 11767.63, -8942.08, 0.00, 0.00, 0.00, 0.00, 0.00, 0.00, 0.00
211, 6300.11, 77593.12, 10724.46, 30772.27, -21086.01, -4033.57, 7714.46, -50853.77, -3965.69, 40457.21, 11767.63, -8942.08, 0.00, 0.00, 0.00, 0.00, 0.00, 0.00, 0.00
212, 6300.11, 77593.12, 10724.46, 30772.27, -21086.01, -4033.57, 7714.46, -50853.77, -3969.16, 40458.89, 11771.95, -8943.54, 0.00, 0.00, 0.00, 0.00, 0.00, 0.00, 0.00
213, 6275.10, 77563.52, 10701.10, 30744.96, -21108.27, -4054.47, 7681.56, -50884.59, -3969.16, 40458.89, 11771.95, -8943.54, 0.00, 0.00, 0.00, 0.00, 0.00, 0.00, 0.00
214, 6275.10, 77563.52, 10701.10, 30744.96, -21108.27, -4054.47, 7681.56, -50884.59, -3969.94, 40444.63, 11762.52, -8936.99, 0.00, 0.00, 0.00, 0.00, 0.00, 0.00, 0.00
215, 6297.45, 77590.16, 10725.86, 30775.13, -21083.77, -4033.37, 7716.29, -50852.96, -3969.94, 40444.63, 11762.52, -8936.99, 0.00, 0.00, 0.00, 0.00, 0.00, 0.00, 0.00
216, 6297.45, 77590.16, 10725.86, 30775.13, -21083.77, -4033.37, 7716.29, -50852.96, -3971.75, 40461.11, 11774.63, -8954.80, 0.00, 0.00, 0.00, 0.00, 0.00, 0.00, 0.00
217, 6268.41, 77561.89, 10699.04, 30746.52, -21106.44, -4053.58, 7684.02, -50883.92, -3971.75, 40461.11, 11774.63, -8954.80, 0.00, 0.00, 0.00, 0.00, 0.00, 0.00, 0.00
218, 6268.41, 77561.89, 10699.04, 30746.52, -21106.44, -4053.58, 7684.02, -50883.92, -3973.96, 40437.01, 11753.62, -8929.23, 0.00, 0.00, 0.00, 0.00, 0.00, 0.00, 0.00
219, 6287.75, 77590.52, 10720.32, 30769.63, -21088.36, -4037.13, 7709.81, -50861.82, -3973.96, 40437.01, 11753.62, -8929.23, 0.00, 0.00, 0.00, 0.00, 0.06, 0.41, 0.92
220, 6287.75, 77590.52, 10720.32, 30769.63, -21088.36, -4037.13, 7709.81, -50861.82, -3968.44, 40465.66, 11778.88, -8964.03, 0.00, 0.00, 0.00, 0.00, 0.00, 0.00, 0.00
221, 6270.45, 77562.41, 10698.21, 30747.91, -21105.07, -4057.24, 7688.31, -50881.71, -3968.44, 40465.66, 11778.88, -8964.03, 0.00, 0.00, 0.00, 0.00, 0.00, 0.00, 0.00
222, 6270.45, 77562.41, 10698.21, 30747.91, -21105.07, -4057.24, 7688.31, -50881.71, -3969.27, 40435.49, 11752.97, -8919.75, 0.00, 0.00, 0.00, 0.00, 0.00, 0.00, 0.00
223, 6284.28, 77585.05, 10719.70, 30771.13, -21085.09, -4036.70, 7712.80, -50859.45, -3969.27, 40435.49, 11752.97, -8919.75, 0.00, 0.00, 0.00, 0.00, 0.00, 0.00, 0.00
224, 6284.28, 77585.05, 10719.70, 30771.13, -21085.09, -4036.70, 7712.80, -50859.45, -3962.81, 40472.28, 11787.55, -8966.31, 0.00, 0.00, 0.00, 0.00, 0.00, 0.00, 0.00
225, 6276.17, 77568.48, 10705.05, 30753.07, -21097.14, -4050.05, 7694.03, -50876.41, -3962.81, 40472.28, 11787.55, -8966.31, 0.00, 0.00, 0.00, 0.00, 0.00, 0.00, 0.00
226, 6276.17, 77568.48, 10705.05, 30753.07, -21097.14, -4050.05, 7694.03, -50876.41, -3969.33, 40430.93, 11751.97, -8915.93, 0.00, 0.00, 0.00, 0.00, 0.00, 0.00, 0.00
227, 6279.39, 77580.82, 10716.07, 30770.48, -21085.27, -4041.55, 7713.72, -50859.80, -3969.33, 40430.93, 11751.97, -8915.93, 0.00, 0.00, 0.00, 0.00, 0.00, 0.00, 0.00
228, 6279.39, 77580.82, 10716.07, 30770.48, -21085.27, -4041.55, 7713.72, -50859.80, -3959.59, 40477.84, 11788.20, -8969.35, 0.00, 0.00, 0.00, 0.00, 0.06, 0.41, 0.92
229, 6280.53, 77573.16, 10710.35, 30759.82, -21090.93, -4047.99, 7702.43, -50870.76, -3959.59, 40477.84, 11788.20, -8969.35, 0.00, 0.00, 0.00, 0.00, 0.00, 0.00, 0.00
230, 6280.53, 77573.16, 10710.35, 30759.82, -21090.93, -4047.99, 7702.43, -50870.76, -3970.41, 40431.09, 11748.75, -8905.00, 0.00, 0.00, 0.00, 0.00, 0.00, 0.00, 0.00
231, 6278.31, 77575.70, 10711.83, 30766.91, -21089.81, -4042.51, 7707.75, -50866.55, -3970.41, 40431.09, 11748.75, -8905.00, 0.00, 0.00, 0.00, 0.00, 0.00, 0.00, 0.00
232, 6278.31, 77575.70, 10711.83, 30766.91, -21089.81, -4042.51, 7707.75, -50866.55, -3963.01, 40476.30, 11781.89, -8976.55, 0.00, 0.00, 0.00, 0.00, 0.00, 0.00, 0.00
233, 6275.43, 77568.87, 10710.78, 30764.04, -21087.95, -4045.76, 7702.59, -50871.09, -3963.01, 40476.30, 11781.89, -8976.55, 0.00, 0.00, 0.00, 0.00, 0.00, 0.00, 0.00
234, 6275.43, 77568.87, 10710.78, 30764.04, -21087.95, -4045.76, 7702.59, -50871.09, -3972.37, 40426.37, 11743.72, -8914.05, 0.00, 0.00, 0.00, 0.00, 0.00, 0.00, 0.00
235, 6272.35, 77565.00, 10705.37, 30762.15, -21094.23, -4047.10, 7701.45, -50872.70, -3972.37, 40426.37, 11743.72, -8914.05, 0.00, 0.00, 0.00, 0.00, 0.00, 0.00, 0.00
236, 6272.35, 77565.00, 10705.37, 30762.15, -21094.23, -4047.10, 7701.45, -50872.70, -3964.15, 40471.45, 11774.23, -8976.28, 0.00, 0.00, 0.00, 0.00, 0.00, 0.00, 0.00
237, 6284.46, 77576.47, 10713.39, 30766.48, -21083.10, -4046.87, 7710.46, -50864.16, -3964.15, 40471.45, 11774.23, -8976.28, 0.00, 0.00, 0.00, 0.00, 0.00, 0.00, 0.00
238, 6284.46, 77576.47, 10713.39, 30766.48, -21083.10, -4046.87, 7710.46, -50864.16, -3964.42, 40431.93, 11749.78, -8904.71, 0.00, 0.00, 0.00, 0.00, 0.07, 0.41, 0.92
239, 6273.64, 77567.73, 10705.08, 30758.59, -21089.67, -4050.34, 7704.31, -50870.49, -3964.42, 40431.93, 11749.78, -8904.71, 0.00, 0.00, 0.00, 0.00, 0.00, 0.00, 0.00
240, 6273.64, 77567.73, 10705.08, 30758.59, -21089.67, -4050.34, 7704.31, -50870.49, -3958.70, 40475.01, 11779.23, -8973.84, 0.00, 0.00, 0.00, 0.00, 0.00, 0.00, 0.00
241, 6276.66, 77576.04, 10714.55, 30768.83, -21079.26, -4039.81, 7715.49, -50860.48, -3958.70, 40475.01, 11779.23, -8973.84, 0.00, 0.00, 0.00, 0.00, 0.00, 0.00, 0.00
242, 6276.66, 77576.04, 10714.55, 30768.83, -21079.26, -4039.81, 7715.49, -50860.48, -3968.93, 40432.27, 11745.06, -8914.30, 0.00, 0.00, 0.00, 0.00, 0.00, 0.00, 0.00
243, 6263.09, 77553.98, 10696.09, 30754.95, -21095.02, -4052.13, 7697.83, -50877.91, -3968.93, 40432.27, 11745.06, -8914.30, 0.00, 0.00, 0.00, 0.00, 0.00, 0.00, 0.00
244, 6263.09, 77553.98, 10696.09, 30754.95, -21095.02, -4052.13, 7697.83, -50877.91, -3962.85, 40469.78, 11769.15, -8972.84, 0.00, 0.00, 0.00, 0.00, 0.00, 0.00, 0.00
245, 6278.05, 77571.19, 10712.36, 30772.52, -21078.16, -4038.87, 7717.63, -50856.81, -3962.85, 40469.78, 11769.15, -8972.84, 0.00, 0.00, 0.00, 0.00, 0.00, 0.00, 0.00
246, 6278.05, 77571.19, 10712.36, 30772.52, -21078.16, -4038.87, 7717.63, -50856.81, -3965.00, 40441.50, 11749.13, -8912.36, 0.00, 0.00, 0.00, 0.00, 0.00, 0.00, 0.00
247, 6264.81, 77555.39, 10693.41, 30748.76, -21095.13, -4058.34, 7698.39, -50876.19, -3965.00, 40441.50, 11749.13, -8912.36, 0.00, 0.00, 0.00, 0.00, 0.00, 0.00, 0.00
248, 6264.81, 77555.39, 10693.41, 30748.76, -21095.13, -4058.34, 7698.39, -50876.19, -3955.81, 40469.89, 11771.90, -8963.74, 0.00, 0.00, 0.00, 0.00, 0.07, 0.41, 0.93
249, 6280.10, 77574.43, 10715.00, 30777.10, -21071.48, -4035.90, 7725.99, -50851.65, -3955.81, 40469.89, 11771.90, -8963.74, 0.00, 0.00, 0.00, 0.00, 0.00, 0.00, 0.00
250, 6280.10, 77574.43, 10715.00, 30777.10, -21071.48, -4035.90, 7725.99, -50851.65, -3963.75, 40443.29, 11748.32, -8921.72, 0.00, 0.00, 0.00, 0.00, 0.00, 0.00, 0.00
251, 6255.14, 77543.72, 10689.43, 30750.14, -21093.94, -4056.15, 7699.01, -50877.69, -3963.75, 40443.29, 11748.32, -8921.72, 0.00, 0.00, 0.00, 0.00, 0.00, 0.00, 0.00
252, 6255.14, 77543.72, 10689.43, 30750.14, -21093.94, -4056.15, 7699.01, -50877.69, -3959.59, 40465.82, 11756.08, -8953.50, 0.00, 0.00, 0.00, 0.00, 0.00, 0.00, 0.00
253, 6272.50, 77561.09, 10705.95, 30775.38, -21078.66, -4036.08, 7721.57, -50857.14, -3959.59, 40465.82, 11756.08, -8953.50, 0.00, 0.00, 0.00, 0.00, 0.00, 0.00, 0.00
254, 6272.50, 77561.09, 10705.95, 30775.38, -21078.66, -4036.08, 7721.57, -50857.14, -3971.57, 40442.82, 11738.87, -8934.60, 0.00, 0.00, 0.00, 0.00, 0.00, 0.00, 0.00
255, 6255.72, 77538.42, 10683.15, 30744.96, -21099.91, -4060.04, 7691.23, -50885.91, -3971.57, 40442.82, 11738.87, -8934.60, 0.00, 0.00, 0.00, 0.00, 0.00, 0.00, 0.00
0, 6255.72, 77538.42, 10683.15, 30744.96, -21099.91, -4060.04, 7691.23, -50885.91, -3963.77, 40452.34, 11744.43, -8952.16, 0.00, 0.00, 0.00, 0.00, 0.00, 0.00, 0.00
1, 6283.57, 77573.16, 10713.26, 30781.62, -21071.88, -4035.79, 7728.65, -50849.43, -3963.77, 40452.34, 11744.43, -8952.16, 0.00, 0.00, 0.00, 0.00, 0.00, 0.00, 0.00
2, 6283.57, 77573.16, 10713.26, 30781.62, -21071.88, -4035.79, 7728.65, -50849.43, -3961.65, 40456.28, 11752.08, -8936.99, 0.00, 0.00, 0.00, 0.00, 0.06, 0.41, 0.92
3, 6259.54, 77543.05, 10685.74, 30748.31, -21097.65, -4060.82, 7696.15, -50882.29, -3961.65, 40456.28, 11752.08, -8936.99, 0.00, 0.00, 0.00, 0.00, 0.00, 0.00, 0.00
4, 6259.54, 77543.05, 10685.74, 30748.31, -21097.65, -4060.82, 7696.15, -50882.29, -3963.63, 40448.18, 11741.97, -8938.13, 0.00, 0.00, 0.00, 0.00, 0.00, 0.00, 0.00
5, 6285.29, 77573.56, 10714.17, 30779.60, -21072.08, -4036.03, 7728.05, -50852.41, -3963.63, 40448.18, 11741.97, -8938.13, 0.00, 0.00, 0.00, 0.00, 0.00, 0.00, 0.00
6, 6285.29, 77573.56, 10714.17, 30779.60, -21072.08, -4036.03, 7728.05, -50852.41, -3962.41, 40457.37, 11754.20, -8948.01, 0.00, 0.00, 0.00, 0.00, 0.00, 0.00, 0.00
7, 6261.06, 77546.73, 10688.83, 30754.77, -21094.70, -4055.05, 7695.77, -50881.38, -3962.41, 40457.37, 11754.20, -8948.01, 0.00, 0.00, 0.00, 0.00, 0.00, 0.00, 0.00
8, 6261.06, 77546.73, 10688.83, 30754.77, -21094.70, -4055.05, 7695.77, -50881.38, -3968.53, 40436.54, 11731.78, -8935.94, 0.00, 0.00, 0.00, 0.00, 0.00, 0.00, 0.00
9, 6284.66, 77573.88, 10712.56, 30778.78, -21071.70, -4036.30, 7727.44, -50854.31, -3968.53, 40436.54, 11731.78, -8935.94, 0.00, 0.00, 0.00, 0.00, 0.00, 0.00, 0.00
10, 6284.66, 77573.88, 10712.56, 30778.78, -21071.70, -4036.30, 7727.44, -50854.31, -3966.45, 40458.96, 11759.61, -8956.21, 0.00, 0.00, 0.00, 0.00, 0.00, 0.00, 0.00
11, 6265.24, 77547.38, 10690.97, 30753.32, -21092.56, -4059.46, 7700.24, -50881.24, -3966.45, 40458.96, 11759.61, -8956.21, 0.00, 0.00, 0.00, 0.00, 0.06, 0.41, 0.92
12, 6265.24, 77547.38, 10690.97, 30753.32, -21092.56, -4059.46, 7700.24, -50881.24, -3968.24, 40435.46, 11735.04, -8920.87, 0.00, 0.00, 0.00, 0.00, 0.00, 0.00, 0.00
13, 6284.48, 77576.84, 10715.31, 30780.81, -21069.22, -4034.24, 7726.73, -50855.09, -3968.24, 40435.46, 11735.04, -8920.87, 0.00, 0.00, 0.00, 0.00, 0.00, 0.00, 0.00
14, 6284.48, 77576.84, 10715.31, 30780.81, -21069.22, -4034.24, 7726.73, -50855.09, -3963.01, 40467.74, 11764.08, -8960.79, 0.00, 0.00, 0.00, 0.00, 0.00, 0.00, 0.00
15, 6275.97, 77566.48, 10701.25, 30763.44, -21084.27, -4049.96, 7705.52, -50875.09, -3963.01, 40467.74, 11764.08, -8960.79, 0.00, 0.00, 0.00, 0.00, 0.00, 0.00, 0.00
16, 6275.97, 77566.48, 10701.25, 30763.44, -21084.27, -4049.96, 7705.52, -50875.09, -3964.31, 40432.05, 11739.92, -8916.63, 0.00, 0.00, 0.00, 0.00, 0.00, 0.00, 0.00
17, 6290.88, 77580.89, 10719.14, 30780.70, -21067.28, -4037.71, 7730.15, -50851.94, -3964.31, 40432.05, 11739.92, -8916.63, 0.00, 0.00, 0.00, 0.00, 0.00, 0.00, 0.00
18, 6290.88, 77580.89, 10719.14, 30780.70, -21067.28, -4037.71, 7730.15, -50851.94, -3962.56, 40468.48, 11769.76, -8970.22, 0.00, 0.00, 0.00, 0.00, 0.00, 0.00, 0.00
19, 6278.52, 77558.43, 10702.06, 30766.39, -21081.58, -4048.12, 7708.29, -50873.48, -3962.56, 40468.48, 11769.76, -8970.22, 0.00, 0.00, 0.00, 0.00, 0.00, 0.00, 0.00
20, 6278.52, 77558.43, 10702.06, 30766.39, -21081.58, -4048.12, 7708.29, -50873.48, -3968.89, 40428.40, 11735.78, -8907.01, 0.00, 0.00, 0.00, 0.00, 0.00, 0.00, 0.00
21, 6292.33, 77578.30, 10717.64, 30781.59, -21068.11, -4038.29, 7726.24, -50856.88, -3968.89, 40428.40, 11735.78, -8907.01, 0.00, 0.00, 0.00, 0.00, 0.06, 0.42, 0.92
22, 6292.33, 77578.30, 10717.64, 30781.59, -21068.11, -4038.29, 7726.24, -50856.88, -3958.00, 40474.58, 11772.51, -8971.92, 0.00, 0.00, 0.00, 0.00, 0.00, 0.00, 0.00
23, 6293.76, 77581.54, 10715.76, 30775.69, -21072.33, -4042.38, 7717.70, -50865.15, -3958.00, 40474.58, 11772.51, -8971.92, 0.00, 0.00, 0.00, 0.00, 0.00, 0.00, 0.00
24, 6293.76, 77581.54, 10715.76, 30775.69, -21072.33, -4042.38, 7717.70, -50865.15, -3964.66, 40425.21, 11742.42, -8904.91, 0.00, 0.00, 0.00, 0.00, 0.00, 0.00, 0.00
25, 6289.49, 77576.02, 10715.74, 30778.22, -21069.13, -4039.85, 7724.20, -50859.61, -3964.66, 40425.21, 11742.42, -8904.91, 0.00, 0.00, 0.00, 0.00, 0.00, 0.00, 0.00
26, 6289.49, 77576.02, 10715.74, 30778.22, -21069.13, -4039.85, 7724.20, -50859.61, -3959.05, 40475.25, 11774.29, -8968.68, 0.00, 0.00, 0.00, 0.00, 0.00, 0.00, 0.00
27, 6292.19, 77571.08, 10714.11, 30779.80, -21068.22, -4037.71, 7723.04, -50859.74, -3959.05, 40475.25, 11774.29, -8968.68, 0.00, 0.00, 0.00, 0.00, 0.00, 0.00, 0.00
28, 6292.19, 77571.08, 10714.11, 30779.80, -21068.22, -4037.71, 7723.04, -50859.74, -3963.48, 40429.10, 11739.20, -8901.02, 0.00, 0.00, 0.00, 0.00, 0.00, 0.00, 0.00
29, 6285.42, 77569.94, 10709.30, 30772.83, -21073.76, -4042.51, 7718.44, -50866.09, -3963.48, 40429.10, 11739.20, -8901.02, 0.00, 0.00, 0.00, 0.00, 0.00, 0.00, 0.00
30, 6285.42, 77569.94, 10709.30, 30772.83, -21073.76, -4042.51, 7718.44, -50866.09, -3957.85, 40470.96, 11771.14, -8974.22, 0.00, 0.00, 0.00, 0.00, 0.00, 0.00, 0.00
31, 6293.92, 77581.52, 10719.67, 30781.62, -21063.28, -4038.71, 7727.29, -50857.66, -3957.85, 40470.96, 11771.14, -8974.22, 0.00, 0.00, 0.00, 0.00, 0.05, 0.41, 0.92
32, 6293.92, 77581.52, 10719.67, 30781.62, -21063.28, -4038.71, 7727.29, -50857.66, -3965.87, 40426.05, 11745.33, -8904.42, 0.00, 0.00, 0.00, 0.00, 0.00, 0.00, 0.00
33, 6286.94, 77570.84, 10711.89, 30771.51, -21073.63, -4046.85, 7716.58, -50869.13, -3965.87, 40426.05, 11745.33, -8904.42, 0.00, 0.00, 0.00, 0.00, 0.00, 0.00, 0.00
34, 6286.94, 77570.84, 10711.89, 30771.51, -21073.63, -4046.85, 7716.58, -50869.13, -3958.72, 40466.09, 11769.69, -8974.56, 0.00, 0.00, 0.00, 0.00, 0.00, 0.00, 0.00
35, 6292.73, 77581.29, 10718.64, 30781.50, -21065.40, -4038.98, 7727.31, -50855.63, -3958.72, 40466.09, 11769.69, -8974.56, 0.00, 0.00, 0.00, 0.00, 0.00, 0.00, 0.00
36, 6292.73, 77581.29, 10718.64, 30781.50, -21065.40, -4038.98, 7727.31, -50855.63, -3968.26, 40427.26, 11739.92, -8911.66, 0.00, 0.00, 0.00, 0.00, 0.00, 0.00, 0.00
37, 6278.90, 77564.10, 10702.57, 30762.91, -21081.20, -4050.27, 7710.97, -50872.90, -3968.26, 40427.26, 11739.92, -8911.66, 0.00, 0.00, 0.00, 0.00, 0.00, 0.00, 0.00
38, 6278.90, 77564.10, 10702.57, 30762.91, -21081.20, -4050.27, 7710.97, -50872.90, -3959.70, 40464.39, 11765.62, -8964.64, 0.00, 0.00, 0.00, 0.00, 0.00, 0.00, 0.00
39, 6295.64, 77584.40, 10722.53, 30785.15, -21059.52, -4034.51, 7734.28, -50851.22, -3959.70, 40464.39, 11765.62, -8964.64, 0.00, 0.00, 0.00, 0.00, 0.00, 0.00, 0.00
40, 6295.64, 77584.40, 10722.53, 30785.15, -21059.52, -4034.51, 7734.28, -50851.22, -3962.76, 40432.92, 11748.97, -8917.16, 0.00, 0.00, 0.00, 0.00, 0.00, 0.00, 0.00
41, 6277.98, 77564.09, 10699.74, 30758.86, -21079.93, -4053.51, 7705.23, -50878.56, -3962.76, 40432.92, 11748.97, -8917.16, 0.00, 0.00, 0.00, 0.00, 0.06, 0.41, 0.92
42, 6277.98, 77564.09, 10699.74, 30758.86, -21079.93, -4053.51, 7705.23, -50878.56, -3962.29, 40456.23, 11763.57, -8967.23, 0.00, 0.00, 0.00, 0.00, 0.00, 0.00, 0.00
43, 6293.83, 77583.69, 10717.95, 30780.61, -21056.86, -4039.09, 7735.96, -50849.28, -3962.29, 40456.23, 11763.57, -8967.23, 0.00, 0.00, 0.00, 0.00, 0.00, 0.00, 0.00
44, 6293.83, 77583.69, 10717.95, 30780.61, -21056.86, -4039.09, 7735.96, -50849.28, -3963.59, 40440.65, 11753.60, -8917.29, 0.00, 0.00, 0.00, 0.00, 0.00, 0.00, 0.00
45, 6271.47, 77560.23, 10696.54, 30755.04, -21079.64, -4058.45, 7707.04, -50875.92, -3963.59, 40440.65, 11753.60, -8917.29, 0.00, 0.00, 0.00, 0.00, 0.00, 0.00, 0.00
46, 6271.47, 77560.23, 10696.54, 30755.04, -21079.64, -4058.45, 7707.04, -50875.92, -3959.12, 40455.34, 11764.10, -8949.24, 0.00, 0.00, 0.00, 0.00, 0.00, 0.00, 0.00
47, 6299.10, 77593.05, 10727.45, 30787.34, -21051.77, -4032.66, 7737.97, -50847.51, -3959.12, 40455.34, 11764.10, -8949.24, 0.00, 0.00, 0.00, 0.00, 0.00, 0.00, 0.00
48, 6299.10, 77593.05, 10727.45, 30787.34, -21051.77, -4032.66, 7737.97, -50847.51, -3962.54, 40442.21, 11763.83, -8933.63, 0.00, 0.00, 0.00, 0.00, 0.00, 0.00, 0.00
49, 6280.66, 77563.10, 10698.95, 30757.36, -21077.54, -4056.06, 7704.65, -50878.56, -3962.54, 40442.21, 11763.83, -8933.63, 0.00, 0.00, 0.00, 0.00, 0.00, 0.00, 0.00
50, 6280.66, 77563.10, 10698.95, 30757.36, -21077.54, -4056.06, 7704.65, -50878.56, -3957.44, 40449.66, 11759.36, -8937.59, 0.00, 0.00, 0.00, 0.00, 0.06, 0.41, 0.92
51, 6299.57, 77587.75, 10722.76, 30789.39, -21052.82, -4029.75, 7740.16, -50843.06, -3957.44, 40449.66, 11759.36, -8937.59, 0.00, 0.00, 0.00, 0.00, 0.00, 0.00, 0.00
52, 6299.57, 77587.75, 10722.76, 30789.39, -21052.82, -4029.75, 7740.16, -50843.06, -3955.52, 40459.96, 11765.76, -8930.62, 0.00, 0.00, 0.00, 0.00, 0.00, 0.00, 0.00
53, 6276.53, 77559.12, 10698.08, 30759.22, -21072.67, -4052.66, 7711.42, -50869.39, -3955.52, 40459.96, 11765.76, -8930.62, 0.00, 0.00, 0.00, 0.00, 0.00, 0.00, 0.00
54, 6276.53, 77559.12, 10698.08, 30759.22, -21072.67, -4052.66, 7711.42, -50869.39, -3953.33, 40449.57, 11755.05, -8926.19, 0.00, 0.00, 0.00, 0.00, 0.00, 0.00, 0.00
55, 6292.64, 77587.06, 10721.06, 30786.00, -21050.85, -4033.48, 7741.03, -50841.86, -3953.33, 40449.57, 11755.05, -8926.19, 0.00, 0.00, 0.00, 0.00, 0.00, 0.00, 0.00
56, 6292.64, 77587.06, 10721.06, 30786.00, -21050.85, -4033.48, 7741.03, -50841.86, -3956.24, 40456.57, 11774.05, -8946.08, 0.00, 0.00, 0.00, 0.00, 0.00, 0.00, 0.00
57, 6276.64, 77567.34, 10702.19, 30759.06, -21073.63, -4058.94, 7709.90, -50872.93, -3956.24, 40456.57, 11774.05, -8946.08, 0.00, 0.00, 0.00, 0.00, 0.00, 0.00, 0.00
58, 6276.64, 77567.34, 10702.19, 30759.06, -21073.63, -4058.94, 7709.90, -50872.93, -3962.16, 40434.50, 11751.34, -8921.83, 0.00, 0.00, 0.00, 0.00, 0.00, 0.00, 0.00
59, 6300.13, 77586.05, 10720.01, 30786.76, -21055.97, -4034.36, 7736.54, -50847.69, -3962.16, 40434.50, 11751.34, -8921.83, 0.00, 0.00, 0.00, 0.00, 0.00, 0.00, 0.00
60, 6300.13, 77586.05, 10720.01, 30786.76, -21055.97, -4034.36, 7736.54, -50847.69, -3962.07, 40460.12, 11768.68, -8953.86, 0.00, 0.00, 0.00, 0.00, 0.06, 0.41, 0.92
61, 6282.83, 77562.52, 10697.25, 30761.56, -21076.42, -4053.78, 7708.87, -50873.78, -3962.07, 40460.12, 11768.68, -8953.86, 0.00, 0.00, 0.00, 0.00, 0.00, 0.00, 0.00
62, 6282.83, 77562.52, 10697.25, 30761.56, -21076.42, -4053.78, 7708.87, -50873.78, -3964.73, 40429.75, 11741.64, -8919.49, 0.00, 0.00, 0.00, 0.00, 0.00, 0.00, 0.00
63, 6295.08, 77583.73, 10717.13, 30782.87, -21057.51, -4039.00, 7733.23, -50852.65, -3964.73, 40429.75, 11741.64, -8919.49, 0.00, 0.00, 0.00, 0.00, 0.00, 0.00, 0.00
64, 6295.08, 77583.73, 10717.13, 30782.87, -21057.51, -4039.00, 7733.23, -50852.65, -3959.92, 40462.91, 11773.96, -8960.37, 0.00, 0.00, 0.00, 0.00, 0.00, 0.00, 0.00
65, 6282.52, 77572.73, 10704.14, 30767.18, -21067.70, -4052.01, 7717.83, -50868.68, -3959.92, 40462.91, 11773.96, -8960.37, 0.00, 0.00, 0.00, 0.00, 0.00, 0.00, 0.00
66, 6282.52, 77572.73, 10704.14, 30767.18, -21067.70, -4052.01, 7717.83, -50868.68, -3957.64, 40431.13, 11745.44, -8903.44, 0.00, 0.00, 0.00, 0.00, 0.00, 0.00, 0.00
67, 6301.49, 77582.77, 10715.69, 30781.48, -21055.10, -4040.79, 7735.98, -50848.23, -3957.64, 40431.13, 11745.44, -8903.44, 0.00, 0.00, 0.00, 0.00, 0.00, 0.00, 0.00
68, 6301.49, 77582.77, 10715.69, 30781.48, -21055.10, -4040.79, 7735.98, -50848.23, -3952.03, 40471.23, 11776.44, -8965.75, 0.00, 0.00, 0.00, 0.00, 0.00, 0.00, 0.00
69, 6284.35, 77566.88, 10702.31, 30768.99, -21066.14, -4046.98, 7719.26, -50864.84, -3952.03, 40471.23, 11776.44, -8965.75, 0.00, 0.00, 0.00, 0.00, 0.00, 0.00, 0.00
70, 6284.35, 77566.88, 10702.31, 30768.99, -21066.14, -4046.98, 7719.26, -50864.84, -3964.24, 40422.23, 11736.79, -8906.77, 0.00, 0.00, 0.00, 0.00, 0.06, 0.41, 0.92
71, 6288.84, 77577.25, 10710.20, 30778.35, -21059.30, -4044.82, 7730.89, -50856.81, -3964.24, 40422.23, 11736.79, -8906.77, 0.00, 0.00, 0.00, 0.00, 0.00, 0.00, 0.00
72, 6288.84, 77577.25, 10710.20, 30778.35, -21059.30, -4044.82, 7730.89, -50856.81, -3956.57, 40469.31, 11772.71, -8970.20, 0.00, 0.00, 0.00, 0.00, 0.00, 0.00, 0.00
73, 6285.85, 77575.19, 10706.57, 30771.80, -21061.85, -4047.32, 7724.16, -50860.81, -3956.57, 40469.31, 11772.71, -8970.20, 0.00, 0.00, 0.00, 0.00, 0.00, 0.00, 0.00
74, 6285.85, 77575.19, 10706.57, 30771.80, -21061.85, -4047.32, 7724.16, -50860.81, -3960.86, 40426.28, 11738.62, -8903.01, 0.00, 0.00, 0.00, 0.00, 0.00, 0.00, 0.00
75, 6286.92, 77570.14, 10706.15, 30776.05, -21063.03, -4046.56, 7725.43, -50861.35, -3960.86, 40426.28, 11738.62, -8903.01, 0.00, 0.00, 0.00, 0.00, 0.00, 0.00, 0.00
76, 6286.92, 77570.14, 10706.15, 30776.05, -21063.03, -4046.56, 7725.43, -50861.35, -3959.14, 40466.60, 11768.08, -8979.54, 0.00, 0.00, 0.00, 0.00, 0.00, 0.00, 0.00
77, 6285.67, 77571.01, 10705.79, 30775.94, -21058.09, -4042.45, 7724.94, -50860.66, -3959.14, 40466.60, 11768.08, -8979.54, 0.00, 0.00, 0.00, 0.00, 0.00, 0.00, 0.00
78, 6285.67, 77571.01, 10705.79, 30775.94, -21058.09, -4042.45, 7724.94, -50860.66, -3961.73, 40426.59, 11737.30, -8897.60, 0.00, 0.00, 0.00, 0.00, 0.00, 0.00, 0.00
79, 6279.03, 77560.41, 10699.15, 30770.42, -21064.22, -4050.20, 7722.19, -50861.39, -3961.73, 40426.59, 11737.30, -8897.60, 0.00, 0.00, 0.00, 0.00, 0.00, 0.00, 0.00
80, 6279.03, 77560.41, 10699.15, 30770.42, -21064.22, -4050.20, 7722.19, -50861.39, -3952.44, 40473.18, 11770.83, -8967.88, 0.00, 0.00, 0.00, 0.00, 0.06, 0.41, 0.92
81, 6290.38, 77577.67, 10713.26, 30783.00, -21050.54, -4037.84, 7733.73, -50851.49, -3952.44, 40473.18, 11770.83, -8967.88, 0.00, 0.00, 0.00, 0.00, 0.00, 0.00, 0.00
82, 6290.38, 77577.67, 10713.26, 30783.00, -21050.54, -4037.84, 7733.73, -50851.49, -3963.61, 40426.75, 11742.26, -8906.77, 0.00, 0.00, 0.00, 0.00, 0.00, 0.00, 0.00
83, 6283.19, 77568.77, 10703.56, 30773.70, -21061.67, -4046.49, 7720.94, -50863.32, -3963.61, 40426.75, 11742.26, -8906.77, 0.00, 0.00, 0.00, 0.00, 0.00, 0.00, 0.00
84, 6283.19, 77568.77, 10703.56, 30773.70, -21061.67, -4046.49, 7720.94, -50863.32, -3953.93, 40469.96, 11771.72, -8962.36, 0.00, 0.00, 0.00, 0.00, 0.00, 0.00, 0.00
85, 6299.46, 77586.34, 10717.84, 30792.12, -21043.59, -4031.90, 7741.41, -50846.73, -3953.93, 40469.96, 11771.72, -8962.36, 0.00, 0.00, 0.00, 0.00, 0.00, 0.00, 0.00
86, 6299.46, 77586.34, 10717.84, 30792.12, -21043.59, -4031.90, 7741.41, -50846.73, -3957.00, 40437.25, 11745.71, -8902.30, 0.00, 0.00, 0.00, 0.00, 0.00, 0.00, 0.00
87, 6283.68, 77563.26, 10701.50, 30777.32, -21057.98, -4048.35, 7724.65, -50862.20, -3957.00, 40437.25, 11745.71, -8902.30, 0.00, 0.00, 0.00, 0.00, 0.00, 0.00, 0.00
88, 6283.68, 77563.26, 10701.50, 30777.32, -21057.98, -4048.35, 7724.65, -50862.20, -3949.35, 40469.35, 11767.59, -8956.41, 0.00, 0.00, 0.00, 0.00, 0.00, 0.00, 0.00
89, 6305.45, 77595.04, 10725.19, 30804.50, -21035.56, -4024.41, 7749.08, -50838.86, -3949.35, 40469.35, 11767.59, -8956.41, 0.00, 0.00, 0.00, 0.00, 0.06, 0.41, 0.92
90, 6305.45, 77595.04, 10725.19, 30804.50, -21035.56, -4024.41, 7749.08, -50838.86, -3953.69, 40444.86, 11750.09, -8911.15, 0.00, 0.00, 0.00, 0.00, 0.00, 0.00, 0.00
91, 6279.01, 77557.00, 10698.33, 30776.70, -21059.50, -4044.57, 7723.02, -50861.95, -3953.69, 40444.86, 11750.09, -8911.15, 0.00, 0.00, 0.00, 0.00, 0.00, 0.00, 0.00
92, 6279.01, 77557.00, 10698.33, 30776.70, -21059.50, -4044.57, 7723.02, -50861.95, -3949.69, 40465.69, 11764.42, -8944.72, 0.00, 0.00, 0.00, 0.00, 0.00, 0.00, 0.00
93, 6303.91, 77586.50, 10724.46, 30802.71, -21034.69, -4026.85, 7753.98, -50835.75, -3949.69, 40465.69, 11764.42, -8944.72, 0.00, 0.00, 0.00, 0.00, 0.00, 0.00, 0.00
94, 6303.91, 77586.50, 10724.46, 30802.71, -21034.69, -4026.85, 7753.98, -50835.75, -3953.11, 40451.80, 11755.97, -8911.53, 0.00, 0.00, 0.00, 0.00, 0.00, 0.00, 0.00
95, 6284.01, 77574.01, 10699.42, 30773.79, -21057.11, -4048.64, 7724.36, -50860.45, -3953.11, 40451.80, 11755.97, -8911.53, 0.00, 0.00, 0.00, 0.00, 0.00, 0.00, 0.00
96, 6284.01, 77574.01, 10699.42, 30773.79, -21057.11, -4048.64, 7724.36, -50860.45, -3951.14, 40457.98, 11756.37, -8940.85, 0.00, 0.00, 0.00, 0.00, 0.00, 0.00, 0.00
97, 6300.71, 77591.64, 10720.41, 30799.88, -21038.04, -4025.37, 7750.51, -50838.01, -3951.14, 40457.98, 11756.37, -8940.85, 0.00, 0.00, 0.00, 0.00, 0.00, 0.00, 0.00
98, 6300.71, 77591.64, 10720.41, 30799.88, -21038.04, -4025.37, 7750.51, -50838.01, -3959.86, 40447.92, 11756.88, -8926.95, 0.00, 0.00, 0.00, 0.00, 0.00, 0.00, 0.00
99, 6274.98, 77562.72, 10696.61, 30772.29, -21059.28, -4050.67, 7721.07, -50865.68, -3959.86, 40447.92, 11756.88, -8926.95, 0.00, 0.00, 0.00, 0.00, 0.06, 0.41, 0.92
100, 6274.98, 77562.72, 10696.61, 30772.29, -21059.28, -4050.67, 7721.07, -50865.68, -3953.04, 40451.94, 11752.21, -8928.85, 0.00, 0.00, 0.00, 0.00, 0.00, 0.00, 0.00
101, 6311.17, 77587.24, 10726.31, 30805.80, -21031.13, -4023.31, 7756.12, -50831.98, -3953.04, 40451.94, 11752.21, -8928.85, 0.00, 0.00, 0.00, 0.00, 0.00, 0.00, 0.00
102, 6311.17, 77587.24, 10726.31, 30805.80, -21031.13, -4023.31, 7756.12, -50831.98, -3954.49, 40460.68, 11767.92, -8931.87, 0.00, 0.00, 0.00, 0.00, 0.00, 0.00, 0.00
103, 6281.40, 77549.11, 10701.77, 30777.41, -21055.12, -4043.86, 7722.01, -50863.63, -3954.49, 40460.68, 11767.92, -8931.87, 0.00, 0.00, 0.00, 0.00, 0.00, 0.00, 0.00
104, 6281.40, 77549.11, 10701.77, 30777.41, -21055.12, -4043.86, 7722.01, -50863.63, -3953.44, 40446.84, 11752.97, -8921.99, 0.00, 0.00, 0.00, 0.00, 0.00, 0.00, 0.00
105, 6306.75, 77595.60, 10729.78, 30805.75, -21028.70, -4024.86, 7757.89, -50830.43, -3953.44, 40446.84, 11752.97, -8921.99, 0.00, 0.00, 0.00, 0.00, 0.00, 0.00, 0.00
106, 6306.75, 77595.60, 10729.78, 30805.75, -21028.70, -4024.86, 7757.89, -50830.43, -3947.99, 40471.07, 11777.18, -8932.96, 0.00, 0.00, 0.00, 0.00, 0.00, 0.00, 0.00
107, 6297.09, 77577.34, 10712.92, 30785.35, -21045.80, -4040.35, 7732.72, -50854.00, -3947.99, 40471.07, 11777.18, -8932.96, 0.00, 0.00, 0.00, 0.00, 0.00, 0.00, 0.00
108, 6297.09, 77577.34, 10712.92, 30785.35, -21045.80, -4040.35, 7732.72, -50854.00, -3949.15, 40450.93, 11758.81, -8901.45, 0.00, 0.00, 0.00, 0.00, 0.00, 0.00, 0.00
109, 6306.54, 77586.97, 10730.00, 30806.45, -21030.09, -4022.15, 7756.55, -50833.30, -3949.15, 40450.93, 11758.81, -8901.45, 0.00, 0.00, 0.00, 0.00, 0.06, 0.40, 0.92
110, 6306.54, 77586.97, 10730.00, 30806.45, -21030.09, -4022.15, 7756.55, -50833.30, -3950.04, 40474.67, 11780.69, -8943.11, 0.00, 0.00, 0.00, 0.00, 0.00, 0.00, 0.00
111, 6289.78, 77565.11, 10708.56, 30781.66, -21046.83, -4042.27, 7731.36, -50853.61, -3950.04, 40474.67, 11780.69, -8943.11, 0.00, 0.00, 0.00, 0.00, 0.00, 0.00, 0.00
112, 6289.78, 77565.11, 10708.56, 30781.66, -21046.83, -4042.27, 7731.36, -50853.61, -3951.59, 40441.23, 11751.43, -8899.19, 0.00, 0.00, 0.00, 0.00, 0.00, 0.00, 0.00
113, 6306.54, 77588.24, 10723.38, 30799.36, -21031.92, -4026.47, 7752.72, -50833.88, -3951.59, 40441.23, 11751.43, -8899.19, 0.00, 0.00, 0.00, 0.00, 0.00, 0.00, 0.00
114, 6306.54, 77588.24, 10723.38, 30799.36, -21031.92, -4026.47, 7752.72, -50833.88, -3951.25, 40477.49, 11778.47, -8949.77, 0.00, 0.00, 0.00, 0.00, 0.00, 0.00, 0.00
115, 6294.90, 77571.52, 10709.53, 30786.51, -21046.94, -4039.41, 7732.70, -50854.40, -3951.25, 40477.49, 11778.47, -8949.77, 0.00, 0.00, 0.00, 0.00, 0.00, 0.00, 0.00
116, 6294.90, 77571.52, 10709.53, 30786.51, -21046.94, -4039.41, 7732.70, -50854.40, -3959.86, 40432.09, 11741.24, -8895.82, 0.00, 0.00, 0.00, 0.00, 0.00, 0.00, 0.00
117, 6303.28, 77586.66, 10719.81, 30798.20, -21036.86, -4028.52, 7747.25, -50841.68, -3959.86, 40432.09, 11741.24, -8895.82, 0.00, 0.00, 0.00, 0.00, 0.00, 0.00, 0.00
118, 6303.28, 77586.66, 10719.81, 30798.20, -21036.86, -4028.52, 7747.25, -50841.68, -3949.62, 40477.24, 11784.49, -8958.96, 0.00, 0.00, 0.00, 0.00, 0.00, 0.00, 0.00
119, 6300.67, 77576.64, 10713.15, 30787.49, -21042.49, -4039.34, 7737.79, -50851.11, -3949.62, 40477.24, 11784.49, -8958.96, 0.00, 0.00, 0.00, 0.00, 0.06, 0.40, 0.93
120, 6300.67, 77576.64, 10713.15, 30787.49, -21042.49, -4039.34, 7737.79, -50851.11, -3953.55, 40432.63, 11750.94, -8891.95, 0.00, 0.00, 0.00, 0.00, 0.00, 0.00, 0.00
121, 6298.48, 77583.51, 10719.47, 30793.13, -21035.72, -4037.33, 7745.95, -50841.05, -3953.55, 40432.63, 11750.94, -8891.95, 0.00, 0.00, 0.00, 0.00, 0.00, 0.00, 0.00
122, 6298.48, 77583.51, 10719.47, 30793.13, -21035.72, -4037.33, 7745.95, -50841.05, -3948.15, 40477.55, 11784.17, -8959.54, 0.00, 0.00, 0.00, 0.00, 0.00, 0.00, 0.00
123, 6301.76, 77583.77, 10717.57, 30790.62, -21035.40, -4036.75, 7743.83, -50844.76, -3948.15, 40477.55, 11784.17, -8959.54, 0.00, 0.00, 0.00, 0.00, 0.00, 0.00, 0.00
124, 6301.76, 77583.77, 10717.57, 30790.62, -21035.40, -4036.75, 7743.83, -50844.76, -3954.16, 40432.89, 11750.78, -8888.44, 0.00, 0.00, 0.00, 0.00, 0.00, 0.00, 0.00
125, 6301.98, 77584.38, 10717.10, 30792.79, -21038.15, -4034.42, 7740.99, -50847.71, -3954.16, 40432.89, 11750.78, -8888.44, 0.00, 0.00, 0.00, 0.00, 0.00, 0.00, 0.00
126, 6301.98, 77584.38, 10717.10, 30792.79, -21038.15, -4034.42, 7740.99, -50847.71, -3953.96, 40474.87, 11779.15, -8967.09, 0.00, 0.00, 0.00, 0.00, 0.00, 0.00, 0.00
127, 6300.96, 77585.09, 10718.67, 30792.43, -21033.88, -4035.74, 7744.50, -50843.20, -3953.96, 40474.87, 11779.15, -8967.09, 0.00, 0.00, 0.00, 0.00, 0.00, 0.00, 0.00
128, 6300.96, 77585.09, 10718.67, 30792.43, -21033.88, -4035.74, 7744.50, -50843.20, -3958.90, 40428.61, 11747.90, -8893.40, 0.00, 0.00, 0.00, 0.00, 0.06, 0.41, 0.93
129, 6296.20, 77581.80, 10713.73, 30788.92, -21040.14, -4040.79, 7738.82, -50850.75, -3958.90, 40428.61, 11747.90, -8893.40, 0.00, 0.00, 0.00, 0.00, 0.00, 0.00, 0.00
130, 6296.20, 77581.80, 10713.73, 30788.92, -21040.14, -4040.79, 7738.82, -50850.75, -3948.08, 40475.57, 11782.23, -8958.67, 0.00, 0.00, 0.00, 0.00, 0.00, 0.00, 0.00
131, 6312.96, 77594.39, 10727.36, 30800.86, -21025.32, -4030.09, 7755.29, -50833.50, -3948.08, 40475.57, 11782.23, -8958.67, 0.00, 0.00, 0.00, 0.00, 0.00, 0.00, 0.00
132, 6312.96, 77594.39, 10727.36, 30800.86, -21025.32, -4030.09, 7755.29, -50833.50, -3953.51, 40436.65, 11758.60, -8897.07, 0.00, 0.00, 0.00, 0.00, 0.00, 0.00, 0.00
133, 6299.50, 77580.94, 10714.96, 30786.76, -21040.59, -4041.06, 7737.28, -50851.49, -3953.51, 40436.65, 11758.60, -8897.07, 0.00, 0.00, 0.00, 0.00, 0.00, 0.00, 0.00
134, 6299.50, 77580.94, 10714.96, 30786.76, -21040.59, -4041.06, 7737.28, -50851.49, -3950.92, 40470.16, 11778.94, -8955.99, 0.00, 0.00, 0.00, 0.00, 0.00, 0.00, 0.00
135, 6315.10, 77599.13, 10731.09, 30804.88, -21025.59, -4026.04, 7755.09, -50834.28, -3950.92, 40470.16, 11778.94, -8955.99, 0.00, 0.00, 0.00, 0.00, 0.00, 0.00, 0.00
136, 6315.10, 77599.13, 10731.09, 30804.88, -21025.59, -4026.04, 7755.09, -50834.28, -3960.01, 40435.02, 11754.13, -8905.72, 0.00, 0.00, 0.00, 0.00, 0.00, 0.00, 0.00
137, 6296.15, 77576.95, 10709.48, 30781.53, -21046.80, -4045.04, 7730.17, -50856.77, -3960.01, 40435.02, 11754.13, -8905.72, 0.00, 0.00, 0.00, 0.00, 0.00, 0.00, 0.00
138, 6296.15, 77576.95, 10709.48, 30781.53, -21046.80, -4045.04, 7730.17, -50856.77, -3956.50, 40461.73, 11768.17, -8955.20, 0.00, 0.00, 0.00, 0.00, 0.06, 0.41, 0.93
139, 6313.54, 77597.88, 10729.80, 30805.08, -21025.32, -4026.87, 7755.54, -50832.80, -3956.50, 40461.73, 11768.17, -8955.20, 0.00, 0.00, 0.00, 0.00, 0.00, 0.00, 0.00
140, 6313.54, 77597.88, 10729.80, 30805.08, -21025.32, -4026.87, 7755.54, -50832.80, -3959.63, 40441.59, 11757.55, -8918.28, 0.00, 0.00, 0.00, 0.00, 0.00, 0.00, 0.00
141, 6296.55, 77573.70, 10706.73, 30780.65, -21045.35, -4045.69, 7730.15, -50857.75, -3959.63, 40441.59, 11757.55, -8918.28, 0.00, 0.00, 0.00, 0.00, 0.00, 0.00, 0.00
142, 6296.55, 77573.70, 10706.73, 30780.65, -21045.35, -4045.69, 7730.15, -50857.75, -3956.68, 40455.25, 11767.32, -8943.16, 0.00, 0.00, 0.00, 0.00, 0.00, 0.00, 0.00
143, 6315.69, 77601.14, 10731.38, 30806.09, -21022.15, -4025.15, 7760.23, -50831.93, -3956.68, 40455.25, 11767.32, -8943.16, 0.00, 0.00, 0.00, 0.00, 0.00, 0.00, 0.00
144, 6315.69, 77601.14, 10731.38, 30806.09, -21022.15, -4025.15, 7760.23, -50831.93, -3956.48, 40446.53, 11760.35, -8919.53, 0.00, 0.00, 0.00, 0.00, 0.00, 0.00, 0.00
145, 6290.90, 77568.91, 10702.57, 30777.14, -21046.16, -4046.98, 7730.22, -50859.25, -3956.48, 40446.53, 11760.35, -8919.53, 0.00, 0.00, 0.00, 0.00, 0.00, 0.00, 0.00
146, 6290.90, 77568.91, 10702.57, 30777.14, -21046.16, -4046.98, 7730.22, -50859.25, -3956.17, 40451.40, 11758.38, -8939.09, 0.00, 0.00, 0.00, 0.00, 0.00, 0.00, 0.00
147, 6314.57, 77604.25, 10731.07, 30806.80, -21022.71, -4025.57, 7760.10, -50830.70, -3956.17, 40451.40, 11758.38, -8939.09, 0.00, 0.00, 0.00, 0.00, 0.00, 0.00, 0.00
148, 6314.57, 77604.25, 10731.07, 30806.80, -21022.71, -4025.57, 7760.10, -50830.70, -3953.31, 40452.72, 11766.54, -8930.75, 0.00, 0.00, 0.00, 0.00, 0.06, 0.41, 0.93
149, 6297.98, 77573.67, 10704.63, 30774.78, -21045.29, -4049.47, 7728.99, -50859.92, -3953.31, 40452.72, 11766.54, -8930.75, 0.00, 0.00, 0.00, 0.00, 0.00, 0.00, 0.00
150, 6297.98, 77573.67, 10704.63, 30774.78, -21045.29, -4049.47, 7728.99, -50859.92, -3953.26, 40444.83, 11752.48, -8926.88, 0.00, 0.00, 0.00, 0.00, 0.00, 0.00, 0.00
151, 6314.12, 77592.38, 10725.17, 30809.64, -21025.46, -4022.84, 7760.64, -50831.98, -3953.26, 40444.83, 11752.48, -8926.88, 0.00, 0.00, 0.00, 0.00, 0.00, 0.00, 0.00
152, 6314.12, 77592.38, 10725.17, 30809.64, -21025.46, -4022.84, 7760.64, -50831.98, -3957.20, 40457.35, 11761.64, -8939.85, 0.00, 0.00, 0.00, 0.00, 0.00, 0.00, 0.00
153, 6287.12, 77559.92, 10695.60, 30774.19, -21049.69, -4048.62, 7728.29, -50862.24, -3957.20, 40457.35, 11761.64, -8939.85, 0.00, 0.00, 0.00, 0.00, 0.00, 0.00, 0.00
154, 6287.12, 77559.92, 10695.60, 30774.19, -21049.69, -4048.62, 7728.29, -50862.24, -3955.90, 40441.03, 11745.82, -8915.69, 0.00, 0.00, 0.00, 0.00, 0.00, 0.00, 0.00
155, 6306.77, 77587.91, 10720.52, 30803.41, -21025.32, -4025.03, 7760.53, -50830.91, -3955.90, 40441.03, 11745.82, -8915.69, 0.00, 0.00, 0.00, 0.00, 0.00, 0.00, 0.00
156, 6306.77, 77587.91, 10720.52, 30803.41, -21025.32, -4025.03, 7760.53, -50830.91, -3952.59, 40466.58, 11766.54, -8939.04, 0.00, 0.00, 0.00, 0.00, 0.00, 0.00, 0.00
157, 6290.74, 77567.99, 10701.14, 30783.27, -21043.70, -4044.70, 7732.14, -50857.48, -3952.59, 40466.58, 11766.54, -8939.04, 0.00, 0.00, 0.00, 0.00, 0.00, 0.00, 0.00
158, 6290.74, 77567.99, 10701.14, 30783.27, -21043.70, -4044.70, 7732.14, -50857.48, -3958.94, 40434.42, 11742.38, -8909.03, 0.00, 0.00, 0.00, 0.00, 0.06, 0.42, 0.93
159, 6313.59, 77590.91, 10722.69, 30805.11, -21026.15, -4025.93, 7756.79, -50835.44, -3958.94, 40434.42, 11742.38, -8909.03, 0.00, 0.00, 0.00, 0.00, 0.00, 0.00, 0.00
160, 6313.59, 77590.91, 10722.69, 30805.11, -21026.15, -4025.93, 7756.79, -50835.44, -3955.68, 40465.11, 11771.28, -8959.81, 0.00, 0.00, 0.00, 0.00, 0.00, 0.00, 0.00
161, 6294.79, 77562.98, 10701.68, 30785.08, -21041.87, -4044.28, 7735.11, -50857.44, -3955.68, 40465.11, 11771.28, -8959.81, 0.00, 0.00, 0.00, 0.00, 0.00, 0.00, 0.00
162, 6294.79, 77562.98, 10701.68, 30785.08, -21041.87, -4044.28, 7735.11, -50857.44, -3962.67, 40429.97, 11736.88, -8900.04, 0.00, 0.00, 0.00, 0.00, 0.00, 0.00, 0.00
163, 6310.30, 77580.35, 10716.28, 30801.62, -21028.14, -4028.50, 7753.95, -50838.06, -3962.67, 40429.97, 11736.88, -8900.04, 0.00, 0.00, 0.00, 0.00, 0.00, 0.00, 0.00
164, 6310.30, 77580.35, 10716.28, 30801.62, -21028.14, -4028.50, 7753.95, -50838.06, -3958.81, 40467.81, 11768.55, -8958.09, 0.00, 0.00, 0.00, 0.00, 0.00, 0.00, 0.00
165, 6298.30, 77566.34, 10705.46, 30788.43, -21037.93, -4039.90, 7738.82, -50851.63, -3958.81, 40467.81, 11768.55, -8958.09, 0.00, 0.00, 0.00, 0.00, 0.00, 0.00, 0.00
166, 6298.30, 77566.34, 10705.46, 30788.43, -21037.93, -4039.90, 7738.82, -50851.63, -3959.57, 40427.35, 11735.47, -8899.44, 0.00, 0.00, 0.00, 0.00, 0.00, 0.00, 0.00
167, 6305.99, 77584.22, 10715.22, 30797.91, -21028.10, -4031.74, 7752.34, -50837.90, -3959.57, 40427.35, 11735.47, -8899.44, 0.00, 0.00, 0.00, 0.00, 0.05, 0.42, 0.93
168, 6305.99, 77584.22, 10715.22, 30797.91, -21028.10, -4031.74, 7752.34, -50837.90, -3951.90, 40473.93, 11774.43, -8959.65, 0.00, 0.00, 0.00, 0.00, 0.00, 0.00, 0.00
169, 6303.01, 77575.80, 10710.73, 30792.88, -21032.14, -4035.07, 7744.57, -50846.26, -3951.90, 40473.93, 11774.43, -8959.65, 0.00, 0.00, 0.00, 0.00, 0.00, 0.00, 0.00
170, 6303.01, 77575.80, 10710.73, 30792.88, -21032.14, -4035.07, 7744.57, -50846.26, -3958.16, 40430.30, 11739.07, -8890.70, 0.00, 0.00, 0.00, 0.00, 0.00, 0.00, 0.00
171, 6302.86, 77574.30, 10711.78, 30793.73, -21029.39, -4033.39, 7748.88, -50843.09, -3958.16, 40430.30, 11739.07, -8890.70, 0.00, 0.00, 0.00, 0.00, 0.00, 0.00, 0.00
172, 6302.86, 77574.30, 10711.78, 30793.73, -21029.39, -4033.39, 7748.88, -50843.09, -3954.92, 40473.46, 11776.31, -8963.27, 0.00, 0.00, 0.00, 0.00, 0.00, 0.00, 0.00
173, 6311.98, 77583.23, 10717.86, 30796.63, -21025.68, -4030.49, 7751.16, -50841.90, -3954.92, 40473.46, 11776.31, -8963.27, 0.00, 0.00, 0.00, 0.00, 0.00, 0.00, 0.00
174, 6311.98, 77583.23, 10717.86, 30796.63, -21025.68, -4030.49, 7751.16, -50841.90, -3953.06, 40436.45, 11745.42, -8889.02, 0.00, 0.00, 0.00, 0.00, 0.00, 0.00, 0.00
175, 6310.43, 77584.22, 10716.14, 30793.17, -21025.59, -4034.53, 7752.32, -50840.79, -3953.06, 40436.45, 11745.42, -8889.02, 0.00, 0.00, 0.00, 0.00, 0.00, 0.00, 0.00
176, 6310.43, 77584.22, 10716.14, 30793.17, -21025.59, -4034.53, 7752.32, -50840.79, -3944.41, 40478.65, 11784.49, -8955.43, 0.00, 0.00, 0.00, 0.00, 0.00, 0.00, 0.00
177, 6311.86, 77589.41, 10724.81, 30802.76, -21017.61, -4026.49, 7758.85, -50832.34, -3944.41, 40478.65, 11784.49, -8955.43, 0.00, 0.00, 0.00, 0.00, 0.06, 0.42, 0.92
178, 6311.86, 77589.41, 10724.81, 30802.76, -21017.61, -4026.49, 7758.85, -50832.34, -3956.12, 40434.98, 11747.45, -8890.72, 0.00, 0.00, 0.00, 0.00, 0.00, 0.00, 0.00
179, 6305.94, 77575.23, 10711.74, 30790.02, -21030.22, -4037.84, 7746.62, -50845.75, -3956.12, 40434.98, 11747.45, -8890.72, 0.00, 0.00, 0.00, 0.00, 0.00, 0.00, 0.00
180, 6305.94, 77575.23, 10711.74, 30790.02, -21030.22, -4037.84, 7746.62, -50845.75, -3951.56, 40473.09, 11772.98, -8959.07, 0.00, 0.00, 0.00, 0.00, 0.00, 0.00, 0.00
181, 6317.77, 77592.09, 10726.87, 30807.05, -21016.65, -4017.82, 7761.11, -50833.14, -3951.56, 40473.09, 11772.98, -8959.07, 0.00, 0.00, 0.00, 0.00, 0.00, 0.00, 0.00
182, 6317.77, 77592.09, 10726.87, 30807.05, -21016.65, -4017.82, 7761.11, -50833.14, -3954.14, 40439.42, 11749.37, -8891.39, 0.00, 0.00, 0.00, 0.00, 0.00, 0.00, 0.00
183, 6301.58, 77571.05, 10709.23, 30789.66, -21030.40, -4038.87, 7745.46, -50845.14, -3954.14, 40439.42, 11749.37, -8891.39, 0.00, 0.00, 0.00, 0.00, 0.00, 0.00, 0.00
184, 6301.58, 77571.05, 10709.23, 30789.66, -21030.40, -4038.87, 7745.46, -50845.14, -3947.74, 40474.61, 11771.39, -8944.05, 0.00, 0.00, 0.00, 0.00, 0.00, 0.00, 0.00
185, 6318.50, 77590.84, 10727.36, 30809.20, -21012.47, -4023.96, 7770.56, -50823.33, -3947.74, 40474.61, 11771.39, -8944.05, 0.00, 0.00, 0.00, 0.00, 0.00, 0.00, 0.00
186, 6318.50, 77590.84, 10727.36, 30809.20, -21012.47, -4023.96, 7770.56, -50823.33, -3950.60, 40445.43, 11753.26, -8897.07, 0.00, 0.00, 0.00, 0.00, 0.00, 0.00, 0.00
187, 6300.13, 77564.59, 10702.64, 30784.41, -21035.83, -4042.45, 7741.75, -50850.73, -3950.60, 40445.43, 11753.26, -8897.07, 0.00, 0.00, 0.00, 0.00, 0.06, 0.42, 0.92
188, 6300.13, 77564.59, 10702.64, 30784.41, -21035.83, -4042.45, 7741.75, -50850.73, -3949.24, 40464.97, 11765.64, -8944.83, 0.00, 0.00, 0.00, 0.00, 0.00, 0.00, 0.00
189, 6314.86, 77594.26, 10728.37, 30811.34, -21010.75, -4019.13, 7769.44, -50825.63, -3949.24, 40464.97, 11765.64, -8944.83, 0.00, 0.00, 0.00, 0.00, 0.00, 0.00, 0.00
190, 6314.86, 77594.26, 10728.37, 30811.34, -21010.75, -4019.13, 7769.44, -50825.63, -3954.65, 40447.22, 11758.13, -8906.43, 0.00, 0.00, 0.00, 0.00, 0.00, 0.00, 0.00
191, 6293.87, 77564.26, 10698.73, 30782.71, -21037.66, -4039.54, 7738.49, -50853.21, -3954.65, 40447.22, 11758.13, -8906.43, 0.00, 0.00, 0.00, 0.00, 0.00, 0.00, 0.00
192, 6293.87, 77564.26, 10698.73, 30782.71, -21037.66, -4039.54, 7738.49, -50853.21, -3952.10, 40458.98, 11759.72, -8938.13, 0.00, 0.00, 0.00, 0.00, 0.00, 0.00, 0.00
193, 6318.06, 77590.57, 10729.44, 30814.11, -21007.42, -4014.44, 7773.82, -50819.89, -3952.10, 40458.98, 11759.72, -8938.13, 0.00, 0.00, 0.00, 0.00, 0.00, 0.00, 0.00
194, 6318.06, 77590.57, 10729.44, 30814.11, -21007.42, -4014.44, 7773.82, -50819.89, -3952.91, 40453.41, 11760.64, -8915.46, 0.00, 0.00, 0.00, 0.00, 0.00, 0.00, 0.00
195, 6292.51, 77563.55, 10701.66, 30782.11, -21036.86, -4044.21, 7740.25, -50854.91, -3952.91, 40453.41, 11760.64, -8915.46, 0.00, 0.00, 0.00, 0.00, 0.00, 0.00, 0.00
196, 6292.51, 77563.55, 10701.66, 30782.11, -21036.86, -4044.21, 7740.25, -50854.91, -3951.25, 40452.16, 11758.45, -8927.06, 0.00, 0.00, 0.00, 0.00, 0.00, 0.00, 0.00
197, 6320.00, 77595.73, 10731.09, 30812.28, -21007.29, -4017.46, 7774.50, -50822.43, -3951.25, 40452.16, 11758.45, -8927.06, 0.00, 0.00, 0.00, 0.00, 0.06, 0.41, 0.92
198, 6320.00, 77595.73, 10731.09, 30812.28, -21007.29, -4017.46, 7774.50, -50822.43, -3953.22, 40459.05, 11768.68, -8926.39, 0.00, 0.00, 0.00, 0.00, 0.00, 0.00, 0.00
199, 6295.01, 77559.92, 10700.88, 30782.53, -21033.42, -4038.47, 7742.09, -50852.59, -3953.22, 40459.05, 11768.68, -8926.39, 0.00, 0.00, 0.00, 0.00, 0.00, 0.00, 0.00
200, 6295.01, 77559.92, 10700.88, 30782.53, -21033.42, -4038.47, 7742.09, -50852.59, -3952.17, 40444.63, 11753.46, -8923.00, 0.00, 0.00, 0.00, 0.00, 0.00, 0.00, 0.00
201, 6315.04, 77589.23, 10727.65, 30813.29, -21011.49, -4012.47, 7768.97, -50826.32, -3952.17, 40444.63, 11753.46, -8923.00, 0.00, 0.00, 0.00, 0.00, 0.00, 0.00, 0.00
202, 6315.04, 77589.23, 10727.65, 30813.29, -21011.49, -4012.47, 7768.97, -50826.32, -3952.53, 40460.72, 11772.46, -8938.42, 0.00, 0.00, 0.00, 0.00, 0.00, 0.00, 0.00
203, 6303.97, 77570.95, 10710.58, 30789.73, -21030.46, -4035.47, 7745.15, -50849.19, -3952.53, 40460.72, 11772.46, -8938.42, 0.00, 0.00, 0.00, 0.00, 0.00, 0.00, 0.00
204, 6303.97, 77570.95, 10710.58, 30789.73, -21030.46, -4035.47, 7745.15, -50849.19, -3954.81, 40442.71, 11755.79, -8907.04, 0.00, 0.00, 0.00, 0.00, 0.00, 0.00, 0.00
205, 6328.54, 77598.80, 10737.06, 30819.48, -21007.93, -4013.86, 7777.22, -50821.25, -3954.81, 40442.71, 11755.79, -8907.04, 0.00, 0.00, 0.00, 0.00, 0.00, 0.00, 0.00
206, 6328.54, 77598.80, 10737.06, 30819.48, -21007.93, -4013.86, 7777.22, -50821.25, -3954.72, 40467.07, 11780.44, -8947.96, 0.00, 0.00, 0.00, 0.00, 0.05, 0.41, 0.92
207, 6313.47, 77578.56, 10718.80, 30794.87, -21026.91, -4032.72, 7750.42, -50848.16, -3954.72, 40467.07, 11780.44, -8947.96, 0.00, 0.00, 0.00, 0.00, 0.00, 0.00, 0.00
208, 6313.47, 77578.56, 10718.80, 30794.87, -21026.91, -4032.72, 7750.42, -50848.16, -3959.12, 40434.62, 11751.14, -8903.71, 0.00, 0.00, 0.00, 0.00, 0.00, 0.00, 0.00
209, 6325.25, 77591.55, 10731.12, 30814.40, -21013.77, -4017.17, 7769.85, -50827.95, -3959.12, 40434.62, 11751.14, -8903.71, 0.00, 0.00, 0.00, 0.00, 0.00, 0.00, 0.00
210, 6325.25, 77591.55, 10731.12, 30814.40, -21013.77, -4017.17, 7769.85, -50827.95, -3952.28, 40473.35, 11776.11, -8949.53, 0.00, 0.00, 0.00, 0.00, 0.00, 0.00, 0.00
211, 6308.06, 77570.90, 10710.91, 30792.57, -21027.00, -4028.75, 7751.88, -50844.23, -3952.28, 40473.35, 11776.11, -8949.53, 0.00, 0.00, 0.00, 0.00, 0.00, 0.00, 0.00
