%OpenBCI Raw EEG Data
%
%Sample Rate = 250.0 Hz
%First Column = SampleIndex
%Other Columns = EEG data in microvolts followed by Accel Data (in G) interleaved with Aux Data
0, 0.00, 0.00, 0.00, 0.00, 0.00, 0.00, 0.00, 0.00, -2916.08, 19736.25, 4555.29, -4675.02, 0.00, 0.00, 0.00, 0.00, 0.01, 0.26, 0.43
1, 5591.83, 76147.32, 8699.75, 30600.25, -21900.02, -3773.91, 7782.81, -53056.49, -2916.08, 19736.25, 4555.29, -4675.02, 0.00, 0.00, 0.00, 0.00, 0.00, 0.00, 0.00
2, 5591.83, 76147.32, 8699.75, 30600.25, -21900.02, -3773.91, 7782.81, -53056.49, -5835.64, 39468.87, 9087.46, -9332.95, 0.00, 0.00, 0.00, 0.00, 0.00, 0.00, 0.00
3, 5596.97, 76157.40, 8708.75, 30612.75, -21891.28, -3761.44, 7796.15, -53039.41, -5835.64, 39468.87, 9087.46, -9332.95, 0.00, 0.00, 0.00, 0.00, 0.00, 0.00, 0.00
4, 5596.97, 76157.40, 8708.75, 30612.75, -21891.28, -3761.44, 7796.15, -53039.41, -5822.79, 39490.10, 9124.07, -9364.35, 0.00, 0.00, 0.00, 0.00, 0.00, 0.00, 0.00
5, 5601.03, 76160.48, 8713.04, 30610.96, -21890.45, -3764.84, 7788.11, -53045.85, -5822.79, 39490.10, 9124.07, -9364.35, 0.00, 0.00, 0.00, 0.00, 0.00, 0.00, 0.00
6, 5601.03, 76160.48, 8713.04, 30610.96, -21890.45, -3764.84, 7788.11, -53045.85, -5833.87, 39456.17, 9105.68, -9331.63, 0.00, 0.00, 0.00, 0.00, 0.02, 0.52, 0.85
7, 5598.49, 76154.36, 8709.00, 30609.84, -21898.52, -3767.81, 7782.25, -53046.99, -5833.87, 39456.17, 9105.68, -9331.63, 0.00, 0.00, 0.00, 0.00, 0.00, 0.00, 0.00
8, 5598.49, 76154.36, 8709.00, 30609.84, -21898.52, -3767.81, 7782.25, -53046.99, -5828.24, 39490.14, 9132.88, -9371.97, 0.00, 0.00, 0.00, 0.00, 0.00, 0.00, 0.00
9, 5606.40, 76170.18, 8715.19, 30612.37, -21897.02, -3763.77, 7780.26, -53044.24, -5828.24, 39490.14, 9132.88, -9371.97, 0.00, 0.00, 0.00, 0.00, 0.00, 0.00, 0.00
10, 5606.40, 76170.18, 8715.19, 30612.37, -21897.02, -3763.77, 7780.26, -53044.24, -5834.81, 39456.71, 9110.44, -9324.52, 0.00, 0.00, 0.00, 0.00, 0.00, 0.00, 0.00
11, 5600.34, 76164.38, 8710.38, 30607.18, -21904.35, -3772.26, 7773.74, -53047.91, -5834.81, 39456.71, 9110.44, -9324.52, 0.00, 0.00, 0.00, 0.00, 0.00, 0.00, 0.00
12, 5600.34, 76164.38, 8710.38, 30607.18, -21904.35, -3772.26, 7773.74, -53047.91, -5829.94, 39483.26, 9142.87, -9384.33, 0.00, 0.00, 0.00, 0.00, 0.00, 0.00, 0.00
13, 5602.67, 76159.12, 8711.57, 30610.00, -21900.08, -3765.13, 7776.10, -53037.74, -5829.94, 39483.26, 9142.87, -9384.33, 0.00, 0.00, 0.00, 0.00, 0.00, 0.00, 0.00
14, 5602.67, 76159.12, 8711.57, 30610.00, -21900.08, -3765.13, 7776.10, -53037.74, -5831.19, 39466.07, 9117.90, -9321.53, 0.00, 0.00, 0.00, 0.00, 0.00, 0.00, 0.00
15, 5598.22, 76153.40, 8704.69, 30606.55, -21912.80, -3769.62, 7765.44, -53046.72, -5831.19, 39466.07, 9117.90, -9321.53, 0.00, 0.00, 0.00, 0.00, 0.00, 0.00, 0.00
16, 5598.22, 76153.40, 8704.69, 30606.55, -21912.80, -3769.62, 7765.44, -53046.72, -5836.71, 39480.55, 9139.23, -9369.69, 0.00, 0.00, 0.00, 0.00, 0.01, 0.52, 0.86
17, 5602.11, 76162.80, 8711.55, 30608.70, -21908.78, -3769.55, 7765.55, -53043.75, -5836.71, 39480.55, 9139.23, -9369.69, 0.00, 0.00, 0.00, 0.00, 0.00, 0.00, 0.00
18, 5602.11, 76162.80, 8711.55, 30608.70, -21908.78, -3769.55, 7765.55, -53043.75, -5834.21, 39454.56, 9128.54, -9331.05, 0.00, 0.00, 0.00, 0.00, 0.00, 0.00, 0.00
19, 5590.95, 76150.94, 8703.39, 30605.08, -21920.20, -3775.28, 7754.67, -53049.29, -5834.21, 39454.56, 9128.54, -9331.05, 0.00, 0.00, 0.00, 0.00, 0.00, 0.00, 0.00
20, 5590.95, 76150.94, 8703.39, 30605.08, -21920.20, -3775.28, 7754.67, -53049.29, -5833.83, 39486.30, 9147.81, -9380.29, 0.00, 0.00, 0.00, 0.00, 0.00, 0.00, 0.00
21, 5602.42, 76166.05, 8713.78, 30615.83, -21909.25, -3764.57, 7766.07, -53037.89, -5833.83, 39486.30, 9147.81, -9380.29, 0.00, 0.00, 0.00, 0.00, 0.00, 0.00, 0.00
22, 5602.42, 76166.05, 8713.78, 30615.83, -21909.25, -3764.57, 7766.07, -53037.89, -5834.48, 39462.76, 9137.33, -9318.82, 0.00, 0.00, 0.00, 0.00, 0.00, 0.00, 0.00
23, 5593.90, 76152.70, 8701.98, 30602.49, -21927.98, -3775.41, 7747.14, -53049.76, -5834.48, 39462.76, 9137.33, -9318.82, 0.00, 0.00, 0.00, 0.00, 0.00, 0.00, 0.00
24, 5593.90, 76152.70, 8701.98, 30602.49, -21927.98, -3775.41, 7747.14, -53049.76, -5833.13, 39486.93, 9157.31, -9366.63, 0.00, 0.00, 0.00, 0.00, 0.00, 0.00, 0.00
25, 5606.98, 76167.84, 8718.03, 30618.29, -21914.92, -3761.95, 7761.26, -53038.21, -5833.13, 39486.93, 9157.31, -9366.63, 0.00, 0.00, 0.00, 0.00, 0.00, 0.00, 0.00
26, 5606.98, 76167.84, 8718.03, 30618.29, -21914.92, -3761.95, 7761.26, -53038.21, -5828.91, 39464.86, 9152.55, -9333.75, 0.00, 0.00, 0.00, 0.00, 0.01, 0.52, 0.86
27, 5594.42, 76156.98, 8704.35, 30602.09, -21931.02, -3779.99, 7740.45, -53052.78, -5828.91, 39464.86, 9152.55, -9333.75, 0.00, 0.00, 0.00, 0.00, 0.00, 0.00, 0.00
28, 5594.42, 76156.98, 8704.35, 30602.09, -21931.02, -3779.99, 7740.45, -53052.78, -5832.53, 39479.41, 9164.26, -9354.54, 0.00, 0.00, 0.00, 0.00, 0.00, 0.00, 0.00
29, 5607.76, 76171.77, 8718.34, 30616.61, -21921.18, -3766.02, 7754.87, -53039.50, -5832.53, 39479.41, 9164.26, -9354.54, 0.00, 0.00, 0.00, 0.00, 0.00, 0.00, 0.00
30, 5607.76, 76171.77, 8718.34, 30616.61, -21921.18, -3766.02, 7754.87, -53039.50, -5823.75, 39476.91, 9165.29, -9328.28, 0.00, 0.00, 0.00, 0.00, 0.00, 0.00, 0.00
31, 5591.42, 76155.30, 8705.02, 30604.90, -21935.49, -3776.57, 7739.54, -53047.17, -5823.75, 39476.91, 9165.29, -9328.28, 0.00, 0.00, 0.00, 0.00, 0.00, 0.00, 0.00
32, 5591.42, 76155.30, 8705.02, 30604.90, -21935.49, -3776.57, 7739.54, -53047.17, -5825.36, 39486.39, 9175.08, -9348.68, 0.00, 0.00, 0.00, 0.00, 0.00, 0.00, 0.00
33, 5612.59, 76170.70, 8721.23, 30619.36, -21924.38, -3762.58, 7753.75, -53031.61, -5825.36, 39486.39, 9175.08, -9348.68, 0.00, 0.00, 0.00, 0.00, 0.00, 0.00, 0.00
34, 5612.59, 76170.70, 8721.23, 30619.36, -21924.38, -3762.58, 7753.75, -53031.61, -5826.81, 39480.78, 9174.90, -9330.53, 0.00, 0.00, 0.00, 0.00, 0.00, 0.00, 0.00
35, 5594.60, 76149.71, 8701.15, 30601.41, -21942.46, -3779.57, 7732.54, -53051.13, -5826.81, 39480.78, 9174.90, -9330.53, 0.00, 0.00, 0.00, 0.00, 0.00, 0.00, 0.00
36, 5594.60, 76149.71, 8701.15, 30601.41, -21942.46, -3779.57, 7732.54, -53051.13, -5829.87, 39477.47, 9176.20, -9348.50, 0.00, 0.00, 0.00, 0.00, 0.01, 0.52, 0.86
37, 5606.85, 76171.19, 8718.92, 30622.43, -21932.56, -3763.97, 7749.28, -53035.01, -5829.87, 39477.47, 9176.20, -9348.50, 0.00, 0.00, 0.00, 0.00, 0.00, 0.00, 0.00
38, 5606.85, 76171.19, 8718.92, 30622.43, -21932.56, -3763.97, 7749.28, -53035.01, -5829.09, 39476.64, 9187.51, -9337.60, 0.00, 0.00, 0.00, 0.00, 0.00, 0.00, 0.00
39, 5602.51, 76153.89, 8702.29, 30597.57, -21948.41, -3781.65, 7727.02, -53053.50, -5829.09, 39476.64, 9187.51, -9337.60, 0.00, 0.00, 0.00, 0.00, 0.00, 0.00, 0.00
40, 5602.51, 76153.89, 8702.29, 30597.57, -21948.41, -3781.65, 7727.02, -53053.50, -5820.73, 39480.33, 9181.90, -9327.96, 0.00, 0.00, 0.00, 0.00, 0.00, 0.00, 0.00
41, 5611.96, 76189.65, 8724.91, 30619.18, -21931.66, -3765.53, 7752.17, -53026.67, -5820.73, 39480.33, 9181.90, -9327.96, 0.00, 0.00, 0.00, 0.00, 0.00, 0.00, 0.00
42, 5611.96, 76189.65, 8724.91, 30619.18, -21931.66, -3765.53, 7752.17, -53026.67, -5822.05, 39489.56, 9201.03, -9345.98, 0.00, 0.00, 0.00, 0.00, 0.00, 0.00, 0.00
43, 5591.45, 76144.57, 8696.66, 30590.64, -21961.19, -3787.99, 7718.41, -53059.82, -5822.05, 39489.56, 9201.03, -9345.98, 0.00, 0.00, 0.00, 0.00, 0.00, 0.00, 0.00
44, 5591.45, 76144.57, 8696.66, 30590.64, -21961.19, -3787.99, 7718.41, -53059.82, -5835.12, 39461.73, 9183.73, -9338.31, 0.00, 0.00, 0.00, 0.00, 0.00, 0.00, 0.00
45, 5610.11, 76170.88, 8720.40, 30618.07, -21940.25, -3770.11, 7750.58, -53029.96, -5835.12, 39461.73, 9183.73, -9338.31, 0.00, 0.00, 0.00, 0.00, 0.02, 0.52, 0.86
46, 5610.11, 76170.88, 8720.40, 30618.07, -21940.25, -3770.11, 7750.58, -53029.96, -5816.33, 39495.89, 9215.58, -9343.50, 0.00, 0.00, 0.00, 0.00, 0.00, 0.00, 0.00
47, 5603.56, 76162.02, 8706.79, 30599.11, -21960.10, -3780.75, 7721.03, -53053.54, -5816.33, 39495.89, 9215.58, -9343.50, 0.00, 0.00, 0.00, 0.00, 0.00, 0.00, 0.00
48, 5603.56, 76162.02, 8706.79, 30599.11, -21960.10, -3780.75, 7721.03, -53053.54, -5825.29, 39469.04, 9198.82, -9323.54, 0.00, 0.00, 0.00, 0.00, 0.00, 0.00, 0.00
49, 5617.98, 76186.81, 8728.51, 30622.29, -21939.94, -3765.58, 7747.11, -53025.11, -5825.29, 39469.04, 9198.82, -9323.54, 0.00, 0.00, 0.00, 0.00, 0.00, 0.00, 0.00
50, 5617.98, 76186.81, 8728.51, 30622.29, -21939.94, -3765.58, 7747.11, -53025.11, -5806.71, 39508.79, 9236.39, -9340.75, 0.00, 0.00, 0.00, 0.00, 0.00, 0.00, 0.00
51, 5614.20, 76175.59, 8720.55, 30608.43, -21950.13, -3776.55, 7734.71, -53037.67, -5806.71, 39508.79, 9236.39, -9340.75, 0.00, 0.00, 0.00, 0.00, 0.00, 0.00, 0.00
52, 5614.20, 76175.59, 8720.55, 30608.43, -21950.13, -3776.55, 7734.71, -53037.67, -5815.50, 39474.59, 9213.41, -9307.94, 0.00, 0.00, 0.00, 0.00, 0.00, 0.00, 0.00
53, 5616.79, 76185.90, 8722.75, 30616.99, -21952.47, -3772.64, 7739.16, -53035.84, -5815.50, 39474.59, 9213.41, -9307.94, 0.00, 0.00, 0.00, 0.00, 0.00, 0.00, 0.00
54, 5616.79, 76185.90, 8722.75, 30616.99, -21952.47, -3772.64, 7739.16, -53035.84, -5819.41, 39490.61, 9243.54, -9357.74, 0.00, 0.00, 0.00, 0.00, 0.00, 0.00, 0.00
55, 5606.96, 76161.13, 8712.53, 30606.91, -21963.23, -3778.54, 7723.73, -53046.92, -5819.41, 39490.61, 9243.54, -9357.74, 0.00, 0.00, 0.00, 0.00, 0.02, 0.53, 0.86
56, 5606.96, 76161.13, 8712.53, 30606.91, -21963.23, -3778.54, 7723.73, -53046.92, -5821.91, 39463.23, 9213.77, -9305.77, 0.00, 0.00, 0.00, 0.00, 0.00, 0.00, 0.00
57, 5612.23, 76167.30, 8716.24, 30614.87, -21961.77, -3777.06, 7731.13, -53040.20, -5821.91, 39463.23, 9213.77, -9305.77, 0.00, 0.00, 0.00, 0.00, 0.00, 0.00, 0.00
58, 5612.23, 76167.30, 8716.24, 30614.87, -21961.77, -3777.06, 7731.13, -53040.20, -5825.18, 39492.31, 9237.66, -9359.97, 0.00, 0.00, 0.00, 0.00, 0.00, 0.00, 0.00
59, 5605.26, 76165.47, 8708.49, 30601.04, -21972.90, -3787.95, 7721.45, -53049.47, -5825.18, 39492.31, 9237.66, -9359.97, 0.00, 0.00, 0.00, 0.00, 0.00, 0.00, 0.00
60, 5605.26, 76165.47, 8708.49, 30601.04, -21972.90, -3787.95, 7721.45, -53049.47, -5825.62, 39463.88, 9217.52, -9304.90, 0.00, 0.00, 0.00, 0.00, 0.00, 0.00, 0.00
61, 5604.52, 76163.92, 8709.96, 30606.00, -21974.74, -3784.19, 7724.61, -53044.51, -5825.62, 39463.88, 9217.52, -9304.90, 0.00, 0.00, 0.00, 0.00, 0.00, 0.00, 0.00
62, 5604.52, 76163.92, 8709.96, 30606.00, -21974.74, -3784.19, 7724.61, -53044.51, -5820.01, 39495.26, 9253.08, -9352.64, 0.00, 0.00, 0.00, 0.00, 0.00, 0.00, 0.00
63, 5614.20, 76175.48, 8716.96, 30609.97, -21969.71, -3780.37, 7721.90, -53042.03, -5820.01, 39495.26, 9253.08, -9352.64, 0.00, 0.00, 0.00, 0.00, 0.00, 0.00, 0.00
64, 5614.20, 76175.48, 8716.96, 30609.97, -21969.71, -3780.37, 7721.90, -53042.03, -5820.39, 39463.12, 9229.46, -9309.19, 0.00, 0.00, 0.00, 0.00, 0.00, 0.00, 0.00
65, 5606.40, 76162.36, 8708.42, 30604.32, -21979.21, -3789.05, 7715.73, -53051.55, -5820.39, 39463.12, 9229.46, -9309.19, 0.00, 0.00, 0.00, 0.00, 0.01, 0.53, 0.85
66, 5606.40, 76162.36, 8708.42, 30604.32, -21979.21, -3789.05, 7715.73, -53051.55, -5830.05, 39482.66, 9256.30, -9375.64, 0.00, 0.00, 0.00, 0.00, 0.00, 0.00, 0.00
67, 5609.84, 76170.80, 8714.52, 30610.67, -21980.41, -3780.98, 7719.47, -53047.19, -5830.05, 39482.66, 9256.30, -9375.64, 0.00, 0.00, 0.00, 0.00, 0.00, 0.00, 0.00
68, 5609.84, 76170.80, 8714.52, 30610.67, -21980.41, -3780.98, 7719.47, -53047.19, -5823.41, 39461.63, 9234.96, -9305.17, 0.00, 0.00, 0.00, 0.00, 0.00, 0.00, 0.00
69, 5603.20, 76165.51, 8708.60, 30599.56, -21985.91, -3793.20, 7710.32, -53049.70, -5823.41, 39461.63, 9234.96, -9305.17, 0.00, 0.00, 0.00, 0.00, 0.00, 0.00, 0.00
70, 5603.20, 76165.51, 8708.60, 30599.56, -21985.91, -3793.20, 7710.32, -53049.70, -5820.73, 39486.75, 9264.98, -9362.81, 0.00, 0.00, 0.00, 0.00, 0.00, 0.00, 0.00
71, 5610.35, 76171.16, 8717.09, 30614.80, -21978.31, -3781.58, 7720.76, -53043.95, -5820.73, 39486.75, 9264.98, -9362.81, 0.00, 0.00, 0.00, 0.00, 0.00, 0.00, 0.00
72, 5610.35, 76171.16, 8717.09, 30614.80, -21978.31, -3781.58, 7720.76, -53043.95, -5825.87, 39457.64, 9251.70, -9325.01, 0.00, 0.00, 0.00, 0.00, 0.00, 0.00, 0.00
73, 5603.58, 76158.83, 8706.76, 30596.77, -21993.40, -3793.54, 7705.92, -53054.14, -5825.87, 39457.64, 9251.70, -9325.01, 0.00, 0.00, 0.00, 0.00, 0.00, 0.00, 0.00
74, 5603.58, 76158.83, 8706.76, 30596.77, -21993.40, -3793.54, 7705.92, -53054.14, -5819.72, 39490.14, 9264.19, -9348.15, 0.00, 0.00, 0.00, 0.00, 0.00, 0.00, 0.00
75, 5612.10, 76178.50, 8718.97, 30614.56, -21982.25, -3782.09, 7722.30, -53038.70, -5819.72, 39490.14, 9264.19, -9348.15, 0.00, 0.00, 0.00, 0.00, 0.02, 0.52, 0.86
76, 5612.10, 76178.50, 8718.97, 30614.56, -21982.25, -3782.09, 7722.30, -53038.70, -5816.91, 39472.00, 9259.34, -9307.98, 0.00, 0.00, 0.00, 0.00, 0.00, 0.00, 0.00
77, 5605.06, 76163.08, 8708.69, 30601.06, -21995.59, -3794.74, 7704.24, -53055.06, -5816.91, 39472.00, 9259.34, -9307.98, 0.00, 0.00, 0.00, 0.00, 0.00, 0.00, 0.00
78, 5605.06, 76163.08, 8708.69, 30601.06, -21995.59, -3794.74, 7704.24, -53055.06, -5822.79, 39474.92, 9272.98, -9367.86, 0.00, 0.00, 0.00, 0.00, 0.00, 0.00, 0.00
79, 5608.99, 76176.87, 8718.34, 30611.88, -21991.63, -3788.40, 7718.35, -53043.35, -5822.79, 39474.92, 9272.98, -9367.86, 0.00, 0.00, 0.00, 0.00, 0.00, 0.00, 0.00
80, 5608.99, 76176.87, 8718.34, 30611.88, -21991.63, -3788.40, 7718.35, -53043.35, -5830.61, 39460.91, 9260.44, -9324.48, 0.00, 0.00, 0.00, 0.00, 0.00, 0.00, 0.00
81, 5593.03, 76142.82, 8694.65, 30592.96, -22008.35, -3800.47, 7691.19, -53062.10, -5830.61, 39460.91, 9260.44, -9324.48, 0.00, 0.00, 0.00, 0.00, 0.00, 0.00, 0.00
82, 5593.03, 76142.82, 8694.65, 30592.96, -22008.35, -3800.47, 7691.19, -53062.10, -5820.89, 39479.71, 9270.63, -9339.07, 0.00, 0.00, 0.00, 0.00, 0.00, 0.00, 0.00
83, 5607.09, 76169.80, 8713.83, 30616.01, -21991.95, -3784.73, 7715.89, -53038.95, -5820.89, 39479.71, 9270.63, -9339.07, 0.00, 0.00, 0.00, 0.00, 0.00, 0.00, 0.00
84, 5607.09, 76169.80, 8713.83, 30616.01, -21991.95, -3784.73, 7715.89, -53038.95, -5825.29, 39472.04, 9272.13, -9337.80, 0.00, 0.00, 0.00, 0.00, 0.02, 0.52, 0.86
85, 5596.09, 76149.66, 8697.15, 30590.89, -22012.00, -3806.08, 7691.17, -53061.27, -5825.29, 39472.04, 9272.13, -9337.80, 0.00, 0.00, 0.00, 0.00, 0.00, 0.00, 0.00
86, 5596.09, 76149.66, 8697.15, 30590.89, -22012.00, -3806.08, 7691.17, -53061.27, -5822.96, 39470.00, 9273.72, -9340.57, 0.00, 0.00, 0.00, 0.00, 0.00, 0.00, 0.00
87, 5612.63, 76167.73, 8720.02, 30620.93, -21991.03, -3780.51, 7719.15, -53033.56, -5822.96, 39470.00, 9273.72, -9340.57, 0.00, 0.00, 0.00, 0.00, 0.00, 0.00, 0.00
88, 5612.63, 76167.73, 8720.02, 30620.93, -21991.03, -3780.51, 7719.15, -53033.56, -5815.03, 39486.43, 9286.93, -9324.43, 0.00, 0.00, 0.00, 0.00, 0.00, 0.00, 0.00
89, 5594.31, 76146.52, 8698.96, 30595.27, -22016.33, -3800.80, 7692.96, -53058.30, -5815.03, 39486.43, 9286.93, -9324.43, 0.00, 0.00, 0.00, 0.00, 0.00, 0.00, 0.00
90, 5594.31, 76146.52, 8698.96, 30595.27, -22016.33, -3800.80, 7692.96, -53058.30, -5820.44, 39466.83, 9279.64, -9330.83, 0.00, 0.00, 0.00, 0.00, 0.00, 0.00, 0.00
91, 5612.63, 76173.49, 8720.40, 30622.40, -21999.28, -3783.17, 7713.88, -53039.30, -5820.44, 39466.83, 9279.64, -9330.83, 0.00, 0.00, 0.00, 0.00, 0.00, 0.00, 0.00
92, 5612.63, 76173.49, 8720.40, 30622.40, -21999.28, -3783.17, 7713.88, -53039.30, -5824.86, 39476.53, 9293.63, -9350.63, 0.00, 0.00, 0.00, 0.00, 0.00, 0.00, 0.00
93, 5598.40, 76145.84, 8698.92, 30597.28, -22018.28, -3799.75, 7690.10, -53060.36, -5824.86, 39476.53, 9293.63, -9350.63, 0.00, 0.00, 0.00, 0.00, 0.00, 0.00, 0.00
94, 5598.40, 76145.84, 8698.92, 30597.28, -22018.28, -3799.75, 7690.10, -53060.36, -5827.08, 39465.09, 9281.41, -9312.63, 0.00, 0.00, 0.00, 0.00, 0.02, 0.52, 0.86
95, 5614.78, 76170.36, 8718.83, 30620.77, -22004.91, -3785.71, 7711.73, -53036.93, -5827.08, 39465.09, 9281.41, -9312.63, 0.00, 0.00, 0.00, 0.00, 0.00, 0.00, 0.00
96, 5614.78, 76170.36, 8718.83, 30620.77, -22004.91, -3785.71, 7711.73, -53036.93, -5816.37, 39491.13, 9311.27, -9344.46, 0.00, 0.00, 0.00, 0.00, 0.00, 0.00, 0.00
97, 5601.41, 76157.51, 8708.17, 30603.74, -22014.66, -3794.30, 7701.02, -53048.24, -5816.37, 39491.13, 9311.27, -9344.46, 0.00, 0.00, 0.00, 0.00, 0.00, 0.00, 0.00
98, 5601.41, 76157.51, 8708.17, 30603.74, -22014.66, -3794.30, 7701.02, -53048.24, -5820.93, 39462.90, 9291.37, -9309.81, 0.00, 0.00, 0.00, 0.00, 0.00, 0.00, 0.00
99, 5608.77, 76170.80, 8718.97, 30618.58, -22009.31, -3787.19, 7711.13, -53038.70, -5820.93, 39462.90, 9291.37, -9309.81, 0.00, 0.00, 0.00, 0.00, 0.00, 0.00, 0.00
100, 5608.77, 76170.80, 8718.97, 30618.58, -22009.31, -3787.19, 7711.13, -53038.70, -5821.85, 39486.32, 9314.89, -9355.70, 0.00, 0.00, 0.00, 0.00, 0.00, 0.00, 0.00
101, 5596.63, 76155.12, 8703.14, 30601.75, -22022.03, -3799.51, 7693.96, -53053.61, -5821.85, 39486.32, 9314.89, -9355.70, 0.00, 0.00, 0.00, 0.00, 0.00, 0.00, 0.00
102, 5596.63, 76155.12, 8703.14, 30601.75, -22022.03, -3799.51, 7693.96, -53053.61, -5818.63, 39465.54, 9295.67, -9297.50, 0.00, 0.00, 0.00, 0.00, 0.00, 0.00, 0.00
103, 5609.95, 76171.39, 8717.49, 30616.70, -22010.03, -3785.94, 7712.16, -53032.77, -5818.63, 39465.54, 9295.67, -9297.50, 0.00, 0.00, 0.00, 0.00, 0.00, 0.00, 0.00
104, 5609.95, 76171.39, 8717.49, 30616.70, -22010.03, -3785.94, 7712.16, -53032.77, -5808.75, 39503.87, 9335.23, -9354.92, 0.00, 0.00, 0.00, 0.00, 0.02, 0.52, 0.86
105, 5614.45, 76169.83, 8717.52, 30612.37, -22011.33, -3792.60, 7706.37, -53037.16, -5808.75, 39503.87, 9335.23, -9354.92, 0.00, 0.00, 0.00, 0.00, 0.00, 0.00, 0.00
106, 5614.45, 76169.83, 8717.52, 30612.37, -22011.33, -3792.60, 7706.37, -53037.16, -5812.86, 39468.84, 9312.54, -9290.50, 0.00, 0.00, 0.00, 0.00, 0.00, 0.00, 0.00
107, 5611.43, 76167.63, 8718.16, 30617.60, -22013.99, -3790.77, 7710.03, -53034.16, -5812.86, 39468.84, 9312.54, -9290.50, 0.00, 0.00, 0.00, 0.00, 0.00, 0.00, 0.00
108, 5611.43, 76167.63, 8718.16, 30617.60, -22013.99, -3790.77, 7710.03, -53034.16, -5815.99, 39493.70, 9335.32, -9351.48, 0.00, 0.00, 0.00, 0.00, 0.00, 0.00, 0.00
109, 5608.39, 76164.05, 8716.44, 30614.04, -22018.10, -3790.14, 7707.51, -53037.71, -5815.99, 39493.70, 9335.32, -9351.48, 0.00, 0.00, 0.00, 0.00, 0.00, 0.00, 0.00
110, 5608.39, 76164.05, 8716.44, 30614.04, -22018.10, -3790.14, 7707.51, -53037.71, -5810.92, 39468.60, 9321.35, -9297.12, 0.00, 0.00, 0.00, 0.00, 0.00, 0.00, 0.00
111, 5615.74, 76177.27, 8723.55, 30619.92, -22012.56, -3786.59, 7712.40, -53029.94, -5810.92, 39468.60, 9321.35, -9297.12, 0.00, 0.00, 0.00, 0.00, 0.00, 0.00, 0.00
112, 5615.74, 76177.27, 8723.55, 30619.92, -22012.56, -3786.59, 7712.40, -53029.94, -5804.37, 39507.78, 9355.52, -9336.79, 0.00, 0.00, 0.00, 0.00, 0.00, 0.00, 0.00
113, 5614.00, 76174.16, 8723.28, 30620.86, -22011.55, -3786.56, 7714.01, -53029.54, -5804.37, 39507.78, 9355.52, -9336.79, 0.00, 0.00, 0.00, 0.00, 0.00, 0.00, 0.00
114, 5614.00, 76174.16, 8723.28, 30620.86, -22011.55, -3786.56, 7714.01, -53029.54, -5813.11, 39468.93, 9327.36, -9287.42, 0.00, 0.00, 0.00, 0.00, 0.02, 0.52, 0.86
115, 5618.89, 76169.78, 8724.38, 30623.07, -22017.41, -3784.64, 7714.06, -53028.95, -5813.11, 39468.93, 9327.36, -9287.42, 0.00, 0.00, 0.00, 0.00, 0.00, 0.00, 0.00
116, 5618.89, 76169.78, 8724.38, 30623.07, -22017.41, -3784.64, 7714.06, -53028.95, -5805.64, 39502.21, 9361.60, -9342.40, 0.00, 0.00, 0.00, 0.00, 0.00, 0.00, 0.00
117, 5622.34, 76180.20, 8729.70, 30626.43, -22014.37, -3786.14, 7717.27, -53028.44, -5805.64, 39502.21, 9361.60, -9342.40, 0.00, 0.00, 0.00, 0.00, 0.00, 0.00, 0.00
118, 5622.34, 76180.20, 8729.70, 30626.43, -22014.37, -3786.14, 7717.27, -53028.44, -5812.71, 39465.13, 9340.10, -9300.16, 0.00, 0.00, 0.00, 0.00, 0.00, 0.00, 0.00
119, 5612.05, 76174.72, 8722.77, 30616.61, -22022.95, -3795.68, 7706.08, -53036.33, -5812.71, 39465.13, 9340.10, -9300.16, 0.00, 0.00, 0.00, 0.00, 0.00, 0.00, 0.00
120, 5612.05, 76174.72, 8722.77, 30616.61, -22022.95, -3795.68, 7706.08, -53036.33, -5804.03, 39497.95, 9367.24, -9342.20, 0.00, 0.00, 0.00, 0.00, 0.00, 0.00, 0.00
121, 5629.78, 76185.43, 8738.91, 30635.93, -22006.48, -3774.99, 7726.73, -53015.39, -5804.03, 39497.95, 9367.24, -9342.20, 0.00, 0.00, 0.00, 0.00, 0.00, 0.00, 0.00
122, 5629.78, 76185.43, 8738.91, 30635.93, -22006.48, -3774.99, 7726.73, -53015.39, -5805.35, 39478.10, 9354.76, -9294.32, 0.00, 0.00, 0.00, 0.00, 0.00, 0.00, 0.00
123, 5605.66, 76166.16, 8718.99, 30612.95, -22028.20, -3796.15, 7703.04, -53038.74, -5805.35, 39478.10, 9354.76, -9294.32, 0.00, 0.00, 0.00, 0.00, 0.01, 0.52, 0.86
124, 5605.66, 76166.16, 8718.99, 30612.95, -22028.20, -3796.15, 7703.04, -53038.74, -5807.41, 39494.52, 9367.19, -9331.56, 0.00, 0.00, 0.00, 0.00, 0.00, 0.00, 0.00
125, 5618.33, 76181.58, 8731.75, 30631.79, -22014.05, -3782.63, 7723.89, -53020.19, -5807.41, 39494.52, 9367.19, -9331.56, 0.00, 0.00, 0.00, 0.00, 0.00, 0.00, 0.00
126, 5618.33, 76181.58, 8731.75, 30631.79, -22014.05, -3782.63, 7723.89, -53020.19, -5807.43, 39480.04, 9358.72, -9295.49, 0.00, 0.00, 0.00, 0.00, 0.00, 0.00, 0.00
127, 5615.36, 76162.92, 8716.64, 30612.32, -22031.76, -3797.76, 7702.52, -53037.25, -5807.43, 39480.04, 9358.72, -9295.49, 0.00, 0.00, 0.00, 0.00, 0.00, 0.00, 0.00
128, 5615.36, 76162.92, 8716.64, 30612.32, -22031.76, -3797.76, 7702.52, -53037.25, -5799.45, 39499.80, 9378.95, -9321.50, 0.00, 0.00, 0.00, 0.00, 0.00, 0.00, 0.00
129, 5630.20, 76194.13, 8743.49, 30637.74, -22007.53, -3779.79, 7730.40, -53013.98, -5799.45, 39499.80, 9378.95, -9321.50, 0.00, 0.00, 0.00, 0.00, 0.00, 0.00, 0.00
130, 5630.20, 76194.13, 8743.49, 30637.74, -22007.53, -3779.79, 7730.40, -53013.98, -5797.24, 39484.29, 9387.38, -9307.76, 0.00, 0.00, 0.00, 0.00, 0.00, 0.00, 0.00
131, 5614.15, 76169.58, 8724.15, 30616.12, -22024.54, -3796.51, 7706.55, -53033.27, -5797.24, 39484.29, 9387.38, -9307.76, 0.00, 0.00, 0.00, 0.00, 0.00, 0.00, 0.00
132, 5614.15, 76169.58, 8724.15, 30616.12, -22024.54, -3796.51, 7706.55, -53033.27, -5799.07, 39488.25, 9383.75, -9313.21, 0.00, 0.00, 0.00, 0.00, 0.00, 0.00, 0.00
133, 5624.32, 76184.13, 8736.56, 30638.92, -22017.56, -3778.65, 7725.19, -53017.49, -5799.07, 39488.25, 9383.75, -9313.21, 0.00, 0.00, 0.00, 0.00, 0.01, 0.52, 0.86
134, 5624.32, 76184.13, 8736.56, 30638.92, -22017.56, -3778.65, 7725.19, -53017.49, -5807.05, 39485.47, 9376.80, -9314.17, 0.00, 0.00, 0.00, 0.00, 0.00, 0.00, 0.00
135, 5605.10, 76158.83, 8711.88, 30610.85, -22041.66, -3799.95, 7702.41, -53039.17, -5807.05, 39485.47, 9376.80, -9314.17, 0.00, 0.00, 0.00, 0.00, 0.00, 0.00, 0.00
136, 5605.10, 76158.83, 8711.88, 30610.85, -22041.66, -3799.95, 7702.41, -53039.17, -5806.16, 39485.00, 9370.63, -9308.16, 0.00, 0.00, 0.00, 0.00, 0.00, 0.00, 0.00
137, 5611.52, 76179.23, 8731.46, 30637.00, -22015.98, -3780.75, 7728.12, -53013.46, -5806.16, 39485.00, 9370.63, -9308.16, 0.00, 0.00, 0.00, 0.00, 0.00, 0.00, 0.00
138, 5611.52, 76179.23, 8731.46, 30637.00, -22015.98, -3780.75, 7728.12, -53013.46, -5802.92, 39495.42, 9387.58, -9315.09, 0.00, 0.00, 0.00, 0.00, 0.00, 0.00, 0.00
139, 5599.04, 76149.26, 8710.54, 30610.80, -22040.50, -3801.18, 7696.71, -53039.93, -5802.92, 39495.42, 9387.58, -9315.09, 0.00, 0.00, 0.00, 0.00, 0.00, 0.00, 0.00
140, 5599.04, 76149.26, 8710.54, 30610.80, -22040.50, -3801.18, 7696.71, -53039.93, -5806.04, 39471.50, 9373.65, -9308.18, 0.00, 0.00, 0.00, 0.00, 0.00, 0.00, 0.00
141, 5615.72, 76178.37, 8731.91, 30637.00, -22024.02, -3781.58, 7724.32, -53018.09, -5806.04, 39471.50, 9373.65, -9308.18, 0.00, 0.00, 0.00, 0.00, 0.00, 0.00, 0.00
142, 5615.72, 76178.37, 8731.91, 30637.00, -22024.02, -3781.58, 7724.32, -53018.09, -5802.02, 39498.14, 9392.56, -9325.66, 0.00, 0.00, 0.00, 0.00, 0.00, 0.00, 0.00
143, 5596.74, 76154.36, 8709.27, 30607.03, -22043.07, -3808.92, 7702.81, -53037.60, -5802.02, 39498.14, 9392.56, -9325.66, 0.00, 0.00, 0.00, 0.00, 0.02, 0.52, 0.86
144, 5596.74, 76154.36, 8709.27, 30607.03, -22043.07, -3808.92, 7702.81, -53037.60, -5804.17, 39475.44, 9373.52, -9287.48, 0.00, 0.00, 0.00, 0.00, 0.00, 0.00, 0.00
145, 5614.22, 76181.60, 8731.78, 30634.76, -22019.20, -3782.90, 7731.11, -53007.79, -5804.17, 39475.44, 9373.52, -9287.48, 0.00, 0.00, 0.00, 0.00, 0.00, 0.00, 0.00
146, 5614.22, 76181.60, 8731.78, 30634.76, -22019.20, -3782.90, 7731.11, -53007.79, -5790.85, 39511.89, 9408.63, -9315.16, 0.00, 0.00, 0.00, 0.00, 0.00, 0.00, 0.00
147, 5614.24, 76177.80, 8725.88, 30626.96, -22023.62, -3790.68, 7716.34, -53019.59, -5790.85, 39511.89, 9408.63, -9315.16, 0.00, 0.00, 0.00, 0.00, 0.00, 0.00, 0.00
148, 5614.24, 76177.80, 8725.88, 30626.96, -22023.62, -3790.68, 7716.34, -53019.59, -5788.68, 39490.88, 9391.08, -9272.53, 0.00, 0.00, 0.00, 0.00, 0.00, 0.00, 0.00
149, 5621.78, 76182.88, 8736.29, 30644.64, -22012.60, -3774.11, 7737.75, -52999.36, -5788.68, 39490.88, 9391.08, -9272.53, 0.00, 0.00, 0.00, 0.00, 0.00, 0.00, 0.00
150, 5621.78, 76182.88, 8736.29, 30644.64, -22012.60, -3774.11, 7737.75, -52999.36, -5783.74, 39523.70, 9417.30, -9318.84, 0.00, 0.00, 0.00, 0.00, 0.00, 0.00, 0.00
151, 5611.67, 76162.80, 8719.53, 30629.60, -22028.94, -3786.27, 7715.46, -53017.11, -5783.74, 39523.70, 9417.30, -9318.84, 0.00, 0.00, 0.00, 0.00, 0.00, 0.00, 0.00
152, 5611.67, 76162.80, 8719.53, 30629.60, -22028.94, -3786.27, 7715.46, -53017.11, -5796.79, 39479.21, 9389.43, -9271.01, 0.00, 0.00, 0.00, 0.00, 0.00, 0.00, 0.00
153, 5618.83, 76182.30, 8733.41, 30639.39, -22021.32, -3783.21, 7729.37, -53009.86, -5796.79, 39479.21, 9389.43, -9271.01, 0.00, 0.00, 0.00, 0.00, 0.01, 0.52, 0.86
154, 5618.83, 76182.30, 8733.41, 30639.39, -22021.32, -3783.21, 7729.37, -53009.86, -5791.65, 39509.03, 9423.16, -9324.32, 0.00, 0.00, 0.00, 0.00, 0.00, 0.00, 0.00
155, 5613.75, 76173.34, 8724.27, 30629.67, -22026.84, -3792.73, 7722.86, -53013.87, -5791.65, 39509.03, 9423.16, -9324.32, 0.00, 0.00, 0.00, 0.00, 0.00, 0.00, 0.00
156, 5613.75, 76173.34, 8724.27, 30629.67, -22026.84, -3792.73, 7722.86, -53013.87, -5790.80, 39478.36, 9399.22, -9272.38, 0.00, 0.00, 0.00, 0.00, 0.00, 0.00, 0.00
157, 5615.58, 76184.96, 8729.90, 30635.12, -22023.66, -3785.09, 7727.31, -53006.22, -5790.80, 39478.36, 9399.22, -9272.38, 0.00, 0.00, 0.00, 0.00, 0.00, 0.00, 0.00
158, 5615.58, 76184.96, 8729.90, 30635.12, -22023.66, -3785.09, 7727.31, -53006.22, -5784.34, 39518.33, 9431.39, -9319.65, 0.00, 0.00, 0.00, 0.00, 0.00, 0.00, 0.00
159, 5618.49, 76167.55, 8725.32, 30634.85, -22026.93, -3787.28, 7726.15, -53008.75, -5784.34, 39518.33, 9431.39, -9319.65, 0.00, 0.00, 0.00, 0.00, 0.00, 0.00, 0.00
160, 5618.49, 76167.55, 8725.32, 30634.85, -22026.93, -3787.28, 7726.15, -53008.75, -5797.13, 39480.91, 9400.83, -9265.07, 0.00, 0.00, 0.00, 0.00, 0.00, 0.00, 0.00
161, 5612.03, 76170.70, 8722.90, 30630.07, -22027.49, -3789.96, 7722.57, -53011.00, -5797.13, 39480.91, 9400.83, -9265.07, 0.00, 0.00, 0.00, 0.00, 0.00, 0.00, 0.00
162, 5612.03, 76170.70, 8722.90, 30630.07, -22027.49, -3789.96, 7722.57, -53011.00, -5790.76, 39509.19, 9433.29, -9324.32, 0.00, 0.00, 0.00, 0.00, 0.02, 0.52, 0.86
163, 5628.42, 76190.19, 8735.58, 30644.04, -22016.96, -3781.11, 7738.73, -53002.67, -5790.76, 39509.19, 9433.29, -9324.32, 0.00, 0.00, 0.00, 0.00, 0.00, 0.00, 0.00
164, 5628.42, 76190.19, 8735.58, 30644.04, -22016.96, -3781.11, 7738.73, -53002.67, -5790.00, 39483.75, 9409.03, -9272.29, 0.00, 0.00, 0.00, 0.00, 0.00, 0.00, 0.00
165, 5611.38, 76166.98, 8718.21, 30629.87, -22033.81, -3792.08, 7716.47, -53013.55, -5790.00, 39483.75, 9409.03, -9272.29, 0.00, 0.00, 0.00, 0.00, 0.00, 0.00, 0.00
166, 5611.38, 76166.98, 8718.21, 30629.87, -22033.81, -3792.08, 7716.47, -53013.55, -5788.36, 39512.83, 9436.08, -9321.44, 0.00, 0.00, 0.00, 0.00, 0.00, 0.00, 0.00
167, 5616.21, 76176.15, 8731.95, 30644.73, -22018.28, -3777.00, 7738.58, -52998.11, -5788.36, 39512.83, 9436.08, -9321.44, 0.00, 0.00, 0.00, 0.00, 0.00, 0.00, 0.00
168, 5616.21, 76176.15, 8731.95, 30644.73, -22018.28, -3777.00, 7738.58, -52998.11, -5791.14, 39488.42, 9414.71, -9259.95, 0.00, 0.00, 0.00, 0.00, 0.00, 0.00, 0.00
169, 5603.56, 76152.95, 8711.55, 30624.50, -22040.05, -3793.43, 7720.34, -53014.13, -5791.14, 39488.42, 9414.71, -9259.95, 0.00, 0.00, 0.00, 0.00, 0.00, 0.00, 0.00
170, 5603.56, 76152.95, 8711.55, 30624.50, -22040.05, -3793.43, 7720.34, -53014.13, -5790.53, 39510.33, 9432.37, -9319.02, 0.00, 0.00, 0.00, 0.00, 0.00, 0.00, 0.00
171, 5615.74, 76172.82, 8727.44, 30641.51, -22023.91, -3781.85, 7737.57, -52998.98, -5790.53, 39510.33, 9432.37, -9319.02, 0.00, 0.00, 0.00, 0.00, 0.00, 0.00, 0.00
172, 5615.74, 76172.82, 8727.44, 30641.51, -22023.91, -3781.85, 7737.57, -52998.98, -5790.46, 39487.30, 9430.58, -9274.57, 0.00, 0.00, 0.00, 0.00, 0.01, 0.51, 0.86
173, 5611.83, 76173.13, 8725.20, 30628.95, -22025.50, -3791.88, 7725.59, -53010.60, -5790.46, 39487.30, 9430.58, -9274.57, 0.00, 0.00, 0.00, 0.00, 0.00, 0.00, 0.00
174, 5611.83, 76173.13, 8725.20, 30628.95, -22025.50, -3791.88, 7725.59, -53010.60, -5779.94, 39513.30, 9450.34, -9301.86, 0.00, 0.00, 0.00, 0.00, 0.00, 0.00, 0.00
175, 5630.00, 76191.10, 8739.55, 30645.94, -22015.98, -3778.63, 7742.89, -52995.78, -5779.94, 39513.30, 9450.34, -9301.86, 0.00, 0.00, 0.00, 0.00, 0.00, 0.00, 0.00
176, 5630.00, 76191.10, 8739.55, 30645.94, -22015.98, -3778.63, 7742.89, -52995.78, -5793.95, 39486.77, 9443.39, -9286.08, 0.00, 0.00, 0.00, 0.00, 0.00, 0.00, 0.00
177, 5616.70, 76170.36, 8724.06, 30629.29, -22035.22, -3794.14, 7721.92, -53016.77, -5793.95, 39486.77, 9443.39, -9286.08, 0.00, 0.00, 0.00, 0.00, 0.00, 0.00, 0.00
178, 5616.70, 76170.36, 8724.06, 30629.29, -22035.22, -3794.14, 7721.92, -53016.77, -5784.12, 39504.20, 9452.11, -9311.69, 0.00, 0.00, 0.00, 0.00, 0.00, 0.00, 0.00
179, 5618.69, 76178.99, 8735.82, 30643.95, -22021.43, -3780.60, 7741.64, -52996.21, -5784.12, 39504.20, 9452.11, -9311.69, 0.00, 0.00, 0.00, 0.00, 0.00, 0.00, 0.00
180, 5618.69, 76178.99, 8735.82, 30643.95, -22021.43, -3780.60, 7741.64, -52996.21, -5784.90, 39498.95, 9452.17, -9278.97, 0.00, 0.00, 0.00, 0.00, 0.00, 0.00, 0.00
181, 5617.53, 76169.42, 8727.89, 30631.03, -22027.11, -3791.95, 7730.57, -53004.37, -5784.90, 39498.95, 9452.17, -9278.97, 0.00, 0.00, 0.00, 0.00, 0.00, 0.00, 0.00
182, 5617.53, 76169.42, 8727.89, 30631.03, -22027.11, -3791.95, 7730.57, -53004.37, -5777.61, 39512.47, 9464.71, -9284.22, 0.00, 0.00, 0.00, 0.00, 0.01, 0.52, 0.85
183, 5634.38, 76199.71, 8748.56, 30652.78, -22009.61, -3773.18, 7751.09, -52983.91, -5777.61, 39512.47, 9464.71, -9284.22, 0.00, 0.00, 0.00, 0.00, 0.00, 0.00, 0.00
184, 5634.38, 76199.71, 8748.56, 30652.78, -22009.61, -3773.18, 7751.09, -52983.91, -5775.53, 39510.39, 9469.23, -9299.15, 0.00, 0.00, 0.00, 0.00, 0.00, 0.00, 0.00
185, 5617.57, 76176.76, 8728.92, 30629.67, -22031.26, -3791.73, 7727.85, -53005.59, -5775.53, 39510.39, 9469.23, -9299.15, 0.00, 0.00, 0.00, 0.00, 0.00, 0.00, 0.00
186, 5617.57, 76176.76, 8728.92, 30629.67, -22031.26, -3791.73, 7727.85, -53005.59, -5780.34, 39500.52, 9462.99, -9286.84, 0.00, 0.00, 0.00, 0.00, 0.00, 0.00, 0.00
187, 5633.22, 76188.91, 8743.29, 30645.22, -22013.90, -3780.75, 7750.49, -52986.57, -5780.34, 39500.52, 9462.99, -9286.84, 0.00, 0.00, 0.00, 0.00, 0.00, 0.00, 0.00
188, 5633.22, 76188.91, 8743.29, 30645.22, -22013.90, -3780.75, 7750.49, -52986.57, -5777.70, 39508.99, 9478.73, -9299.17, 0.00, 0.00, 0.00, 0.00, 0.00, 0.00, 0.00
189, 5620.59, 76175.62, 8732.25, 30629.29, -22027.51, -3794.90, 7729.57, -53006.63, -5777.70, 39508.99, 9478.73, -9299.17, 0.00, 0.00, 0.00, 0.00, 0.00, 0.00, 0.00
190, 5620.59, 76175.62, 8732.25, 30629.29, -22027.51, -3794.90, 7729.57, -53006.63, -5771.76, 39503.06, 9476.80, -9281.61, 0.00, 0.00, 0.00, 0.00, 0.00, 0.00, 0.00
191, 5638.18, 76204.20, 8756.47, 30654.97, -22009.29, -3774.47, 7755.18, -52983.58, -5771.76, 39503.06, 9476.80, -9281.61, 0.00, 0.00, 0.00, 0.00, 0.00, 0.00, 0.00
192, 5638.18, 76204.20, 8756.47, 30654.97, -22009.29, -3774.47, 7755.18, -52983.58, -5770.71, 39518.84, 9498.62, -9307.11, 0.00, 0.00, 0.00, 0.00, 0.01, 0.52, 0.86
193, 5619.27, 76173.85, 8733.05, 30631.95, -22022.37, -3794.21, 7734.71, -53000.25, -5770.71, 39518.84, 9498.62, -9307.11, 0.00, 0.00, 0.00, 0.00, 0.00, 0.00, 0.00
194, 5619.27, 76173.85, 8733.05, 30631.95, -22022.37, -3794.21, 7734.71, -53000.25, -5776.79, 39490.01, 9474.77, -9273.18, 0.00, 0.00, 0.00, 0.00, 0.00, 0.00, 0.00
195, 5626.25, 76196.80, 8747.91, 30649.07, -22011.19, -3779.14, 7750.02, -52984.32, -5776.79, 39490.01, 9474.77, -9273.18, 0.00, 0.00, 0.00, 0.00, 0.00, 0.00, 0.00
196, 5626.25, 76196.80, 8747.91, 30649.07, -22011.19, -3779.14, 7750.02, -52984.32, -5762.55, 39525.01, 9508.90, -9313.41, 0.00, 0.00, 0.00, 0.00, 0.00, 0.00, 0.00
197, 5620.64, 76179.70, 8737.39, 30631.32, -22019.33, -3793.23, 7739.11, -52993.82, -5762.55, 39525.01, 9508.90, -9313.41, 0.00, 0.00, 0.00, 0.00, 0.00, 0.00, 0.00
198, 5620.64, 76179.70, 8737.39, 30631.32, -22019.33, -3793.23, 7739.11, -52993.82, -5764.60, 39497.23, 9490.73, -9261.40, 0.00, 0.00, 0.00, 0.00, 0.00, 0.00, 0.00
199, 5634.25, 76196.67, 8752.83, 30650.30, -22004.87, -3780.64, 7759.14, -52975.13, -5764.60, 39497.23, 9490.73, -9261.40, 0.00, 0.00, 0.00, 0.00, 0.00, 0.00, 0.00
200, 5634.25, 76196.67, 8752.83, 30650.30, -22004.87, -3780.64, 7759.14, -52975.13, -5754.19, 39534.20, 9525.51, -9308.34, 0.00, 0.00, 0.00, 0.00, 0.00, 0.00, 0.00
201, 5628.68, 76192.80, 8745.86, 30640.26, -22007.15, -3784.93, 7751.05, -52981.39, -5754.19, 39534.20, 9525.51, -9308.34, 0.00, 0.00, 0.00, 0.00, 0.01, 0.52, 0.86
202, 5628.68, 76192.80, 8745.86, 30640.26, -22007.15, -3784.93, 7751.05, -52981.39, -5761.09, 39497.52, 9499.18, -9261.62, 0.00, 0.00, 0.00, 0.00, 0.00, 0.00, 0.00
203, 5633.44, 76199.28, 8751.80, 30647.97, -22004.58, -3780.66, 7760.41, -52974.04, -5761.09, 39497.52, 9499.18, -9261.62, 0.00, 0.00, 0.00, 0.00, 0.00, 0.00, 0.00
204, 5633.44, 76199.28, 8751.80, 30647.97, -22004.58, -3780.66, 7760.41, -52974.04, -5749.90, 39540.14, 9532.75, -9313.08, 0.00, 0.00, 0.00, 0.00, 0.00, 0.00, 0.00
205, 5631.86, 76198.13, 8748.67, 30640.11, -22006.72, -3788.73, 7754.36, -52979.11, -5749.90, 39540.14, 9532.75, -9313.08, 0.00, 0.00, 0.00, 0.00, 0.00, 0.00, 0.00
206, 5631.86, 76198.13, 8748.67, 30640.11, -22006.72, -3788.73, 7754.36, -52979.11, -5762.08, 39493.99, 9504.72, -9262.00, 0.00, 0.00, 0.00, 0.00, 0.00, 0.00, 0.00
207, 5627.72, 76187.73, 8748.16, 30640.71, -22010.14, -3789.54, 7756.48, -52980.11, -5762.08, 39493.99, 9504.72, -9262.00, 0.00, 0.00, 0.00, 0.00, 0.00, 0.00, 0.00
208, 5627.72, 76187.73, 8748.16, 30640.71, -22010.14, -3789.54, 7756.48, -52980.11, -5757.50, 39529.44, 9531.23, -9323.20, 0.00, 0.00, 0.00, 0.00, 0.00, 0.00, 0.00
209, 5631.16, 76187.64, 8745.72, 30644.78, -22008.64, -3786.07, 7755.32, -52980.18, -5757.50, 39529.44, 9531.23, -9323.20, 0.00, 0.00, 0.00, 0.00, 0.00, 0.00, 0.00
210, 5631.16, 76187.64, 8745.72, 30644.78, -22008.64, -3786.07, 7755.32, -52980.18, -5760.71, 39495.04, 9507.05, -9268.17, 0.00, 0.00, 0.00, 0.00, 0.00, 0.00, 0.00
211, 5628.82, 76198.26, 8748.05, 30640.60, -22010.03, -3790.36, 7754.67, -52980.45, -5760.71, 39495.04, 9507.05, -9268.17, 0.00, 0.00, 0.00, 0.00, 0.01, 0.52, 0.86
212, 5628.82, 76198.26, 8748.05, 30640.60, -22010.03, -3790.36, 7754.67, -52980.45, -5749.81, 39534.29, 9539.50, -9319.47, 0.00, 0.00, 0.00, 0.00, 0.00, 0.00, 0.00
213, 5626.47, 76187.77, 8748.14, 30646.72, -22000.96, -3784.71, 7764.24, -52971.15, -5749.81, 39534.29, 9539.50, -9319.47, 0.00, 0.00, 0.00, 0.00, 0.00, 0.00, 0.00
214, 5626.47, 76187.77, 8748.14, 30646.72, -22000.96, -3784.71, 7764.24, -52971.15, -5755.33, 39504.45, 9518.74, -9258.94, 0.00, 0.00, 0.00, 0.00, 0.00, 0.00, 0.00
215, 5627.70, 76180.89, 8743.89, 30638.85, -22007.24, -3792.24, 7754.07, -52979.33, -5755.33, 39504.45, 9518.74, -9258.94, 0.00, 0.00, 0.00, 0.00, 0.00, 0.00, 0.00
216, 5627.70, 76180.89, 8743.89, 30638.85, -22007.24, -3792.24, 7754.07, -52979.33, -5749.94, 39528.07, 9543.12, -9324.50, 0.00, 0.00, 0.00, 0.00, 0.00, 0.00, 0.00
217, 5638.79, 76197.79, 8762.31, 30655.93, -21996.31, -3777.49, 7771.17, -52965.50, -5749.94, 39528.07, 9543.12, -9324.50, 0.00, 0.00, 0.00, 0.00, 0.00, 0.00, 0.00
218, 5638.79, 76197.79, 8762.31, 30655.93, -21996.31, -3777.49, 7771.17, -52965.50, -5746.16, 39505.50, 9566.34, -9263.12, 0.00, 0.00, 0.00, 0.00, 0.00, 0.00, 0.00
219, 5643.35, 76204.90, 8777.55, 30664.54, -21984.82, -3777.80, 7770.81, -52971.93, -5746.16, 39505.50, 9566.34, -9263.12, 0.00, 0.00, 0.00, 0.00, 0.00, 0.00, 0.00
220, 5643.35, 76204.90, 8777.55, 30664.54, -21984.82, -3777.80, 7770.81, -52971.93, -5764.34, 39511.54, 9541.22, -9320.61, 0.00, 0.00, 0.00, 0.00, 0.00, 0.00, 0.00
221, 5625.80, 76183.21, 8735.89, 30607.76, -22033.23, -3810.59, 7742.38, -52991.47, -5764.34, 39511.54, 9541.22, -9320.61, 0.00, 0.00, 0.00, 0.00, 0.01, 0.52, 0.86
222, 5625.80, 76183.21, 8735.89, 30607.76, -22033.23, -3810.59, 7742.38, -52991.47, -5765.72, 39489.36, 9546.65, -9297.23, 0.00, 0.00, 0.00, 0.00, 0.00, 0.00, 0.00
223, 5643.03, 76199.82, 8758.73, 30607.12, -22027.31, -3814.24, 7741.37, -52994.42, -5765.72, 39489.36, 9546.65, -9297.23, 0.00, 0.00, 0.00, 0.00, 0.00, 0.00, 0.00
224, 5643.03, 76199.82, 8758.73, 30607.12, -22027.31, -3814.24, 7741.37, -52994.42, -5754.08, 39516.36, 9590.46, -9322.82, 0.00, 0.00, 0.00, 0.00, 0.00, 0.00, 0.00
225, 5660.47, 76223.07, 8777.51, 30621.44, -22012.00, -3797.38, 7760.35, -52973.92, -5754.08, 39516.36, 9590.46, -9322.82, 0.00, 0.00, 0.00, 0.00, 0.00, 0.00, 0.00
226, 5660.47, 76223.07, 8777.51, 30621.44, -22012.00, -3797.38, 7760.35, -52973.92, -5756.56, 39504.98, 9592.47, -9281.85, 0.00, 0.00, 0.00, 0.00, 0.00, 0.00, 0.00
227, 5648.38, 76208.02, 8768.75, 30598.33, -22021.88, -3811.80, 7740.21, -52989.68, -5756.56, 39504.98, 9592.47, -9281.85, 0.00, 0.00, 0.00, 0.00, 0.00, 0.00, 0.00
228, 5648.38, 76208.02, 8768.75, 30598.33, -22021.88, -3811.80, 7740.21, -52989.68, -5745.45, 39516.92, 9609.15, -9302.48, 0.00, 0.00, 0.00, 0.00, 0.00, 0.00, 0.00
229, 5664.18, 76234.35, 8788.73, 30620.28, -22001.02, -3790.70, 7768.73, -52966.79, -5745.45, 39516.92, 9609.15, -9302.48, 0.00, 0.00, 0.00, 0.00, 0.00, 0.00, 0.00
230, 5664.18, 76234.35, 8788.73, 30620.28, -22001.02, -3790.70, 7768.73, -52966.79, -5755.22, 39504.32, 9606.38, -9306.22, 0.00, 0.00, 0.00, 0.00, 0.00, 0.00, 0.00
231, 5645.65, 76211.66, 8763.85, 30593.64, -22024.96, -3817.61, 7741.24, -52991.52, -5755.22, 39504.32, 9606.38, -9306.22, 0.00, 0.00, 0.00, 0.00, 0.02, 0.52, 0.86
232, 5645.65, 76211.66, 8763.85, 30593.64, -22024.96, -3817.61, 7741.24, -52991.52, -5753.00, 39506.55, 9605.73, -9301.37, 0.00, 0.00, 0.00, 0.00, 0.00, 0.00, 0.00
233, 5663.35, 76233.02, 8786.69, 30619.88, -22002.65, -3799.28, 7769.04, -52968.58, -5753.00, 39506.55, 9605.73, -9301.37, 0.00, 0.00, 0.00, 0.00, 0.00, 0.00, 0.00
234, 5663.35, 76233.02, 8786.69, 30619.88, -22002.65, -3799.28, 7769.04, -52968.58, -5747.21, 39516.03, 9627.59, -9294.62, 0.00, 0.00, 0.00, 0.00, 0.00, 0.00, 0.00
235, 5659.57, 76219.31, 8779.52, 30609.75, -22012.80, -3806.95, 7754.65, -52981.05, -5747.21, 39516.03, 9627.59, -9294.62, 0.00, 0.00, 0.00, 0.00, 0.00, 0.00, 0.00
236, 5659.57, 76219.31, 8779.52, 30609.75, -22012.80, -3806.95, 7754.65, -52981.05, -5745.31, 39511.18, 9621.00, -9286.68, 0.00, 0.00, 0.00, 0.00, 0.00, 0.00, 0.00
237, 5672.63, 76238.38, 8796.24, 30631.10, -21992.35, -3790.07, 7777.22, -52959.24, -5745.31, 39511.18, 9621.00, -9286.68, 0.00, 0.00, 0.00, 0.00, 0.00, 0.00, 0.00
238, 5672.63, 76238.38, 8796.24, 30631.10, -21992.35, -3790.07, 7777.22, -52959.24, -5743.03, 39528.63, 9635.59, -9301.25, 0.00, 0.00, 0.00, 0.00, 0.00, 0.00, 0.00
239, 5661.88, 76218.24, 8780.79, 30618.04, -22010.23, -3801.85, 7757.71, -52976.92, -5743.03, 39528.63, 9635.59, -9301.25, 0.00, 0.00, 0.00, 0.00, 0.00, 0.00, 0.00
240, 5661.88, 76218.24, 8780.79, 30618.04, -22010.23, -3801.85, 7757.71, -52976.92, -5756.60, 39499.44, 9613.69, -9276.96, 0.00, 0.00, 0.00, 0.00, 0.02, 0.52, 0.85
241, 5669.85, 76237.75, 8795.61, 30633.80, -21996.69, -3790.03, 7775.70, -52963.71, -5756.60, 39499.44, 9613.69, -9276.96, 0.00, 0.00, 0.00, 0.00, 0.00, 0.00, 0.00
242, 5669.85, 76237.75, 8795.61, 30633.80, -21996.69, -3790.03, 7775.70, -52963.71, -5748.51, 39525.39, 9644.26, -9307.56, 0.00, 0.00, 0.00, 0.00, 0.00, 0.00, 0.00
243, 5659.17, 76219.42, 8780.82, 30614.96, -22010.19, -3805.05, 7758.11, -52978.35, -5748.51, 39525.39, 9644.26, -9307.56, 0.00, 0.00, 0.00, 0.00, 0.00, 0.00, 0.00
244, 5659.17, 76219.42, 8780.82, 30614.96, -22010.19, -3805.05, 7758.11, -52978.35, -5749.02, 39497.74, 9622.98, -9281.81, 0.00, 0.00, 0.00, 0.00, 0.00, 0.00, 0.00
245, 5664.29, 76229.33, 8791.12, 30631.72, -21994.16, -3792.80, 7778.12, -52962.59, -5749.02, 39497.74, 9622.98, -9281.81, 0.00, 0.00, 0.00, 0.00, 0.00, 0.00, 0.00
246, 5664.29, 76229.33, 8791.12, 30631.72, -21994.16, -3792.80, 7778.12, -52962.59, -5742.25, 39527.54, 9651.17, -9306.98, 0.00, 0.00, 0.00, 0.00, 0.00, 0.00, 0.00
247, 5656.47, 76224.20, 8781.24, 30617.15, -22003.75, -3803.19, 7762.63, -52975.78, -5742.25, 39527.54, 9651.17, -9306.98, 0.00, 0.00, 0.00, 0.00, 0.00, 0.00, 0.00
248, 5656.47, 76224.20, 8781.24, 30617.15, -22003.75, -3803.19, 7762.63, -52975.78, -5746.16, 39501.84, 9627.88, -9259.61, 0.00, 0.00, 0.00, 0.00, 0.00, 0.00, 0.00
249, 5658.14, 76224.97, 8784.55, 30625.13, -22003.12, -3798.28, 7771.08, -52970.44, -5746.16, 39501.84, 9627.88, -9259.61, 0.00, 0.00, 0.00, 0.00, 0.00, 0.00, 0.00
250, 5658.14, 76224.97, 8784.55, 30625.13, -22003.12, -3798.28, 7771.08, -52970.44, -5741.85, 39530.51, 9652.09, -9319.18, 0.00, 0.00, 0.00, 0.00, 0.02, 0.52, 0.86
251, 5659.89, 76211.55, 8778.94, 30620.39, -22004.44, -3801.72, 7766.92, -52972.36, -5741.85, 39530.51, 9652.09, -9319.18, 0.00, 0.00, 0.00, 0.00, 0.00, 0.00, 0.00
252, 5659.89, 76211.55, 8778.94, 30620.39, -22004.44, -3801.72, 7766.92, -52972.36, -5742.86, 39500.43, 9630.92, -9256.39, 0.00, 0.00, 0.00, 0.00, 0.00, 0.00, 0.00
253, 5654.86, 76219.67, 8783.23, 30625.38, -21997.85, -3798.21, 7776.51, -52965.38, -5742.86, 39500.43, 9630.92, -9256.39, 0.00, 0.00, 0.00, 0.00, 0.00, 0.00, 0.00
254, 5654.86, 76219.67, 8783.23, 30625.38, -21997.85, -3798.21, 7776.51, -52965.38, -5735.21, 39539.81, 9659.37, -9304.14, 0.00, 0.00, 0.00, 0.00, 0.00, 0.00, 0.00
255, 5664.00, 76232.14, 8789.60, 30624.59, -21992.44, -3796.85, 7778.92, -52960.96, -5735.21, 39539.81, 9659.37, -9304.14, 0.00, 0.00, 0.00, 0.00, 0.00, 0.00, 0.00
0, 5664.00, 76232.14, 8789.60, 30624.59, -21992.44, -3796.85, 7778.92, -52960.96, -5739.44, 39506.71, 9642.81, -9249.96, 0.00, 0.00, 0.00, 0.00, 0.00, 0.00, 0.00
1, 5664.22, 76230.69, 8786.29, 30625.73, -21997.16, -3797.83, 7774.47, -52966.75, -5739.44, 39506.71, 9642.81, -9249.96, 0.00, 0.00, 0.00, 0.00, 0.00, 0.00, 0.00
2, 5664.22, 76230.69, 8786.29, 30625.73, -21997.16, -3797.83, 7774.47, -52966.75, -5731.30, 39543.70, 9676.90, -9312.05, 0.00, 0.00, 0.00, 0.00, 0.00, 0.00, 0.00
3, 5669.50, 76233.39, 8794.07, 30630.29, -21987.70, -3794.52, 7783.86, -52954.93, -5731.30, 39543.70, 9676.90, -9312.05, 0.00, 0.00, 0.00, 0.00, 0.00, 0.00, 0.00
4, 5669.50, 76233.39, 8794.07, 30630.29, -21987.70, -3794.52, 7783.86, -52954.93, -5735.17, 39510.91, 9648.67, -9245.84, 0.00, 0.00, 0.00, 0.00, 0.01, 0.52, 0.86
5, 5657.76, 76223.02, 8784.71, 30618.47, -21999.68, -3805.63, 7773.04, -52971.60, -5735.17, 39510.91, 9648.67, -9245.84, 0.00, 0.00, 0.00, 0.00, 0.00, 0.00, 0.00
6, 5657.76, 76223.02, 8784.71, 30618.47, -21999.68, -3805.63, 7773.04, -52971.60, -5732.33, 39537.69, 9684.38, -9305.34, 0.00, 0.00, 0.00, 0.00, 0.00, 0.00, 0.00
7, 5680.11, 76249.69, 8805.78, 30640.13, -21976.82, -3789.29, 7792.13, -52950.81, -5732.33, 39537.69, 9684.38, -9305.34, 0.00, 0.00, 0.00, 0.00, 0.00, 0.00, 0.00
8, 5680.11, 76249.69, 8805.78, 30640.13, -21976.82, -3789.29, 7792.13, -52950.81, -5737.89, 39512.00, 9661.56, -9254.47, 0.00, 0.00, 0.00, 0.00, 0.00, 0.00, 0.00
9, 5667.22, 76236.23, 8791.77, 30622.69, -21992.51, -3804.42, 7773.18, -52970.57, -5737.89, 39512.00, 9661.56, -9254.47, 0.00, 0.00, 0.00, 0.00, 0.00, 0.00, 0.00
10, 5667.22, 76236.23, 8791.77, 30622.69, -21992.51, -3804.42, 7773.18, -52970.57, -5727.75, 39537.15, 9690.33, -9313.37, 0.00, 0.00, 0.00, 0.00, 0.00, 0.00, 0.00
11, 5681.05, 76248.05, 8805.18, 30640.13, -21975.61, -3792.82, 7794.25, -52952.69, -5727.75, 39537.15, 9690.33, -9313.37, 0.00, 0.00, 0.00, 0.00, 0.00, 0.00, 0.00
12, 5681.05, 76248.05, 8805.18, 30640.13, -21975.61, -3792.82, 7794.25, -52952.69, -5737.78, 39513.28, 9664.33, -9250.58, 0.00, 0.00, 0.00, 0.00, 0.00, 0.00, 0.00
13, 5667.35, 76232.50, 8787.25, 30617.13, -21998.63, -3811.91, 7770.96, -52973.36, -5737.78, 39513.28, 9664.33, -9250.58, 0.00, 0.00, 0.00, 0.00, 0.00, 0.00, 0.00
14, 5667.35, 76232.50, 8787.25, 30617.13, -21998.63, -3811.91, 7770.96, -52973.36, -5730.23, 39533.80, 9690.29, -9295.20, 0.00, 0.00, 0.00, 0.00, 0.01, 0.52, 0.86
15, 5685.17, 76249.91, 8806.65, 30642.25, -21975.16, -3790.03, 7794.88, -52952.40, -5730.23, 39533.80, 9690.29, -9295.20, 0.00, 0.00, 0.00, 0.00, 0.00, 0.00, 0.00
16, 5685.17, 76249.91, 8806.65, 30642.25, -21975.16, -3790.03, 7794.88, -52952.40, -5740.46, 39510.33, 9676.49, -9275.71, 0.00, 0.00, 0.00, 0.00, 0.00, 0.00, 0.00
17, 5666.44, 76230.89, 8788.24, 30622.07, -21995.39, -3808.16, 7772.77, -52977.28, -5740.46, 39510.33, 9676.49, -9275.71, 0.00, 0.00, 0.00, 0.00, 0.00, 0.00, 0.00
18, 5666.44, 76230.89, 8788.24, 30622.07, -21995.39, -3808.16, 7772.77, -52977.28, -5729.82, 39528.77, 9696.54, -9290.57, 0.00, 0.00, 0.00, 0.00, 0.00, 0.00, 0.00
19, 5691.69, 76263.21, 8814.32, 30643.75, -21971.65, -3789.45, 7800.69, -52949.63, -5729.82, 39528.77, 9696.54, -9290.57, 0.00, 0.00, 0.00, 0.00, 0.00, 0.00, 0.00
20, 5691.69, 76263.21, 8814.32, 30643.75, -21971.65, -3789.45, 7800.69, -52949.63, -5735.19, 39517.08, 9690.35, -9272.89, 0.00, 0.00, 0.00, 0.00, 0.00, 0.00, 0.00
21, 5669.21, 76232.32, 8792.66, 30622.69, -21991.90, -3809.94, 7775.95, -52974.04, -5735.19, 39517.08, 9690.35, -9272.89, 0.00, 0.00, 0.00, 0.00, 0.00, 0.00, 0.00
22, 5669.21, 76232.32, 8792.66, 30622.69, -21991.90, -3809.94, 7775.95, -52974.04, -5727.12, 39527.41, 9695.92, -9289.41, 0.00, 0.00, 0.00, 0.00, 0.00, 0.00, 0.00
23, 5687.74, 76258.25, 8814.23, 30646.68, -21971.34, -3787.99, 7803.08, -52950.34, -5727.12, 39527.41, 9695.92, -9289.41, 0.00, 0.00, 0.00, 0.00, 0.01, 0.52, 0.86
24, 5687.74, 76258.25, 8814.23, 30646.68, -21971.34, -3787.99, 7803.08, -52950.34, -5730.25, 39527.00, 9704.97, -9275.62, 0.00, 0.00, 0.00, 0.00, 0.00, 0.00, 0.00
25, 5677.54, 76246.65, 8798.14, 30621.89, -21988.35, -3809.92, 7780.51, -52971.24, -5730.25, 39527.00, 9704.97, -9275.62, 0.00, 0.00, 0.00, 0.00, 0.00, 0.00, 0.00
26, 5677.54, 76246.65, 8798.14, 30621.89, -21988.35, -3809.92, 7780.51, -52971.24, -5731.26, 39518.73, 9703.12, -9272.96, 0.00, 0.00, 0.00, 0.00, 0.00, 0.00, 0.00
27, 5684.74, 76255.61, 8812.58, 30643.84, -21975.09, -3794.90, 7799.98, -52957.02, -5731.26, 39518.73, 9703.12, -9272.96, 0.00, 0.00, 0.00, 0.00, 0.00, 0.00, 0.00
28, 5684.74, 76255.61, 8812.58, 30643.84, -21975.09, -3794.90, 7799.98, -52957.02, -5735.08, 39522.55, 9708.75, -9299.33, 0.00, 0.00, 0.00, 0.00, 0.00, 0.00, 0.00
29, 5675.33, 76241.55, 8799.95, 30625.91, -21987.28, -3807.80, 7782.23, -52974.13, -5735.08, 39522.55, 9708.75, -9299.33, 0.00, 0.00, 0.00, 0.00, 0.00, 0.00, 0.00
30, 5675.33, 76241.55, 8799.95, 30625.91, -21987.28, -3807.80, 7782.23, -52974.13, -5731.48, 39508.96, 9702.80, -9273.72, 0.00, 0.00, 0.00, 0.00, 0.00, 0.00, 0.00
31, 5692.74, 76260.35, 8817.72, 30647.41, -21972.19, -3793.90, 7802.86, -52956.42, -5731.48, 39508.96, 9702.80, -9273.72, 0.00, 0.00, 0.00, 0.00, 0.00, 0.00, 0.00
32, 5692.74, 76260.35, 8817.72, 30647.41, -21972.19, -3793.90, 7802.86, -52956.42, -5734.21, 39529.06, 9725.06, -9295.78, 0.00, 0.00, 0.00, 0.00, 0.00, 0.00, 0.00
33, 5685.79, 76246.98, 8805.65, 30633.45, -21981.15, -3800.11, 7789.87, -52971.69, -5734.21, 39529.06, 9725.06, -9295.78, 0.00, 0.00, 0.00, 0.00, 0.01, 0.52, 0.86
34, 5685.79, 76246.98, 8805.65, 30633.45, -21981.15, -3800.11, 7789.87, -52971.69, -5729.20, 39511.25, 9707.23, -9262.41, 0.00, 0.00, 0.00, 0.00, 0.00, 0.00, 0.00
35, 5687.38, 76265.67, 8818.21, 30648.69, -21970.00, -3790.32, 7807.22, -52954.84, -5729.20, 39511.25, 9707.23, -9262.41, 0.00, 0.00, 0.00, 0.00, 0.00, 0.00, 0.00
36, 5687.38, 76265.67, 8818.21, 30648.69, -21970.00, -3790.32, 7807.22, -52954.84, -5727.21, 39531.03, 9731.52, -9310.89, 0.00, 0.00, 0.00, 0.00, 0.00, 0.00, 0.00
37, 5682.62, 76251.52, 8808.62, 30633.65, -21976.21, -3803.82, 7792.47, -52971.17, -5727.21, 39531.03, 9731.52, -9310.89, 0.00, 0.00, 0.00, 0.00, 0.00, 0.00, 0.00
38, 5682.62, 76251.52, 8808.62, 30633.65, -21976.21, -3803.82, 7792.47, -52971.17, -5735.12, 39505.81, 9712.91, -9254.23, 0.00, 0.00, 0.00, 0.00, 0.00, 0.00, 0.00
39, 5685.57, 76249.55, 8812.85, 30644.58, -21964.90, -3791.03, 7809.86, -52954.19, -5735.12, 39505.81, 9712.91, -9254.23, 0.00, 0.00, 0.00, 0.00, 0.00, 0.00, 0.00
40, 5685.57, 76249.55, 8812.85, 30644.58, -21964.90, -3791.03, 7809.86, -52954.19, -5726.32, 39538.80, 9738.70, -9301.95, 0.00, 0.00, 0.00, 0.00, 0.00, 0.00, 0.00
41, 5678.08, 76241.13, 8801.96, 30629.85, -21979.14, -3804.29, 7793.32, -52968.38, -5726.32, 39538.80, 9738.70, -9301.95, 0.00, 0.00, 0.00, 0.00, 0.00, 0.00, 0.00
42, 5678.08, 76241.13, 8801.96, 30629.85, -21979.14, -3804.29, 7793.32, -52968.38, -5732.04, 39505.66, 9705.37, -9259.84, 0.00, 0.00, 0.00, 0.00, 0.00, 0.00, 0.00
43, 5683.31, 76252.33, 8808.75, 30642.21, -21969.44, -3795.42, 7805.47, -52961.16, -5732.04, 39505.66, 9705.37, -9259.84, 0.00, 0.00, 0.00, 0.00, 0.01, 0.52, 0.85
44, 5683.31, 76252.33, 8808.75, 30642.21, -21969.44, -3795.42, 7805.47, -52961.16, -5723.39, 39537.51, 9735.68, -9307.85, 0.00, 0.00, 0.00, 0.00, 0.00, 0.00, 0.00
45, 5675.29, 76241.75, 8798.83, 30630.16, -21977.29, -3804.20, 7794.16, -52971.15, -5723.39, 39537.51, 9735.68, -9307.85, 0.00, 0.00, 0.00, 0.00, 0.00, 0.00, 0.00
46, 5675.29, 76241.75, 8798.83, 30630.16, -21977.29, -3804.20, 7794.16, -52971.15, -5735.10, 39503.20, 9716.35, -9252.66, 0.00, 0.00, 0.00, 0.00, 0.00, 0.00, 0.00
47, 5684.63, 76242.89, 8809.13, 30644.69, -21962.55, -3790.23, 7815.82, -52952.93, -5735.10, 39503.20, 9716.35, -9252.66, 0.00, 0.00, 0.00, 0.00, 0.00, 0.00, 0.00
48, 5684.63, 76242.89, 8809.13, 30644.69, -21962.55, -3790.23, 7815.82, -52952.93, -5718.76, 39554.96, 9747.22, -9293.05, 0.00, 0.00, 0.00, 0.00, 0.00, 0.00, 0.00
49, 5680.27, 76242.42, 8806.97, 30643.62, -21963.47, -3791.62, 7813.45, -52952.18, -5718.76, 39554.96, 9747.22, -9293.05, 0.00, 0.00, 0.00, 0.00, 0.00, 0.00, 0.00
50, 5680.27, 76242.42, 8806.97, 30643.62, -21963.47, -3791.62, 7813.45, -52952.18, -5726.20, 39519.49, 9719.41, -9247.23, 0.00, 0.00, 0.00, 0.00, 0.00, 0.00, 0.00
51, 5674.66, 76240.66, 8802.59, 30635.23, -21971.92, -3799.01, 7805.27, -52964.22, -5726.20, 39519.49, 9719.41, -9247.23, 0.00, 0.00, 0.00, 0.00, 0.00, 0.00, 0.00
52, 5674.66, 76240.66, 8802.59, 30635.23, -21971.92, -3799.01, 7805.27, -52964.22, -5737.11, 39531.72, 9736.53, -9309.17, 0.00, 0.00, 0.00, 0.00, 0.00, 0.00, 0.00
53, 5681.10, 76251.54, 8808.51, 30642.94, -21970.65, -3797.18, 7806.61, -52961.79, -5737.11, 39531.72, 9736.53, -9309.17, 0.00, 0.00, 0.00, 0.00, 0.02, 0.52, 0.86
54, 5681.10, 76251.54, 8808.51, 30642.94, -21970.65, -3797.18, 7806.61, -52961.79, -5729.24, 39508.43, 9725.74, -9262.76, 0.00, 0.00, 0.00, 0.00, 0.00, 0.00, 0.00
55, 5675.71, 76237.10, 8804.64, 30634.79, -21972.48, -3801.32, 7803.84, -52964.87, -5729.24, 39508.43, 9725.74, -9262.76, 0.00, 0.00, 0.00, 0.00, 0.00, 0.00, 0.00
56, 5675.71, 76237.10, 8804.64, 30634.79, -21972.48, -3801.32, 7803.84, -52964.87, -5726.92, 39541.84, 9752.96, -9297.01, 0.00, 0.00, 0.00, 0.00, 0.00, 0.00, 0.00
57, 5690.15, 76247.74, 8817.20, 30650.68, -21953.64, -3791.21, 7822.93, -52948.98, -5726.92, 39541.84, 9752.96, -9297.01, 0.00, 0.00, 0.00, 0.00, 0.00, 0.00, 0.00
58, 5690.15, 76247.74, 8817.20, 30650.68, -21953.64, -3791.21, 7822.93, -52948.98, -5727.75, 39515.65, 9730.61, -9253.44, 0.00, 0.00, 0.00, 0.00, 0.00, 0.00, 0.00
59, 5680.52, 76236.05, 8802.92, 30635.01, -21968.50, -3801.72, 7806.75, -52960.45, -5727.75, 39515.65, 9730.61, -9253.44, 0.00, 0.00, 0.00, 0.00, 0.00, 0.00, 0.00
60, 5680.52, 76236.05, 8802.92, 30635.01, -21968.50, -3801.72, 7806.75, -52960.45, -5722.18, 39543.86, 9756.67, -9301.66, 0.00, 0.00, 0.00, 0.00, 0.00, 0.00, 0.00
61, 5694.46, 76265.36, 8824.49, 30656.49, -21947.38, -3786.12, 7829.73, -52940.04, -5722.18, 39543.86, 9756.67, -9301.66, 0.00, 0.00, 0.00, 0.00, 0.00, 0.00, 0.00
62, 5694.46, 76265.36, 8824.49, 30656.49, -21947.38, -3786.12, 7829.73, -52940.04, -5722.94, 39525.21, 9743.26, -9260.57, 0.00, 0.00, 0.00, 0.00, 0.02, 0.52, 0.86
63, 5675.53, 76242.06, 8803.70, 30630.72, -21968.34, -3809.23, 7804.49, -52963.33, -5722.94, 39525.21, 9743.26, -9260.57, 0.00, 0.00, 0.00, 0.00, 0.00, 0.00, 0.00
64, 5675.53, 76242.06, 8803.70, 30630.72, -21968.34, -3809.23, 7804.49, -52963.33, -5720.28, 39541.64, 9760.76, -9287.13, 0.00, 0.00, 0.00, 0.00, 0.00, 0.00, 0.00
65, 5697.17, 76265.89, 8828.89, 30657.56, -21942.19, -3784.06, 7836.19, -52936.46, -5720.28, 39541.64, 9760.76, -9287.13, 0.00, 0.00, 0.00, 0.00, 0.00, 0.00, 0.00
66, 5697.17, 76265.89, 8828.89, 30657.56, -21942.19, -3784.06, 7836.19, -52936.46, -5709.55, 39535.96, 9768.67, -9257.00, 0.00, 0.00, 0.00, 0.00, 0.00, 0.00, 0.00
67, 5687.87, 76255.43, 8816.06, 30634.94, -21957.84, -3802.19, 7813.16, -52953.72, -5709.55, 39535.96, 9768.67, -9257.00, 0.00, 0.00, 0.00, 0.00, 0.00, 0.00, 0.00
68, 5687.87, 76255.43, 8816.06, 30634.94, -21957.84, -3802.19, 7813.16, -52953.72, -5708.61, 39541.78, 9774.55, -9281.09, 0.00, 0.00, 0.00, 0.00, 0.00, 0.00, 0.00
69, 5702.33, 76270.99, 8832.65, 30662.14, -21933.88, -3777.58, 7845.60, -52928.13, -5708.61, 39541.78, 9774.55, -9281.09, 0.00, 0.00, 0.00, 0.00, 0.00, 0.00, 0.00
70, 5702.33, 76270.99, 8832.65, 30662.14, -21933.88, -3777.58, 7845.60, -52928.13, -5714.54, 39538.04, 9768.23, -9259.59, 0.00, 0.00, 0.00, 0.00, 0.00, 0.00, 0.00
71, 5677.70, 76243.74, 8806.34, 30631.99, -21958.76, -3804.29, 7812.36, -52957.50, -5714.54, 39538.04, 9768.23, -9259.59, 0.00, 0.00, 0.00, 0.00, 0.00, 0.00, 0.00
72, 5677.70, 76243.74, 8806.34, 30631.99, -21958.76, -3804.29, 7812.36, -52957.50, -5711.63, 39538.27, 9767.33, -9266.07, 0.00, 0.00, 0.00, 0.00, 0.02, 0.52, 0.86
73, 5689.86, 76262.25, 8823.57, 30654.37, -21936.61, -3784.60, 7841.48, -52929.78, -5711.63, 39538.27, 9767.33, -9266.07, 0.00, 0.00, 0.00, 0.00, 0.00, 0.00, 0.00
74, 5689.86, 76262.25, 8823.57, 30654.37, -21936.61, -3784.60, 7841.48, -52929.78, -5714.31, 39543.16, 9771.13, -9271.50, 0.00, 0.00, 0.00, 0.00, 0.00, 0.00, 0.00
75, 5669.97, 76238.49, 8804.42, 30632.84, -21956.36, -3803.55, 7817.37, -52955.97, -5714.31, 39543.16, 9771.13, -9271.50, 0.00, 0.00, 0.00, 0.00, 0.00, 0.00, 0.00
76, 5669.97, 76238.49, 8804.42, 30632.84, -21956.36, -3803.55, 7817.37, -52955.97, -5713.73, 39530.04, 9767.49, -9269.47, 0.00, 0.00, 0.00, 0.00, 0.00, 0.00, 0.00
77, 5687.16, 76257.84, 8823.26, 30655.28, -21935.22, -3781.36, 7842.24, -52932.50, -5713.73, 39530.04, 9767.49, -9269.47, 0.00, 0.00, 0.00, 0.00, 0.00, 0.00, 0.00
78, 5687.16, 76257.84, 8823.26, 30655.28, -21935.22, -3781.36, 7842.24, -52932.50, -5716.59, 39540.26, 9782.26, -9271.62, 0.00, 0.00, 0.00, 0.00, 0.00, 0.00, 0.00
79, 5675.20, 76238.04, 8803.73, 30634.43, -21953.41, -3799.13, 7819.74, -52953.63, -5716.59, 39540.26, 9782.26, -9271.62, 0.00, 0.00, 0.00, 0.00, 0.00, 0.00, 0.00
80, 5675.20, 76238.04, 8803.73, 30634.43, -21953.41, -3799.13, 7819.74, -52953.63, -5716.68, 39524.97, 9769.43, -9253.40, 0.00, 0.00, 0.00, 0.00, 0.00, 0.00, 0.00
81, 5691.83, 76267.34, 8825.32, 30653.96, -21933.83, -3781.42, 7844.50, -52931.52, -5716.68, 39524.97, 9769.43, -9253.40, 0.00, 0.00, 0.00, 0.00, 0.00, 0.00, 0.00
82, 5691.83, 76267.34, 8825.32, 30653.96, -21933.83, -3781.42, 7844.50, -52931.52, -5709.64, 39554.56, 9790.11, -9284.69, 0.00, 0.00, 0.00, 0.00, 0.03, 0.52, 0.85
83, 5681.81, 76243.97, 8809.45, 30637.31, -21945.77, -3795.33, 7825.95, -52949.74, -5709.64, 39554.56, 9790.11, -9284.69, 0.00, 0.00, 0.00, 0.00, 0.00, 0.00, 0.00
84, 5681.81, 76243.97, 8809.45, 30637.31, -21945.77, -3795.33, 7825.95, -52949.74, -5719.21, 39520.18, 9772.94, -9249.17, 0.00, 0.00, 0.00, 0.00, 0.00, 0.00, 0.00
85, 5690.80, 76259.05, 8819.64, 30649.61, -21934.17, -3784.53, 7841.91, -52938.18, -5719.21, 39520.18, 9772.94, -9249.17, 0.00, 0.00, 0.00, 0.00, 0.00, 0.00, 0.00
86, 5690.80, 76259.05, 8819.64, 30649.61, -21934.17, -3784.53, 7841.91, -52938.18, -5716.48, 39543.16, 9797.33, -9290.10, 0.00, 0.00, 0.00, 0.00, 0.00, 0.00, 0.00
87, 5680.25, 76249.11, 8811.24, 30640.06, -21944.36, -3791.84, 7829.84, -52948.78, -5716.48, 39543.16, 9797.33, -9290.10, 0.00, 0.00, 0.00, 0.00, 0.00, 0.00, 0.00
88, 5680.25, 76249.11, 8811.24, 30640.06, -21944.36, -3791.84, 7829.84, -52948.78, -5719.57, 39517.19, 9773.70, -9249.13, 0.00, 0.00, 0.00, 0.00, 0.00, 0.00, 0.00
89, 5689.39, 76259.88, 8820.91, 30654.34, -21933.74, -3780.69, 7844.01, -52936.24, -5719.57, 39517.19, 9773.70, -9249.13, 0.00, 0.00, 0.00, 0.00, 0.00, 0.00, 0.00
90, 5689.39, 76259.88, 8820.91, 30654.34, -21933.74, -3780.69, 7844.01, -52936.24, -5710.58, 39552.50, 9810.76, -9293.36, 0.00, 0.00, 0.00, 0.00, 0.00, 0.00, 0.00
91, 5694.00, 76258.80, 8823.87, 30650.37, -21928.54, -3783.37, 7839.78, -52940.55, -5710.58, 39552.50, 9810.76, -9293.36, 0.00, 0.00, 0.00, 0.00, 0.00, 0.00, 0.00
92, 5694.00, 76258.80, 8823.87, 30650.37, -21928.54, -3783.37, 7839.78, -52940.55, -5714.47, 39522.98, 9783.40, -9232.32, 0.00, 0.00, 0.00, 0.00, 0.02, 0.52, 0.86
93, 5690.73, 76255.21, 8822.26, 30657.41, -21927.08, -3779.19, 7848.64, -52934.20, -5714.47, 39522.98, 9783.40, -9232.32, 0.00, 0.00, 0.00, 0.00, 0.00, 0.00, 0.00
94, 5690.73, 76255.21, 8822.26, 30657.41, -21927.08, -3779.19, 7848.64, -52934.20, -5716.64, 39545.15, 9810.67, -9299.06, 0.00, 0.00, 0.00, 0.00, 0.00, 0.00, 0.00
95, 5688.45, 76253.89, 8817.09, 30648.02, -21929.97, -3785.16, 7839.56, -52943.08, -5716.64, 39545.15, 9810.67, -9299.06, 0.00, 0.00, 0.00, 0.00, 0.00, 0.00, 0.00
96, 5688.45, 76253.89, 8817.09, 30648.02, -21929.97, -3785.16, 7839.56, -52943.08, -5718.58, 39521.64, 9783.07, -9236.68, 0.00, 0.00, 0.00, 0.00, 0.00, 0.00, 0.00
97, 5688.94, 76255.37, 8817.52, 30651.95, -21930.95, -3779.97, 7845.02, -52938.05, -5718.58, 39521.64, 9783.07, -9236.68, 0.00, 0.00, 0.00, 0.00, 0.00, 0.00, 0.00
98, 5688.94, 76255.37, 8817.52, 30651.95, -21930.95, -3779.97, 7845.02, -52938.05, -5711.36, 39553.96, 9812.53, -9285.81, 0.00, 0.00, 0.00, 0.00, 0.00, 0.00, 0.00
99, 5693.66, 76262.95, 8821.41, 30647.32, -21926.72, -3783.12, 7847.05, -52939.19, -5711.36, 39553.96, 9812.53, -9285.81, 0.00, 0.00, 0.00, 0.00, 0.00, 0.00, 0.00
100, 5693.66, 76262.95, 8821.41, 30647.32, -21926.72, -3783.12, 7847.05, -52939.19, -5716.97, 39515.31, 9793.53, -9243.05, 0.00, 0.00, 0.00, 0.00, 0.00, 0.00, 0.00
101, 5682.89, 76253.89, 8814.32, 30642.88, -21933.83, -3788.06, 7839.54, -52946.07, -5716.97, 39515.31, 9793.53, -9243.05, 0.00, 0.00, 0.00, 0.00, 0.02, 0.52, 0.86
102, 5682.89, 76253.89, 8814.32, 30642.88, -21933.83, -3788.06, 7839.54, -52946.07, -5706.49, 39552.24, 9821.67, -9301.39, 0.00, 0.00, 0.00, 0.00, 0.00, 0.00, 0.00
103, 5699.94, 76275.80, 8830.97, 30659.37, -21917.38, -3773.76, 7851.41, -52930.09, -5706.49, 39552.24, 9821.67, -9301.39, 0.00, 0.00, 0.00, 0.00, 0.00, 0.00, 0.00
104, 5699.94, 76275.80, 8830.97, 30659.37, -21917.38, -3773.76, 7851.41, -52930.09, -5716.23, 39522.69, 9799.76, -9237.57, 0.00, 0.00, 0.00, 0.00, 0.00, 0.00, 0.00
105, 5685.05, 76253.48, 8815.46, 30643.01, -21932.04, -3787.15, 7837.06, -52945.83, -5716.23, 39522.69, 9799.76, -9237.57, 0.00, 0.00, 0.00, 0.00, 0.00, 0.00, 0.00
106, 5685.05, 76253.48, 8815.46, 30643.01, -21932.04, -3787.15, 7837.06, -52945.83, -5714.69, 39548.01, 9819.01, -9284.04, 0.00, 0.00, 0.00, 0.00, 0.00, 0.00, 0.00
107, 5690.44, 76266.18, 8823.82, 30652.60, -21922.34, -3779.05, 7848.75, -52933.00, -5714.69, 39548.01, 9819.01, -9284.04, 0.00, 0.00, 0.00, 0.00, 0.00, 0.00, 0.00
108, 5690.44, 76266.18, 8823.82, 30652.60, -21922.34, -3779.05, 7848.75, -52933.00, -5716.91, 39522.35, 9800.23, -9250.45, 0.00, 0.00, 0.00, 0.00, 0.00, 0.00, 0.00
109, 5678.46, 76251.37, 8808.53, 30633.27, -21935.80, -3793.14, 7832.12, -52949.45, -5716.91, 39522.35, 9800.23, -9250.45, 0.00, 0.00, 0.00, 0.00, 0.00, 0.00, 0.00
110, 5678.46, 76251.37, 8808.53, 30633.27, -21935.80, -3793.14, 7832.12, -52949.45, -5707.58, 39546.67, 9823.14, -9284.51, 0.00, 0.00, 0.00, 0.00, 0.00, 0.00, 0.00
111, 5686.57, 76259.55, 8821.45, 30650.25, -21918.61, -3780.22, 7853.62, -52928.39, -5707.58, 39546.67, 9823.14, -9284.51, 0.00, 0.00, 0.00, 0.00, 0.01, 0.51, 0.86
112, 5686.57, 76259.55, 8821.45, 30650.25, -21918.61, -3780.22, 7853.62, -52928.39, -5712.70, 39528.93, 9805.55, -9247.94, 0.00, 0.00, 0.00, 0.00, 0.00, 0.00, 0.00
113, 5676.09, 76244.63, 8804.31, 30626.43, -21935.62, -3801.63, 7827.45, -52951.04, -5712.70, 39528.93, 9805.55, -9247.94, 0.00, 0.00, 0.00, 0.00, 0.00, 0.00, 0.00
114, 5676.09, 76244.63, 8804.31, 30626.43, -21935.62, -3801.63, 7827.45, -52951.04, -5706.36, 39537.53, 9818.76, -9285.47, 0.00, 0.00, 0.00, 0.00, 0.00, 0.00, 0.00
115, 5689.26, 76263.75, 8820.69, 30648.64, -21922.93, -3784.13, 7846.83, -52932.48, -5706.36, 39537.53, 9818.76, -9285.47, 0.00, 0.00, 0.00, 0.00, 0.00, 0.00, 0.00
116, 5689.26, 76263.75, 8820.69, 30648.64, -21922.93, -3784.13, 7846.83, -52932.48, -5715.74, 39531.85, 9810.02, -9270.03, 0.00, 0.00, 0.00, 0.00, 0.00, 0.00, 0.00
117, 5670.35, 76247.66, 8802.12, 30622.71, -21941.37, -3803.98, 7821.86, -52958.46, -5715.74, 39531.85, 9810.02, -9270.03, 0.00, 0.00, 0.00, 0.00, 0.00, 0.00, 0.00
118, 5670.35, 76247.66, 8802.12, 30622.71, -21941.37, -3803.98, 7821.86, -52958.46, -5706.47, 39532.66, 9822.41, -9266.81, 0.00, 0.00, 0.00, 0.00, 0.00, 0.00, 0.00
119, 5695.05, 76270.25, 8826.10, 30651.44, -21915.15, -3781.13, 7850.00, -52930.96, -5706.47, 39532.66, 9822.41, -9266.81, 0.00, 0.00, 0.00, 0.00, 0.00, 0.00, 0.00
120, 5695.05, 76270.25, 8826.10, 30651.44, -21915.15, -3781.13, 7850.00, -52930.96, -5714.45, 39522.51, 9822.23, -9277.47, 0.00, 0.00, 0.00, 0.00, 0.00, 0.00, 0.00
121, 5669.23, 76235.83, 8796.35, 30616.17, -21944.96, -3809.61, 7816.94, -52962.08, -5714.45, 39522.51, 9822.23, -9277.47, 0.00, 0.00, 0.00, 0.00, 0.02, 0.52, 0.86
122, 5669.23, 76235.83, 8796.35, 30616.17, -21944.96, -3809.61, 7816.94, -52962.08, -5708.61, 39528.34, 9817.89, -9273.92, 0.00, 0.00, 0.00, 0.00, 0.00, 0.00, 0.00
123, 5686.82, 76260.66, 8819.01, 30646.36, -21919.73, -3785.36, 7845.84, -52933.04, -5708.61, 39528.34, 9817.89, -9273.92, 0.00, 0.00, 0.00, 0.00, 0.00, 0.00, 0.00
124, 5686.82, 76260.66, 8819.01, 30646.36, -21919.73, -3785.36, 7845.84, -52933.04, -5714.31, 39533.84, 9829.56, -9270.72, 0.00, 0.00, 0.00, 0.00, 0.00, 0.00, 0.00
125, 5669.59, 76241.82, 8799.01, 30620.30, -21939.22, -3807.04, 7816.07, -52961.20, -5714.31, 39533.84, 9829.56, -9270.72, 0.00, 0.00, 0.00, 0.00, 0.00, 0.00, 0.00
126, 5669.59, 76241.82, 8799.01, 30620.30, -21939.22, -3807.04, 7816.07, -52961.20, -5713.60, 39512.54, 9820.04, -9273.76, 0.00, 0.00, 0.00, 0.00, 0.00, 0.00, 0.00
127, 5692.16, 76272.60, 8822.66, 30644.51, -21922.17, -3788.87, 7841.82, -52940.57, -5713.60, 39512.54, 9820.04, -9273.76, 0.00, 0.00, 0.00, 0.00, 0.00, 0.00, 0.00
128, 5692.16, 76272.60, 8822.66, 30644.51, -21922.17, -3788.87, 7841.82, -52940.57, -5710.85, 39537.22, 9842.46, -9292.25, 0.00, 0.00, 0.00, 0.00, 0.00, 0.00, 0.00
129, 5682.10, 76254.00, 8809.22, 30628.13, -21931.60, -3804.13, 7821.86, -52959.64, -5710.85, 39537.22, 9842.46, -9292.25, 0.00, 0.00, 0.00, 0.00, 0.00, 0.00, 0.00
130, 5682.10, 76254.00, 8809.22, 30628.13, -21931.60, -3804.13, 7821.86, -52959.64, -5711.32, 39506.28, 9831.57, -9267.77, 0.00, 0.00, 0.00, 0.00, 0.00, 0.00, 0.00
131, 5693.37, 76275.73, 8829.05, 30650.68, -21913.29, -3786.23, 7841.98, -52938.68, -5711.32, 39506.28, 9831.57, -9267.77, 0.00, 0.00, 0.00, 0.00, 0.02, 0.51, 0.86
132, 5693.37, 76275.73, 8829.05, 30650.68, -21913.29, -3786.23, 7841.98, -52938.68, -5696.54, 39543.16, 9865.84, -9293.05, 0.00, 0.00, 0.00, 0.00, 0.00, 0.00, 0.00
133, 5687.71, 76259.92, 8816.13, 30630.61, -21922.75, -3799.01, 7829.57, -52947.68, -5696.54, 39543.16, 9865.84, -9293.05, 0.00, 0.00, 0.00, 0.00, 0.00, 0.00, 0.00
134, 5687.71, 76259.92, 8816.13, 30630.61, -21922.75, -3799.01, 7829.57, -52947.68, -5712.66, 39503.29, 9832.89, -9271.88, 0.00, 0.00, 0.00, 0.00, 0.00, 0.00, 0.00
135, 5692.68, 76273.67, 8825.72, 30644.82, -21916.38, -3794.59, 7837.04, -52945.80, -5712.66, 39503.29, 9832.89, -9271.88, 0.00, 0.00, 0.00, 0.00, 0.00, 0.00, 0.00
136, 5692.68, 76273.67, 8825.72, 30644.82, -21916.38, -3794.59, 7837.04, -52945.80, -5705.08, 39536.95, 9865.50, -9302.93, 0.00, 0.00, 0.00, 0.00, 0.00, 0.00, 0.00
137, 5682.17, 76261.80, 8814.21, 30629.29, -21922.84, -3803.89, 7828.74, -52957.27, -5705.08, 39536.95, 9865.50, -9302.93, 0.00, 0.00, 0.00, 0.00, 0.00, 0.00, 0.00
138, 5682.17, 76261.80, 8814.21, 30629.29, -21922.84, -3803.89, 7828.74, -52957.27, -5708.99, 39504.05, 9837.32, -9262.85, 0.00, 0.00, 0.00, 0.00, 0.00, 0.00, 0.00
139, 5691.20, 76271.01, 8822.70, 30637.85, -21915.86, -3798.86, 7834.15, -52940.73, -5708.99, 39504.05, 9837.32, -9262.85, 0.00, 0.00, 0.00, 0.00, 0.00, 0.00, 0.00
140, 5691.20, 76271.01, 8822.70, 30637.85, -21915.86, -3798.86, 7834.15, -52940.73, -5705.66, 39538.36, 9865.30, -9313.03, 0.00, 0.00, 0.00, 0.00, 0.02, 0.51, 0.86
141, 5687.36, 76264.41, 8816.69, 30634.58, -21919.55, -3800.76, 7826.75, -52953.96, -5705.66, 39538.36, 9865.30, -9313.03, 0.00, 0.00, 0.00, 0.00, 0.00, 0.00, 0.00
142, 5687.36, 76264.41, 8816.69, 30634.58, -21919.55, -3800.76, 7826.75, -52953.96, -5714.04, 39488.89, 9839.35, -9268.40, 0.00, 0.00, 0.00, 0.00, 0.00, 0.00, 0.00
143, 5697.86, 76280.04, 8828.54, 30640.51, -21913.61, -3797.81, 7831.69, -52953.92, -5714.04, 39488.89, 9839.35, -9268.40, 0.00, 0.00, 0.00, 0.00, 0.00, 0.00, 0.00
144, 5697.86, 76280.04, 8828.54, 30640.51, -21913.61, -3797.81, 7831.69, -52953.92, -5703.34, 39535.45, 9881.26, -9320.41, 0.00, 0.00, 0.00, 0.00, 0.00, 0.00, 0.00
145, 5694.62, 76272.46, 8824.49, 30637.31, -21911.62, -3799.39, 7837.01, -52946.50, -5703.34, 39535.45, 9881.26, -9320.41, 0.00, 0.00, 0.00, 0.00, 0.00, 0.00, 0.00
146, 5694.62, 76272.46, 8824.49, 30637.31, -21911.62, -3799.39, 7837.01, -52946.50, -5706.82, 39497.14, 9851.78, -9268.93, 0.00, 0.00, 0.00, 0.00, 0.00, 0.00, 0.00
147, 5695.56, 76272.09, 8825.99, 30637.40, -21912.89, -3803.78, 7834.40, -52955.28, -5706.82, 39497.14, 9851.78, -9268.93, 0.00, 0.00, 0.00, 0.00, 0.00, 0.00, 0.00
148, 5695.56, 76272.09, 8825.99, 30637.40, -21912.89, -3803.78, 7834.40, -52955.28, -5704.57, 39522.55, 9877.88, -9336.66, 0.00, 0.00, 0.00, 0.00, 0.00, 0.00, 0.00
149, 5690.75, 76269.09, 8821.41, 30635.10, -21916.20, -3804.56, 7826.06, -52960.63, -5704.57, 39522.55, 9877.88, -9336.66, 0.00, 0.00, 0.00, 0.00, 0.00, 0.00, 0.00
150, 5690.75, 76269.09, 8821.41, 30635.10, -21916.20, -3804.56, 7826.06, -52960.63, -5715.27, 39489.14, 9846.66, -9274.39, 0.00, 0.00, 0.00, 0.00, 0.01, 0.51, 0.87
151, 5683.58, 76264.13, 8814.59, 30629.38, -21921.09, -3807.73, 7822.35, -52961.43, -5715.27, 39489.14, 9846.66, -9274.39, 0.00, 0.00, 0.00, 0.00, 0.00, 0.00, 0.00
152, 5683.58, 76264.13, 8814.59, 30629.38, -21921.09, -3807.73, 7822.35, -52961.43, -5699.65, 39525.15, 9887.54, -9324.59, 0.00, 0.00, 0.00, 0.00, 0.00, 0.00, 0.00
153, 5697.33, 76279.15, 8834.08, 30646.39, -21898.67, -3795.35, 7843.96, -52939.10, -5699.65, 39525.15, 9887.54, -9324.59, 0.00, 0.00, 0.00, 0.00, 0.00, 0.00, 0.00
154, 5697.33, 76279.15, 8834.08, 30646.39, -21898.67, -3795.35, 7843.96, -52939.10, -5703.99, 39498.41, 9869.52, -9286.12, 0.00, 0.00, 0.00, 0.00, 0.00, 0.00, 0.00
155, 5683.87, 76263.34, 8817.79, 30628.42, -21915.26, -3811.24, 7822.42, -52961.68, -5703.99, 39498.41, 9869.52, -9286.12, 0.00, 0.00, 0.00, 0.00, 0.00, 0.00, 0.00
156, 5683.87, 76263.34, 8817.79, 30628.42, -21915.26, -3811.24, 7822.42, -52961.68, -5703.92, 39512.56, 9886.42, -9326.80, 0.00, 0.00, 0.00, 0.00, 0.00, 0.00, 0.00
157, 5691.22, 76276.66, 8829.25, 30636.46, -21900.73, -3800.91, 7839.83, -52944.78, -5703.92, 39512.56, 9886.42, -9326.80, 0.00, 0.00, 0.00, 0.00, 0.00, 0.00, 0.00
158, 5691.22, 76276.66, 8829.25, 30636.46, -21900.73, -3800.91, 7839.83, -52944.78, -5706.85, 39496.40, 9877.19, -9288.67, 0.00, 0.00, 0.00, 0.00, 0.00, 0.00, 0.00
159, 5689.57, 76265.63, 8818.97, 30624.48, -21915.95, -3815.31, 7815.00, -52964.22, -5706.85, 39496.40, 9877.19, -9288.67, 0.00, 0.00, 0.00, 0.00, 0.00, 0.00, 0.00
160, 5689.57, 76265.63, 8818.97, 30624.48, -21915.95, -3815.31, 7815.00, -52964.22, -5701.68, 39511.80, 9894.76, -9325.50, 0.00, 0.00, 0.00, 0.00, 0.02, 0.51, 0.86
161, 5704.99, 76294.48, 8841.01, 30645.00, -21893.11, -3797.45, 7845.22, -52943.08, -5701.68, 39511.80, 9894.76, -9325.50, 0.00, 0.00, 0.00, 0.00, 0.00, 0.00, 0.00
162, 5704.99, 76294.48, 8841.01, 30645.00, -21893.11, -3797.45, 7845.22, -52943.08, -5706.02, 39495.69, 9896.73, -9295.62, 0.00, 0.00, 0.00, 0.00, 0.00, 0.00, 0.00
163, 5689.37, 76276.42, 8826.06, 30626.63, -21905.42, -3814.75, 7829.59, -52966.79, -5706.02, 39495.69, 9896.73, -9295.62, 0.00, 0.00, 0.00, 0.00, 0.00, 0.00, 0.00
164, 5689.37, 76276.42, 8826.06, 30626.63, -21905.42, -3814.75, 7829.59, -52966.79, -5697.39, 39510.28, 9902.34, -9317.48, 0.00, 0.00, 0.00, 0.00, 0.00, 0.00, 0.00
165, 5703.52, 76293.30, 8842.64, 30649.90, -21893.71, -3797.87, 7837.91, -52943.97, -5697.39, 39510.28, 9902.34, -9317.48, 0.00, 0.00, 0.00, 0.00, 0.00, 0.00, 0.00
166, 5703.52, 76293.30, 8842.64, 30649.90, -21893.71, -3797.87, 7837.91, -52943.97, -5715.07, 39495.17, 9891.52, -9310.62, 0.00, 0.00, 0.00, 0.00, 0.00, 0.00, 0.00
167, 5681.39, 76258.72, 8813.07, 30614.11, -21919.80, -3822.64, 7813.41, -52973.57, -5715.07, 39495.17, 9891.52, -9310.62, 0.00, 0.00, 0.00, 0.00, 0.00, 0.00, 0.00
168, 5681.39, 76258.72, 8813.07, 30614.11, -21919.80, -3822.64, 7813.41, -52973.57, -5706.60, 39510.28, 9892.12, -9311.60, 0.00, 0.00, 0.00, 0.00, 0.00, 0.00, 0.00
169, 5696.03, 76289.74, 8838.44, 30645.16, -21895.90, -3802.90, 7844.12, -52952.64, -5706.60, 39510.28, 9892.12, -9311.60, 0.00, 0.00, 0.00, 0.00, 0.00, 0.00, 0.00
170, 5696.03, 76289.74, 8838.44, 30645.16, -21895.90, -3802.90, 7844.12, -52952.64, -5709.44, 39487.46, 9908.33, -9313.28, 0.00, 0.00, 0.00, 0.00, 0.02, 0.52, 0.86
171, 5692.14, 76275.95, 8825.27, 30624.41, -21908.44, -3819.24, 7813.79, -52971.02, -5709.44, 39487.46, 9908.33, -9313.28, 0.00, 0.00, 0.00, 0.00, 0.00, 0.00, 0.00
172, 5692.14, 76275.95, 8825.27, 30624.41, -21908.44, -3819.24, 7813.79, -52971.02, -5703.56, 39489.32, 9902.63, -9306.26, 0.00, 0.00, 0.00, 0.00, 0.00, 0.00, 0.00
173, 5705.15, 76296.42, 8845.95, 30650.54, -21887.74, -3796.44, 7844.59, -52946.32, -5703.56, 39489.32, 9902.63, -9306.26, 0.00, 0.00, 0.00, 0.00, 0.00, 0.00, 0.00
174, 5705.15, 76296.42, 8845.95, 30650.54, -21887.74, -3796.44, 7844.59, -52946.32, -5706.56, 39508.83, 9909.60, -9325.80, 0.00, 0.00, 0.00, 0.00, 0.00, 0.00, 0.00
175, 5695.47, 76276.13, 8824.49, 30624.48, -21910.81, -3817.12, 7818.77, -52975.89, -5706.56, 39508.83, 9909.60, -9325.80, 0.00, 0.00, 0.00, 0.00, 0.00, 0.00, 0.00
176, 5695.47, 76276.13, 8824.49, 30624.48, -21910.81, -3817.12, 7818.77, -52975.89, -5707.09, 39489.56, 9901.02, -9288.54, 0.00, 0.00, 0.00, 0.00, 0.00, 0.00, 0.00
177, 5709.06, 76294.23, 8845.34, 30646.88, -21886.85, -3799.80, 7849.98, -52945.34, -5707.09, 39489.56, 9901.02, -9288.54, 0.00, 0.00, 0.00, 0.00, 0.00, 0.00, 0.00
178, 5709.06, 76294.23, 8845.34, 30646.88, -21886.85, -3799.80, 7849.98, -52945.34, -5712.14, 39495.29, 9918.41, -9316.77, 0.00, 0.00, 0.00, 0.00, 0.00, 0.00, 0.00
179, 5687.80, 76273.58, 8827.42, 30625.76, -21904.75, -3816.29, 7816.99, -52976.29, -5712.14, 39495.29, 9918.41, -9316.77, 0.00, 0.00, 0.00, 0.00, 0.01, 0.52, 0.86
180, 5687.80, 76273.58, 8827.42, 30625.76, -21904.75, -3816.29, 7816.99, -52976.29, -5715.05, 39485.72, 9907.97, -9294.30, 0.00, 0.00, 0.00, 0.00, 0.00, 0.00, 0.00
181, 5708.37, 76294.84, 8844.58, 30648.87, -21888.41, -3800.58, 7841.28, -52959.33, -5715.05, 39485.72, 9907.97, -9294.30, 0.00, 0.00, 0.00, 0.00, 0.00, 0.00, 0.00
182, 5708.37, 76294.84, 8844.58, 30648.87, -21888.41, -3800.58, 7841.28, -52959.33, -5719.01, 39494.39, 9927.53, -9328.39, 0.00, 0.00, 0.00, 0.00, 0.00, 0.00, 0.00
183, 5697.95, 76285.59, 8832.98, 30629.11, -21900.35, -3816.67, 7820.09, -52977.39, -5719.01, 39494.39, 9927.53, -9328.39, 0.00, 0.00, 0.00, 0.00, 0.00, 0.00, 0.00
184, 5697.95, 76285.59, 8832.98, 30629.11, -21900.35, -3816.67, 7820.09, -52977.39, -5721.58, 39473.25, 9907.59, -9285.72, 0.00, 0.00, 0.00, 0.00, 0.00, 0.00, 0.00
185, 5704.90, 76300.36, 8843.80, 30641.38, -21890.96, -3805.07, 7839.99, -52958.79, -5721.58, 39473.25, 9907.59, -9285.72, 0.00, 0.00, 0.00, 0.00, 0.00, 0.00, 0.00
186, 5704.90, 76300.36, 8843.80, 30641.38, -21890.96, -3805.07, 7839.99, -52958.79, -5718.34, 39502.93, 9937.34, -9336.44, 0.00, 0.00, 0.00, 0.00, 0.00, 0.00, 0.00
187, 5697.28, 76283.15, 8833.05, 30631.99, -21895.72, -3811.82, 7830.29, -52971.46, -5718.34, 39502.93, 9937.34, -9336.44, 0.00, 0.00, 0.00, 0.00, 0.00, 0.00, 0.00
188, 5697.28, 76283.15, 8833.05, 30631.99, -21895.72, -3811.82, 7830.29, -52971.46, -5714.67, 39487.82, 9908.21, -9264.08, 0.00, 0.00, 0.00, 0.00, 0.00, 0.00, 0.00
189, 5697.91, 76287.95, 8835.76, 30636.08, -21895.66, -3807.37, 7829.57, -52965.68, -5714.67, 39487.82, 9908.21, -9264.08, 0.00, 0.00, 0.00, 0.00, 0.02, 0.52, 0.86
190, 5697.91, 76287.95, 8835.76, 30636.08, -21895.66, -3807.37, 7829.57, -52965.68, -5731.41, 39493.39, 9935.84, -9328.90, 0.00, 0.00, 0.00, 0.00, 0.00, 0.00, 0.00
191, 5710.09, 76294.75, 8842.98, 30641.38, -21891.30, -3806.05, 7836.41, -52968.89, -5731.41, 39493.39, 9935.84, -9328.90, 0.00, 0.00, 0.00, 0.00, 0.00, 0.00, 0.00
192, 5710.09, 76294.75, 8842.98, 30641.38, -21891.30, -3806.05, 7836.41, -52968.89, -5734.43, 39471.95, 9914.58, -9267.84, 0.00, 0.00, 0.00, 0.00, 0.00, 0.00, 0.00
193, 5701.93, 76289.70, 8838.08, 30636.55, -21896.46, -3809.56, 7831.63, -52965.07, -5734.43, 39471.95, 9914.58, -9267.84, 0.00, 0.00, 0.00, 0.00, 0.00, 0.00, 0.00
194, 5701.93, 76289.70, 8838.08, 30636.55, -21896.46, -3809.56, 7831.63, -52965.07, -5724.37, 39516.23, 9937.00, -9326.35, 0.00, 0.00, 0.00, 0.00, 0.00, 0.00, 0.00
195, 5691.69, 76285.38, 8833.43, 30638.36, -21894.92, -3804.89, 7836.14, -52965.41, -5724.37, 39516.23, 9937.00, -9326.35, 0.00, 0.00, 0.00, 0.00, 0.00, 0.00, 0.00
196, 5691.69, 76285.38, 8833.43, 30638.36, -21894.92, -3804.89, 7836.14, -52965.41, -5731.72, 39481.81, 9911.41, -9242.42, 0.00, 0.00, 0.00, 0.00, 0.00, 0.00, 0.00
197, 5691.98, 76286.32, 8831.02, 30630.54, -21901.60, -3809.30, 7826.66, -52967.71, -5731.72, 39481.81, 9911.41, -9242.42, 0.00, 0.00, 0.00, 0.00, 0.00, 0.00, 0.00
198, 5691.98, 76286.32, 8831.02, 30630.54, -21901.60, -3809.30, 7826.66, -52967.71, -5720.79, 39527.27, 9942.77, -9294.77, 0.00, 0.00, 0.00, 0.00, 0.00, 0.00, 0.00
199, 5704.99, 76285.61, 8838.62, 30642.45, -21891.39, -3801.25, 7838.40, -52961.88, -5720.79, 39527.27, 9942.77, -9294.77, 0.00, 0.00, 0.00, 0.00, 0.02, 0.52, 0.86
200, 5704.99, 76285.61, 8838.62, 30642.45, -21891.39, -3801.25, 7838.40, -52961.88, -5735.01, 39472.64, 9911.57, -9268.73, 0.00, 0.00, 0.00, 0.00, 0.00, 0.00, 0.00
201, 5687.62, 76276.27, 8823.82, 30624.12, -21907.08, -3819.35, 7822.75, -52975.20, -5735.01, 39472.64, 9911.57, -9268.73, 0.00, 0.00, 0.00, 0.00, 0.00, 0.00, 0.00
202, 5687.62, 76276.27, 8823.82, 30624.12, -21907.08, -3819.35, 7822.75, -52975.20, -5726.54, 39523.00, 9938.19, -9289.50, 0.00, 0.00, 0.00, 0.00, 0.00, 0.00, 0.00
203, 5699.25, 76298.10, 8841.21, 30641.58, -21886.80, -3797.63, 7842.27, -52951.53, -5726.54, 39523.00, 9938.19, -9289.50, 0.00, 0.00, 0.00, 0.00, 0.00, 0.00, 0.00
204, 5699.25, 76298.10, 8841.21, 30641.58, -21886.80, -3797.63, 7842.27, -52951.53, -5732.62, 39502.88, 9924.55, -9231.69, 0.00, 0.00, 0.00, 0.00, 0.00, 0.00, 0.00
205, 5684.41, 76274.43, 8823.71, 30625.26, -21903.93, -3810.77, 7828.50, -52965.43, -5732.62, 39502.88, 9924.55, -9231.69, 0.00, 0.00, 0.00, 0.00, 0.00, 0.00, 0.00
206, 5684.41, 76274.43, 8823.71, 30625.26, -21903.93, -3810.77, 7828.50, -52965.43, -5723.61, 39513.39, 9941.63, -9291.64, 0.00, 0.00, 0.00, 0.00, 0.00, 0.00, 0.00
207, 5708.32, 76298.70, 8845.39, 30645.09, -21885.04, -3795.68, 7848.73, -52950.61, -5723.61, 39513.39, 9941.63, -9291.64, 0.00, 0.00, 0.00, 0.00, 0.00, 0.00, 0.00
208, 5708.32, 76298.70, 8845.39, 30645.09, -21885.04, -3795.68, 7848.73, -52950.61, -5727.72, 39507.22, 9931.71, -9251.43, 0.00, 0.00, 0.00, 0.00, 0.00, 0.00, 0.00
209, 5691.83, 76282.03, 8826.50, 30622.00, -21896.42, -3811.06, 7827.94, -52959.37, -5727.72, 39507.22, 9931.71, -9251.43, 0.00, 0.00, 0.00, 0.00, 0.02, 0.52, 0.85
210, 5691.83, 76282.03, 8826.50, 30622.00, -21896.42, -3811.06, 7827.94, -52959.37, -5713.84, 39528.39, 9943.17, -9263.86, 0.00, 0.00, 0.00, 0.00, 0.00, 0.00, 0.00
211, 5703.94, 76304.38, 8846.10, 30645.18, -21876.41, -3791.88, 7852.26, -52940.11, -5713.84, 39528.39, 9943.17, -9263.86, 0.00, 0.00, 0.00, 0.00, 0.00, 0.00, 0.00
212, 5703.94, 76304.38, 8846.10, 30645.18, -21876.41, -3791.88, 7852.26, -52940.11, -5725.76, 39521.70, 9943.60, -9234.96, 0.00, 0.00, 0.00, 0.00, 0.00, 0.00, 0.00
213, 5688.21, 76286.75, 8827.31, 30619.86, -21897.27, -3810.23, 7829.12, -52958.81, -5725.76, 39521.70, 9943.60, -9234.96, 0.00, 0.00, 0.00, 0.00, 0.00, 0.00, 0.00
214, 5688.21, 76286.75, 8827.31, 30619.86, -21897.27, -3810.23, 7829.12, -52958.81, -5722.81, 39528.54, 9939.49, -9252.15, 0.00, 0.00, 0.00, 0.00, 0.00, 0.00, 0.00
215, 5698.80, 76301.81, 8841.68, 30642.77, -21884.59, -3797.25, 7850.65, -52942.41, -5722.81, 39528.54, 9939.49, -9252.15, 0.00, 0.00, 0.00, 0.00, 0.00, 0.00, 0.00
216, 5698.80, 76301.81, 8841.68, 30642.77, -21884.59, -3797.25, 7850.65, -52942.41, -5728.22, 39516.09, 9941.18, -9256.35, 0.00, 0.00, 0.00, 0.00, 0.00, 0.00, 0.00
217, 5689.26, 76277.90, 8823.49, 30617.87, -21899.77, -3815.93, 7823.74, -52961.99, -5728.22, 39516.09, 9941.18, -9256.35, 0.00, 0.00, 0.00, 0.00, 0.00, 0.00, 0.00
218, 5689.26, 76277.90, 8823.49, 30617.87, -21899.77, -3815.93, 7823.74, -52961.99, -5723.95, 39511.11, 9950.35, -9248.57, 0.00, 0.00, 0.00, 0.00, 0.02, 0.52, 0.86
219, 5714.25, 76310.40, 8851.94, 30649.05, -21875.90, -3789.92, 7851.27, -52936.71, -5723.95, 39511.11, 9950.35, -9248.57, 0.00, 0.00, 0.00, 0.00, 0.00, 0.00, 0.00
220, 5714.25, 76310.40, 8851.94, 30649.05, -21875.90, -3789.92, 7851.27, -52936.71, -5716.66, 39534.11, 9955.69, -9249.73, 0.00, 0.00, 0.00, 0.00, 0.00, 0.00, 0.00
221, 5689.19, 76286.57, 8826.30, 30618.07, -21901.94, -3814.37, 7820.47, -52961.59, -5716.66, 39534.11, 9955.69, -9249.73, 0.00, 0.00, 0.00, 0.00, 0.00, 0.00, 0.00
222, 5689.19, 76286.57, 8826.30, 30618.07, -21901.94, -3814.37, 7820.47, -52961.59, -5729.44, 39518.46, 9938.39, -9237.71, 0.00, 0.00, 0.00, 0.00, 0.00, 0.00, 0.00
223, 5699.72, 76301.05, 8841.23, 30637.54, -21882.87, -3797.32, 7850.54, -52940.53, -5729.44, 39518.46, 9938.39, -9237.71, 0.00, 0.00, 0.00, 0.00, 0.00, 0.00, 0.00
224, 5699.72, 76301.05, 8841.23, 30637.54, -21882.87, -3797.32, 7850.54, -52940.53, -5724.57, 39527.94, 9964.36, -9251.92, 0.00, 0.00, 0.00, 0.00, 0.00, 0.00, 0.00
225, 5693.97, 76294.16, 8833.14, 30623.88, -21892.53, -3809.18, 7831.40, -52954.30, -5724.57, 39527.94, 9964.36, -9251.92, 0.00, 0.00, 0.00, 0.00, 0.00, 0.00, 0.00
226, 5693.97, 76294.16, 8833.14, 30623.88, -21892.53, -3809.18, 7831.40, -52954.30, -5731.10, 39507.18, 9943.67, -9229.04, 0.00, 0.00, 0.00, 0.00, 0.00, 0.00, 0.00
227, 5699.52, 76300.94, 8841.54, 30637.63, -21887.01, -3800.53, 7841.60, -52942.96, -5731.10, 39507.18, 9943.67, -9229.04, 0.00, 0.00, 0.00, 0.00, 0.00, 0.00, 0.00
228, 5699.52, 76300.94, 8841.54, 30637.63, -21887.01, -3800.53, 7841.60, -52942.96, -5711.70, 39550.09, 9963.07, -9253.31, 0.00, 0.00, 0.00, 0.00, 0.02, 0.52, 0.86
229, 5690.35, 76287.41, 8828.65, 30618.87, -21897.62, -3810.93, 7828.47, -52957.67, -5711.70, 39550.09, 9963.07, -9253.31, 0.00, 0.00, 0.00, 0.00, 0.00, 0.00, 0.00
230, 5690.35, 76287.41, 8828.65, 30618.87, -21897.62, -3810.93, 7828.47, -52957.67, -5730.34, 39505.95, 9938.84, -9225.10, 0.00, 0.00, 0.00, 0.00, 0.00, 0.00, 0.00
231, 5704.23, 76307.09, 8845.41, 30642.43, -21882.83, -3796.96, 7849.49, -52941.16, -5730.34, 39505.95, 9938.84, -9225.10, 0.00, 0.00, 0.00, 0.00, 0.00, 0.00, 0.00
232, 5704.23, 76307.09, 8845.41, 30642.43, -21882.83, -3796.96, 7849.49, -52941.16, -5724.42, 39534.60, 9977.95, -9265.04, 0.00, 0.00, 0.00, 0.00, 0.00, 0.00, 0.00
233, 5696.65, 76289.74, 8832.98, 30618.74, -21894.67, -3814.50, 7825.59, -52956.76, -5724.42, 39534.60, 9977.95, -9265.04, 0.00, 0.00, 0.00, 0.00, 0.00, 0.00, 0.00
234, 5696.65, 76289.74, 8832.98, 30618.74, -21894.67, -3814.50, 7825.59, -52956.76, -5722.18, 39516.12, 9947.13, -9200.92, 0.00, 0.00, 0.00, 0.00, 0.00, 0.00, 0.00
235, 5699.58, 76299.02, 8842.98, 30638.81, -21884.93, -3797.83, 7845.31, -52941.45, -5722.18, 39516.12, 9947.13, -9200.92, 0.00, 0.00, 0.00, 0.00, 0.00, 0.00, 0.00
236, 5699.58, 76299.02, 8842.98, 30638.81, -21884.93, -3797.83, 7845.31, -52941.45, -5717.91, 39545.13, 9970.13, -9270.39, 0.00, 0.00, 0.00, 0.00, 0.00, 0.00, 0.00
237, 5692.94, 76287.66, 8831.53, 30624.55, -21896.06, -3808.87, 7833.08, -52952.27, -5717.91, 39545.13, 9970.13, -9270.39, 0.00, 0.00, 0.00, 0.00, 0.00, 0.00, 0.00
238, 5692.94, 76287.66, 8831.53, 30624.55, -21896.06, -3808.87, 7833.08, -52952.27, -5729.74, 39504.34, 9948.56, -9207.44, 0.00, 0.00, 0.00, 0.00, 0.02, 0.52, 0.86
239, 5699.63, 76301.70, 8842.55, 30632.55, -21886.47, -3804.51, 7840.54, -52951.71, -5729.74, 39504.34, 9948.56, -9207.44, 0.00, 0.00, 0.00, 0.00, 0.00, 0.00, 0.00
240, 5699.63, 76301.70, 8842.55, 30632.55, -21886.47, -3804.51, 7840.54, -52951.71, -5725.42, 39538.87, 9979.88, -9272.84, 0.00, 0.00, 0.00, 0.00, 0.00, 0.00, 0.00
241, 5699.23, 76298.46, 8840.29, 30632.37, -21888.79, -3802.23, 7836.83, -52947.91, -5725.42, 39538.87, 9979.88, -9272.84, 0.00, 0.00, 0.00, 0.00, 0.00, 0.00, 0.00
242, 5699.23, 76298.46, 8840.29, 30632.37, -21888.79, -3802.23, 7836.83, -52947.91, -5722.58, 39517.21, 9950.08, -9199.40, 0.00, 0.00, 0.00, 0.00, 0.00, 0.00, 0.00
243, 5699.14, 76298.88, 8839.85, 30629.67, -21888.84, -3807.33, 7839.38, -52948.15, -5722.58, 39517.21, 9950.08, -9199.40, 0.00, 0.00, 0.00, 0.00, 0.00, 0.00, 0.00
244, 5699.14, 76298.88, 8839.85, 30629.67, -21888.84, -3807.33, 7839.38, -52948.15, -5716.91, 39547.30, 9985.66, -9255.88, 0.00, 0.00, 0.00, 0.00, 0.00, 0.00, 0.00
245, 5702.51, 76305.52, 8845.10, 30635.93, -21885.13, -3803.53, 7842.22, -52946.70, -5716.91, 39547.30, 9985.66, -9255.88, 0.00, 0.00, 0.00, 0.00, 0.00, 0.00, 0.00
246, 5702.51, 76305.52, 8845.10, 30635.93, -21885.13, -3803.53, 7842.22, -52946.70, -5733.62, 39506.17, 9953.39, -9215.49, 0.00, 0.00, 0.00, 0.00, 0.00, 0.00, 0.00
247, 5690.73, 76296.90, 8836.00, 30627.72, -21893.11, -3808.33, 7834.33, -52948.96, -5733.62, 39506.17, 9953.39, -9215.49, 0.00, 0.00, 0.00, 0.00, 0.00, 0.00, 0.00
248, 5690.73, 76296.90, 8836.00, 30627.72, -21893.11, -3808.33, 7834.33, -52948.96, -5711.41, 39556.64, 9986.92, -9255.61, 0.00, 0.00, 0.00, 0.00, 0.02, 0.51, 0.86
249, 5715.48, 76314.30, 8854.69, 30641.98, -21877.91, -3799.17, 7844.48, -52941.29, -5711.41, 39556.64, 9986.92, -9255.61, 0.00, 0.00, 0.00, 0.00, 0.00, 0.00, 0.00
250, 5715.48, 76314.30, 8854.69, 30641.98, -21877.91, -3799.17, 7844.48, -52941.29, -5725.98, 39508.79, 9974.06, -9210.82, 0.00, 0.00, 0.00, 0.00, 0.00, 0.00, 0.00
251, 5697.01, 76293.27, 8837.52, 30627.48, -21897.51, -3812.96, 7825.95, -52960.87, -5725.98, 39508.79, 9974.06, -9210.82, 0.00, 0.00, 0.00, 0.00, 0.00, 0.00, 0.00
252, 5697.01, 76293.27, 8837.52, 30627.48, -21897.51, -3812.96, 7825.95, -52960.87, -5722.49, 39533.15, 9984.34, -9268.53, 0.00, 0.00, 0.00, 0.00, 0.00, 0.00, 0.00
253, 5710.40, 76313.95, 8854.11, 30639.21, -21880.03, -3799.35, 7846.22, -52936.37, -5722.49, 39533.15, 9984.34, -9268.53, 0.00, 0.00, 0.00, 0.00, 0.00, 0.00, 0.00
254, 5710.40, 76313.95, 8854.11, 30639.21, -21880.03, -3799.35, 7846.22, -52936.37, -5720.84, 39525.37, 9973.06, -9214.04, 0.00, 0.00, 0.00, 0.00, 0.00, 0.00, 0.00
255, 5702.76, 76308.85, 8848.00, 30627.99, -21885.08, -3810.68, 7834.67, -52955.19, -5720.84, 39525.37, 9973.06, -9214.04, 0.00, 0.00, 0.00, 0.00, 0.00, 0.00, 0.00
0, 5702.76, 76308.85, 8848.00, 30627.99, -21885.08, -3810.68, 7834.67, -52955.19, -5714.04, 39534.58, 10005.83, -9261.62, 0.00, 0.00, 0.00, 0.00, 0.00, 0.00, 0.00
1, 5719.07, 76328.86, 8865.33, 30652.89, -21869.79, -3790.90, 7852.35, -52937.73, -5714.04, 39534.58, 10005.83, -9261.62, 0.00, 0.00, 0.00, 0.00, 0.02, 0.51, 0.87
2, 5719.07, 76328.86, 8865.33, 30652.89, -21869.79, -3790.90, 7852.35, -52937.73, -5724.64, 39521.77, 9992.57, -9212.41, 0.00, 0.00, 0.00, 0.00, 0.00, 0.00, 0.00
3, 5697.55, 76296.60, 8841.14, 30624.57, -21893.04, -3812.09, 7825.88, -52962.25, -5724.64, 39521.77, 9992.57, -9212.41, 0.00, 0.00, 0.00, 0.00, 0.00, 0.00, 0.00
4, 5697.55, 76296.60, 8841.14, 30624.57, -21893.04, -3812.09, 7825.88, -52962.25, -5719.12, 39532.59, 9992.28, -9246.78, 0.00, 0.00, 0.00, 0.00, 0.00, 0.00, 0.00
5, 5708.86, 76317.15, 8856.45, 30645.04, -21873.60, -3795.57, 7848.52, -52941.00, -5719.12, 39532.59, 9992.28, -9246.78, 0.00, 0.00, 0.00, 0.00, 0.00, 0.00, 0.00
6, 5708.86, 76317.15, 8856.45, 30645.04, -21873.60, -3795.57, 7848.52, -52941.00, -5716.53, 39530.58, 9994.09, -9227.92, 0.00, 0.00, 0.00, 0.00, 0.00, 0.00, 0.00
7, 5692.65, 76294.62, 8835.96, 30618.94, -21888.50, -3814.82, 7835.45, -52945.60, -5716.53, 39530.58, 9994.09, -9227.92, 0.00, 0.00, 0.00, 0.00, 0.00, 0.00, 0.00
8, 5692.65, 76294.62, 8835.96, 30618.94, -21888.50, -3814.82, 7835.45, -52945.60, -5707.03, 39538.74, 9977.77, -9234.13, 0.00, 0.00, 0.00, 0.00, 0.00, 0.00, 0.00
9, 5703.32, 76314.17, 8850.84, 30644.04, -21878.60, -3796.82, 7846.51, -52944.08, -5707.03, 39538.74, 9977.77, -9234.13, 0.00, 0.00, 0.00, 0.00, 0.00, 0.00, 0.00
10, 5703.32, 76314.17, 8850.84, 30644.04, -21878.60, -3796.82, 7846.51, -52944.08, -5727.23, 39524.81, 10004.48, -9233.50, 0.00, 0.00, 0.00, 0.00, 0.00, 0.00, 0.00
11, 5694.69, 76296.23, 8836.29, 30619.38, -21895.37, -3817.66, 7817.70, -52966.77, -5727.23, 39524.81, 10004.48, -9233.50, 0.00, 0.00, 0.00, 0.00, 0.02, 0.52, 0.86
12, 5694.69, 76296.23, 8836.29, 30619.38, -21895.37, -3817.66, 7817.70, -52966.77, -5719.95, 39518.20, 9987.03, -9235.05, 0.00, 0.00, 0.00, 0.00, 0.00, 0.00, 0.00
13, 5712.28, 76322.29, 8857.93, 30646.86, -21870.76, -3794.72, 7852.08, -52936.42, -5719.95, 39518.20, 9987.03, -9235.05, 0.00, 0.00, 0.00, 0.00, 0.00, 0.00, 0.00
14, 5712.28, 76322.29, 8857.93, 30646.86, -21870.76, -3794.72, 7852.08, -52936.42, -5711.63, 39534.31, 10009.49, -9249.08, 0.00, 0.00, 0.00, 0.00, 0.00, 0.00, 0.00
15, 5703.05, 76308.65, 8844.58, 30626.45, -21884.14, -3811.42, 7831.11, -52958.10, -5711.63, 39534.31, 10009.49, -9249.08, 0.00, 0.00, 0.00, 0.00, 0.00, 0.00, 0.00
16, 5703.05, 76308.65, 8844.58, 30626.45, -21884.14, -3811.42, 7831.11, -52958.10, -5727.25, 39515.45, 9994.83, -9223.60, 0.00, 0.00, 0.00, 0.00, 0.00, 0.00, 0.00
17, 5708.99, 76315.73, 8853.28, 30641.54, -21877.51, -3802.10, 7848.01, -52939.46, -5727.25, 39515.45, 9994.83, -9223.60, 0.00, 0.00, 0.00, 0.00, 0.00, 0.00, 0.00
18, 5708.99, 76315.73, 8853.28, 30641.54, -21877.51, -3802.10, 7848.01, -52939.46, -5719.45, 39546.43, 10014.36, -9241.17, 0.00, 0.00, 0.00, 0.00, 0.00, 0.00, 0.00
19, 5694.80, 76303.98, 8840.76, 30629.67, -21888.01, -3810.12, 7827.25, -52955.33, -5719.45, 39546.43, 10014.36, -9241.17, 0.00, 0.00, 0.00, 0.00, 0.00, 0.00, 0.00
20, 5694.80, 76303.98, 8840.76, 30629.67, -21888.01, -3810.12, 7827.25, -52955.33, -5721.82, 39521.75, 9999.10, -9213.84, 0.00, 0.00, 0.00, 0.00, 0.00, 0.00, 0.00
21, 5706.11, 76320.54, 8854.87, 30644.71, -21869.53, -3793.85, 7852.93, -52931.81, -5721.82, 39521.75, 9999.10, -9213.84, 0.00, 0.00, 0.00, 0.00, 0.01, 0.52, 0.87
22, 5706.11, 76320.54, 8854.87, 30644.71, -21869.53, -3793.85, 7852.93, -52931.81, -5695.09, 39571.50, 10010.59, -9224.83, 0.00, 0.00, 0.00, 0.00, 0.00, 0.00, 0.00
23, 5700.77, 76310.71, 8843.96, 30629.89, -21880.50, -3808.60, 7835.47, -52945.98, -5695.09, 39571.50, 10010.59, -9224.83, 0.00, 0.00, 0.00, 0.00, 0.00, 0.00, 0.00
24, 5700.77, 76310.71, 8843.96, 30629.89, -21880.50, -3808.60, 7835.47, -52945.98, -5734.47, 39492.16, 10003.34, -9225.82, 0.00, 0.00, 0.00, 0.00, 0.00, 0.00, 0.00
25, 5711.21, 76318.66, 8856.90, 30649.09, -21871.49, -3796.35, 7846.47, -52946.18, -5734.47, 39492.16, 10003.34, -9225.82, 0.00, 0.00, 0.00, 0.00, 0.00, 0.00, 0.00
26, 5711.21, 76318.66, 8856.90, 30649.09, -21871.49, -3796.35, 7846.47, -52946.18, -5727.95, 39534.04, 10022.16, -9262.99, 0.00, 0.00, 0.00, 0.00, 0.00, 0.00, 0.00
27, 5686.28, 76289.30, 8829.52, 30617.15, -21891.41, -3815.78, 7826.33, -52958.99, -5727.95, 39534.04, 10022.16, -9262.99, 0.00, 0.00, 0.00, 0.00, 0.00, 0.00, 0.00
28, 5686.28, 76289.30, 8829.52, 30617.15, -21891.41, -3815.78, 7826.33, -52958.99, -5726.16, 39518.00, 9979.27, -9199.51, 0.00, 0.00, 0.00, 0.00, 0.00, 0.00, 0.00
29, 5703.87, 76315.11, 8852.34, 30642.25, -21871.96, -3799.15, 7845.57, -52941.78, -5726.16, 39518.00, 9979.27, -9199.51, 0.00, 0.00, 0.00, 0.00, 0.00, 0.00, 0.00
30, 5703.87, 76315.11, 8852.34, 30642.25, -21871.96, -3799.15, 7845.57, -52941.78, -5718.43, 39546.40, 10032.83, -9250.58, 0.00, 0.00, 0.00, 0.00, 0.00, 0.00, 0.00
31, 5707.03, 76317.50, 8851.67, 30640.53, -21873.80, -3800.44, 7840.63, -52945.34, -5718.43, 39546.40, 10032.83, -9250.58, 0.00, 0.00, 0.00, 0.00, 0.01, 0.52, 0.86
32, 5707.03, 76317.50, 8851.67, 30640.53, -21873.80, -3800.44, 7840.63, -52945.34, -5718.81, 39515.47, 10004.93, -9200.60, 0.00, 0.00, 0.00, 0.00, 0.00, 0.00, 0.00
33, 5695.18, 76308.41, 8841.57, 30630.58, -21879.07, -3806.03, 7834.53, -52945.56, -5718.81, 39515.47, 10004.93, -9200.60, 0.00, 0.00, 0.00, 0.00, 0.00, 0.00, 0.00
34, 5695.18, 76308.41, 8841.57, 30630.58, -21879.07, -3806.03, 7834.53, -52945.56, -5704.03, 39563.28, 10022.70, -9253.04, 0.00, 0.00, 0.00, 0.00, 0.00, 0.00, 0.00
35, 5697.59, 76306.69, 8844.52, 30637.00, -21874.87, -3799.04, 7844.14, -52938.41, -5704.03, 39563.28, 10022.70, -9253.04, 0.00, 0.00, 0.00, 0.00, 0.00, 0.00, 0.00
36, 5697.59, 76306.69, 8844.52, 30637.00, -21874.87, -3799.04, 7844.14, -52938.41, -5729.80, 39516.68, 9993.62, -9184.44, 0.00, 0.00, 0.00, 0.00, 0.00, 0.00, 0.00
37, 5692.45, 76301.59, 8837.52, 30629.98, -21890.56, -3809.16, 7827.18, -52958.88, -5729.80, 39516.68, 9993.62, -9184.44, 0.00, 0.00, 0.00, 0.00, 0.00, 0.00, 0.00
38, 5692.45, 76301.59, 8837.52, 30629.98, -21890.56, -3809.16, 7827.18, -52958.88, -5733.29, 39541.75, 10013.94, -9248.86, 0.00, 0.00, 0.00, 0.00, 0.00, 0.00, 0.00
39, 5690.20, 76306.84, 8839.06, 30631.08, -21886.16, -3806.39, 7836.21, -52949.16, -5733.29, 39541.75, 10013.94, -9248.86, 0.00, 0.00, 0.00, 0.00, 0.00, 0.00, 0.00
40, 5690.20, 76306.84, 8839.06, 30631.08, -21886.16, -3806.39, 7836.21, -52949.16, -5722.16, 39523.71, 10004.51, -9196.38, 0.00, 0.00, 0.00, 0.00, 0.01, 0.52, 0.87
41, 5694.22, 76306.66, 8843.98, 30637.15, -21877.57, -3801.41, 7844.84, -52954.12, -5722.16, 39523.71, 10004.51, -9196.38, 0.00, 0.00, 0.00, 0.00, 0.00, 0.00, 0.00
42, 5694.22, 76306.66, 8843.98, 30637.15, -21877.57, -3801.41, 7844.84, -52954.12, -5715.92, 39547.68, 10030.08, -9238.22, 0.00, 0.00, 0.00, 0.00, 0.00, 0.00, 0.00
43, 5704.25, 76320.68, 8857.08, 30646.43, -21862.42, -3790.19, 7850.83, -52927.05, -5715.92, 39547.68, 10030.08, -9238.22, 0.00, 0.00, 0.00, 0.00, 0.00, 0.00, 0.00
44, 5704.25, 76320.68, 8857.08, 30646.43, -21862.42, -3790.19, 7850.83, -52927.05, -5716.75, 39515.18, 10016.67, -9192.31, 0.00, 0.00, 0.00, 0.00, 0.00, 0.00, 0.00
45, 5691.94, 76302.30, 8838.48, 30629.55, -21885.24, -3809.07, 7827.60, -52958.23, -5716.75, 39515.18, 10016.67, -9192.31, 0.00, 0.00, 0.00, 0.00, 0.00, 0.00, 0.00
46, 5691.94, 76302.30, 8838.48, 30629.55, -21885.24, -3809.07, 7827.60, -52958.23, -5725.24, 39550.02, 10022.48, -9234.49, 0.00, 0.00, 0.00, 0.00, 0.00, 0.00, 0.00
47, 5700.61, 76314.30, 8851.51, 30642.50, -21866.22, -3795.86, 7854.76, -52929.44, -5725.24, 39550.02, 10022.48, -9234.49, 0.00, 0.00, 0.00, 0.00, 0.00, 0.00, 0.00
48, 5700.61, 76314.30, 8851.51, 30642.50, -21866.22, -3795.86, 7854.76, -52929.44, -5730.96, 39519.31, 10017.02, -9206.75, 0.00, 0.00, 0.00, 0.00, 0.00, 0.00, 0.00
49, 5679.44, 76292.58, 8829.18, 30619.45, -21890.94, -3816.02, 7824.14, -52966.19, -5730.96, 39519.31, 10017.02, -9206.75, 0.00, 0.00, 0.00, 0.00, 0.00, 0.00, 0.00
50, 5679.44, 76292.58, 8829.18, 30619.45, -21890.94, -3816.02, 7824.14, -52966.19, -5713.75, 39543.92, 10027.08, -9228.48, 0.00, 0.00, 0.00, 0.00, 0.01, 0.51, 0.87
51, 5712.03, 76334.85, 8863.41, 30651.33, -21858.93, -3790.57, 7853.35, -52925.15, -5713.75, 39543.92, 10027.08, -9228.48, 0.00, 0.00, 0.00, 0.00, 0.00, 0.00, 0.00
52, 5712.03, 76334.85, 8863.41, 30651.33, -21858.93, -3790.57, 7853.35, -52925.15, -5729.65, 39532.16, 10027.62, -9197.97, 0.00, 0.00, 0.00, 0.00, 0.00, 0.00, 0.00
53, 5694.75, 76307.40, 8839.09, 30625.09, -21882.54, -3809.07, 7831.29, -52954.61, -5729.65, 39532.16, 10027.62, -9197.97, 0.00, 0.00, 0.00, 0.00, 0.00, 0.00, 0.00
54, 5694.75, 76307.40, 8839.09, 30625.09, -21882.54, -3809.07, 7831.29, -52954.61, -5705.26, 39553.33, 10026.14, -9206.59, 0.00, 0.00, 0.00, 0.00, 0.00, 0.00, 0.00
55, 5709.44, 76333.10, 8859.18, 30646.74, -21863.45, -3789.81, 7850.85, -52924.21, -5705.26, 39553.33, 10026.14, -9206.59, 0.00, 0.00, 0.00, 0.00, 0.00, 0.00, 0.00
56, 5709.44, 76333.10, 8859.18, 30646.74, -21863.45, -3789.81, 7850.85, -52924.21, -5721.80, 39545.29, 10031.95, -9198.48, 0.00, 0.00, 0.00, 0.00, 0.00, 0.00, 0.00
57, 5693.32, 76308.61, 8834.57, 30621.96, -21889.44, -3813.61, 7821.30, -52959.37, -5721.80, 39545.29, 10031.95, -9198.48, 0.00, 0.00, 0.00, 0.00, 0.00, 0.00, 0.00
58, 5693.32, 76308.61, 8834.57, 30621.96, -21889.44, -3813.61, 7821.30, -52959.37, -5730.70, 39531.47, 10016.08, -9208.23, 0.00, 0.00, 0.00, 0.00, 0.00, 0.00, 0.00
59, 5704.88, 76323.18, 8850.64, 30639.23, -21866.53, -3796.38, 7852.06, -52930.43, -5730.70, 39531.47, 10016.08, -9208.23, 0.00, 0.00, 0.00, 0.00, 0.00, 0.00, 0.00
60, 5704.88, 76323.18, 8850.64, 30639.23, -21866.53, -3796.38, 7852.06, -52930.43, -5721.17, 39548.73, 10030.59, -9200.02, 0.00, 0.00, 0.00, 0.00, 0.02, 0.51, 0.87
61, 5691.13, 76301.63, 8829.70, 30622.25, -21885.33, -3811.60, 7826.78, -52954.21, -5721.17, 39548.73, 10030.59, -9200.02, 0.00, 0.00, 0.00, 0.00, 0.00, 0.00, 0.00
62, 5691.13, 76301.63, 8829.70, 30622.25, -21885.33, -3811.60, 7826.78, -52954.21, -5706.22, 39535.94, 10015.55, -9204.81, 0.00, 0.00, 0.00, 0.00, 0.00, 0.00, 0.00
63, 5710.49, 76326.96, 8851.85, 30647.39, -21869.62, -3791.97, 7850.13, -52934.38, -5706.22, 39535.94, 10015.55, -9204.81, 0.00, 0.00, 0.00, 0.00, 0.00, 0.00, 0.00
64, 5710.49, 76326.96, 8851.85, 30647.39, -21869.62, -3791.97, 7850.13, -52934.38, -5738.09, 39551.01, 10038.88, -9203.89, 0.00, 0.00, 0.00, 0.00, 0.00, 0.00, 0.00
65, 5699.40, 76311.02, 8836.31, 30626.58, -21881.42, -3809.18, 7826.11, -52952.46, -5738.09, 39551.01, 10038.88, -9203.89, 0.00, 0.00, 0.00, 0.00, 0.00, 0.00, 0.00
66, 5699.40, 76311.02, 8836.31, 30626.58, -21881.42, -3809.18, 7826.11, -52952.46, -5727.39, 39535.68, 10016.42, -9182.48, 0.00, 0.00, 0.00, 0.00, 0.00, 0.00, 0.00
67, 5696.72, 76311.13, 8838.21, 30636.44, -21877.80, -3800.44, 7843.76, -52938.88, -5727.39, 39535.68, 10016.42, -9182.48, 0.00, 0.00, 0.00, 0.00, 0.00, 0.00, 0.00
68, 5696.72, 76311.13, 8838.21, 30636.44, -21877.80, -3800.44, 7843.76, -52938.88, -5721.91, 39562.45, 10032.80, -9211.67, 0.00, 0.00, 0.00, 0.00, 0.00, 0.00, 0.00
69, 5694.75, 76305.91, 8832.74, 30624.77, -21885.35, -3810.48, 7826.02, -52949.80, -5721.91, 39562.45, 10032.80, -9211.67, 0.00, 0.00, 0.00, 0.00, 0.00, 0.00, 0.00
70, 5694.75, 76305.91, 8832.74, 30624.77, -21885.35, -3810.48, 7826.02, -52949.80, -5712.59, 39552.24, 10024.69, -9158.34, 0.00, 0.00, 0.00, 0.00, 0.01, 0.51, 0.86
71, 5707.12, 76328.08, 8848.63, 30639.90, -21868.46, -3796.53, 7848.79, -52931.37, -5712.59, 39552.24, 10024.69, -9158.34, 0.00, 0.00, 0.00, 0.00, 0.00, 0.00, 0.00
72, 5707.12, 76328.08, 8848.63, 30639.90, -21868.46, -3796.53, 7848.79, -52931.37, -5725.91, 39559.57, 10047.94, -9213.86, 0.00, 0.00, 0.00, 0.00, 0.00, 0.00, 0.00
73, 5687.83, 76299.29, 8828.56, 30622.09, -21886.20, -3811.60, 7829.84, -52949.78, -5725.91, 39559.57, 10047.94, -9213.86, 0.00, 0.00, 0.00, 0.00, 0.00, 0.00, 0.00
74, 5687.83, 76299.29, 8828.56, 30622.09, -21886.20, -3811.60, 7829.84, -52949.78, -5747.77, 39527.76, 10000.66, -9175.30, 0.00, 0.00, 0.00, 0.00, 0.00, 0.00, 0.00
75, 5683.91, 76299.63, 8824.38, 30620.21, -21898.90, -3820.18, 7815.13, -52965.05, -5747.77, 39527.76, 10000.66, -9175.30, 0.00, 0.00, 0.00, 0.00, 0.00, 0.00, 0.00
76, 5683.91, 76299.63, 8824.38, 30620.21, -21898.90, -3820.18, 7815.13, -52965.05, -5745.09, 39542.27, 10024.71, -9233.35, 0.00, 0.00, 0.00, 0.00, 0.00, 0.00, 0.00
77, 5662.55, 76279.21, 8806.54, 30602.06, -21905.60, -3831.87, 7808.72, -52959.55, -5745.09, 39542.27, 10024.71, -9233.35, 0.00, 0.00, 0.00, 0.00, 0.00, 0.00, 0.00
78, 5662.55, 76279.21, 8806.54, 30602.06, -21905.60, -3831.87, 7808.72, -52959.55, -5713.35, 39573.74, 9997.58, -9128.38, 0.00, 0.00, 0.00, 0.00, 0.00, 0.00, 0.00
79, 5676.63, 76294.26, 8821.92, 30624.46, -21883.74, -3806.55, 7834.80, -52933.06, -5713.35, 39573.74, 9997.58, -9128.38, 0.00, 0.00, 0.00, 0.00, 0.01, 0.52, 0.86
80, 5676.63, 76294.26, 8821.92, 30624.46, -21883.74, -3806.55, 7834.80, -52933.06, -5705.93, 39615.56, 10034.21, -9174.68, 0.00, 0.00, 0.00, 0.00, 0.00, 0.00, 0.00
81, 5663.71, 76282.91, 8810.81, 30609.08, -21887.25, -3815.04, 7830.08, -52925.42, -5705.93, 39615.56, 10034.21, -9174.68, 0.00, 0.00, 0.00, 0.00, 0.00, 0.00, 0.00
82, 5663.71, 76282.91, 8810.81, 30609.08, -21887.25, -3815.04, 7830.08, -52925.42, -5721.29, 39572.58, 9990.71, -9112.09, 0.00, 0.00, 0.00, 0.00, 0.00, 0.00, 0.00
83, 5667.55, 76285.70, 8813.90, 30623.79, -21886.07, -3799.75, 7839.02, -52933.27, -5721.29, 39572.58, 9990.71, -9112.09, 0.00, 0.00, 0.00, 0.00, 0.00, 0.00, 0.00
84, 5667.55, 76285.70, 8813.90, 30623.79, -21886.07, -3799.75, 7839.02, -52933.27, -5704.52, 39621.82, 10039.75, -9187.06, 0.00, 0.00, 0.00, 0.00, 0.00, 0.00, 0.00
85, 5683.33, 76305.05, 8831.93, 30628.77, -21867.43, -3796.47, 7848.95, -52918.27, -5704.52, 39621.82, 10039.75, -9187.06, 0.00, 0.00, 0.00, 0.00, 0.00, 0.00, 0.00
86, 5683.33, 76305.05, 8831.93, 30628.77, -21867.43, -3796.47, 7848.95, -52918.27, -5713.93, 39608.95, 10020.49, -9085.56, 0.00, 0.00, 0.00, 0.00, 0.00, 0.00, 0.00
87, 5671.08, 76290.28, 8817.79, 30619.25, -21884.73, -3807.64, 7836.57, -52934.54, -5713.93, 39608.95, 10020.49, -9085.56, 0.00, 0.00, 0.00, 0.00, 0.00, 0.00, 0.00
88, 5671.08, 76290.28, 8817.79, 30619.25, -21884.73, -3807.64, 7836.57, -52934.54, -5729.71, 39568.24, 10038.26, -9176.02, 0.00, 0.00, 0.00, 0.00, 0.00, 0.00, 0.00
89, 5692.61, 76313.13, 8838.84, 30646.41, -21863.69, -3787.19, 7850.25, -52928.46, -5729.71, 39568.24, 10038.26, -9176.02, 0.00, 0.00, 0.00, 0.00, 0.02, 0.51, 0.87
90, 5692.61, 76313.13, 8838.84, 30646.41, -21863.69, -3787.19, 7850.25, -52928.46, -5727.52, 39553.42, 10019.82, -9141.62, 0.00, 0.00, 0.00, 0.00, 0.00, 0.00, 0.00
91, 5670.88, 76283.10, 8815.10, 30620.66, -21887.03, -3811.58, 7827.98, -52953.85, -5727.52, 39553.42, 10019.82, -9141.62, 0.00, 0.00, 0.00, 0.00, 0.00, 0.00, 0.00
92, 5670.88, 76283.10, 8815.10, 30620.66, -21887.03, -3811.58, 7827.98, -52953.85, -5746.28, 39589.50, 10030.17, -9162.81, 0.00, 0.00, 0.00, 0.00, 0.00, 0.00, 0.00
93, 5669.83, 76289.36, 8813.07, 30620.55, -21895.12, -3812.49, 7821.99, -52951.01, -5746.28, 39589.50, 10030.17, -9162.81, 0.00, 0.00, 0.00, 0.00, 0.00, 0.00, 0.00
94, 5669.83, 76289.36, 8813.07, 30620.55, -21895.12, -3812.49, 7821.99, -52951.01, -5759.11, 39522.96, 9990.92, -9153.98, 0.00, 0.00, 0.00, 0.00, 0.00, 0.00, 0.00
95, 5662.48, 76278.37, 8802.18, 30601.01, -21913.72, -3844.92, 7791.68, -52982.68, -5759.11, 39522.96, 9990.92, -9153.98, 0.00, 0.00, 0.00, 0.00, 0.00, 0.00, 0.00
96, 5662.48, 76278.37, 8802.18, 30601.01, -21913.72, -3844.92, 7791.68, -52982.68, -5737.87, 39545.31, 10035.53, -9192.83, 0.00, 0.00, 0.00, 0.00, 0.00, 0.00, 0.00
97, 5688.05, 76307.38, 8826.64, 30621.91, -21894.83, -3826.80, 7811.76, -52961.56, -5737.87, 39545.31, 10035.53, -9192.83, 0.00, 0.00, 0.00, 0.00, 0.00, 0.00, 0.00
98, 5688.05, 76307.38, 8826.64, 30621.91, -21894.83, -3826.80, 7811.76, -52961.56, -5756.47, 39540.01, 10012.35, -9156.35, 0.00, 0.00, 0.00, 0.00, 0.00, 0.00, 0.00
99, 5670.21, 76283.22, 8805.67, 30604.32, -21919.30, -3839.76, 7789.78, -52985.88, -5756.47, 39540.01, 10012.35, -9156.35, 0.00, 0.00, 0.00, 0.00, 0.01, 0.51, 0.87
100, 5670.21, 76283.22, 8805.67, 30604.32, -21919.30, -3839.76, 7789.78, -52985.88, -5776.99, 39513.48, 10018.52, -9199.80, 0.00, 0.00, 0.00, 0.00, 0.00, 0.00, 0.00
101, 5687.58, 76309.48, 8828.36, 30627.86, -21898.65, -3826.22, 7802.23, -52981.23, -5776.99, 39513.48, 10018.52, -9199.80, 0.00, 0.00, 0.00, 0.00, 0.00, 0.00, 0.00
102, 5687.58, 76309.48, 8828.36, 30627.86, -21898.65, -3826.22, 7802.23, -52981.23, -5750.10, 39523.34, 10032.80, -9197.65, 0.00, 0.00, 0.00, 0.00, 0.00, 0.00, 0.00
103, 5668.02, 76278.99, 8803.82, 30593.90, -21922.14, -3857.53, 7772.24, -52997.08, -5750.10, 39523.34, 10032.80, -9197.65, 0.00, 0.00, 0.00, 0.00, 0.00, 0.00, 0.00
104, 5668.02, 76278.99, 8803.82, 30593.90, -21922.14, -3857.53, 7772.24, -52997.08, -5752.06, 39518.06, 10023.64, -9197.88, 0.00, 0.00, 0.00, 0.00, 0.00, 0.00, 0.00
105, 5684.99, 76303.02, 8827.89, 30632.30, -21896.75, -3822.91, 7806.99, -52970.50, -5752.06, 39518.06, 10023.64, -9197.88, 0.00, 0.00, 0.00, 0.00, 0.00, 0.00, 0.00
106, 5684.99, 76303.02, 8827.89, 30632.30, -21896.75, -3822.91, 7806.99, -52970.50, -5756.24, 39528.90, 10029.03, -9172.40, 0.00, 0.00, 0.00, 0.00, 0.00, 0.00, 0.00
107, 5663.78, 76278.01, 8800.69, 30596.12, -21917.36, -3845.60, 7782.52, -52986.98, -5756.24, 39528.90, 10029.03, -9172.40, 0.00, 0.00, 0.00, 0.00, 0.00, 0.00, 0.00
108, 5663.78, 76278.01, 8800.69, 30596.12, -21917.36, -3845.60, 7782.52, -52986.98, -5763.06, 39530.22, 10015.30, -9171.41, 0.00, 0.00, 0.00, 0.00, 0.00, 0.00, 0.00
109, 5688.07, 76310.09, 8826.21, 30623.05, -21903.17, -3834.82, 7795.44, -52980.16, -5763.06, 39530.22, 10015.30, -9171.41, 0.00, 0.00, 0.00, 0.00, 0.02, 0.51, 0.86
110, 5688.07, 76310.09, 8826.21, 30623.05, -21903.17, -3834.82, 7795.44, -52980.16, -5759.11, 39518.51, 10046.13, -9217.41, 0.00, 0.00, 0.00, 0.00, 0.00, 0.00, 0.00
111, 5674.97, 76291.04, 8810.16, 30600.43, -21917.81, -3853.53, 7771.95, -53003.74, -5759.11, 39518.51, 10046.13, -9217.41, 0.00, 0.00, 0.00, 0.00, 0.00, 0.00, 0.00
112, 5674.97, 76291.04, 8810.16, 30600.43, -21917.81, -3853.53, 7771.95, -53003.74, -5763.11, 39495.51, 10033.09, -9192.22, 0.00, 0.00, 0.00, 0.00, 0.00, 0.00, 0.00
113, 5701.37, 76316.34, 8837.57, 30635.41, -21887.56, -3821.68, 7809.83, -52966.28, -5763.11, 39495.51, 10033.09, -9192.22, 0.00, 0.00, 0.00, 0.00, 0.00, 0.00, 0.00
114, 5701.37, 76316.34, 8837.57, 30635.41, -21887.56, -3821.68, 7809.83, -52966.28, -5744.11, 39550.18, 10046.80, -9183.82, 0.00, 0.00, 0.00, 0.00, 0.00, 0.00, 0.00
115, 5670.59, 76286.88, 8807.64, 30602.91, -21912.46, -3849.26, 7777.62, -52987.34, -5744.11, 39550.18, 10046.80, -9183.82, 0.00, 0.00, 0.00, 0.00, 0.00, 0.00, 0.00
116, 5670.59, 76286.88, 8807.64, 30602.91, -21912.46, -3849.26, 7777.62, -52987.34, -5747.01, 39515.09, 10035.22, -9169.92, 0.00, 0.00, 0.00, 0.00, 0.00, 0.00, 0.00
117, 5699.56, 76320.68, 8839.69, 30637.07, -21884.41, -3819.62, 7812.29, -52962.88, -5747.01, 39515.09, 10035.22, -9169.92, 0.00, 0.00, 0.00, 0.00, 0.00, 0.00, 0.00
118, 5699.56, 76320.68, 8839.69, 30637.07, -21884.41, -3819.62, 7812.29, -52962.88, -5753.96, 39515.94, 10064.03, -9232.10, 0.00, 0.00, 0.00, 0.00, 0.02, 0.51, 0.86
119, 5675.67, 76287.71, 8805.00, 30592.34, -21929.74, -3867.16, 7755.25, -53025.54, -5753.96, 39515.94, 10064.03, -9232.10, 0.00, 0.00, 0.00, 0.00, 0.00, 0.00, 0.00
120, 5675.67, 76287.71, 8805.00, 30592.34, -21929.74, -3867.16, 7755.25, -53025.54, -5765.90, 39484.07, 10028.04, -9180.55, 0.00, 0.00, 0.00, 0.00, 0.00, 0.00, 0.00
121, 5697.30, 76316.56, 8835.26, 30633.38, -21891.54, -3830.89, 7804.18, -52970.05, -5765.90, 39484.07, 10028.04, -9180.55, 0.00, 0.00, 0.00, 0.00, 0.00, 0.00, 0.00
122, 5697.30, 76316.56, 8835.26, 30633.38, -21891.54, -3830.89, 7804.18, -52970.05, -5746.92, 39539.81, 10068.79, -9211.89, 0.00, 0.00, 0.00, 0.00, 0.00, 0.00, 0.00
123, 5690.24, 76311.22, 8824.54, 30612.57, -21907.73, -3847.43, 7778.94, -52998.71, -5746.92, 39539.81, 10068.79, -9211.89, 0.00, 0.00, 0.00, 0.00, 0.00, 0.00, 0.00
124, 5690.24, 76311.22, 8824.54, 30612.57, -21907.73, -3847.43, 7778.94, -52998.71, -5747.13, 39493.25, 10042.26, -9187.59, 0.00, 0.00, 0.00, 0.00, 0.00, 0.00, 0.00
125, 5704.10, 76331.27, 8840.29, 30631.14, -21894.27, -3837.01, 7793.29, -52985.03, -5747.13, 39493.25, 10042.26, -9187.59, 0.00, 0.00, 0.00, 0.00, 0.00, 0.00, 0.00
126, 5704.10, 76331.27, 8840.29, 30631.14, -21894.27, -3837.01, 7793.29, -52985.03, -5745.14, 39520.25, 10074.83, -9233.77, 0.00, 0.00, 0.00, 0.00, 0.00, 0.00, 0.00
127, 5697.12, 76312.32, 8833.83, 30626.92, -21895.81, -3833.64, 7792.98, -52982.57, -5745.14, 39520.25, 10074.83, -9233.77, 0.00, 0.00, 0.00, 0.00, 0.00, 0.00, 0.00
128, 5697.12, 76312.32, 8833.83, 30626.92, -21895.81, -3833.64, 7792.98, -52982.57, -5750.21, 39497.30, 10046.75, -9169.24, 0.00, 0.00, 0.00, 0.00, 0.01, 0.51, 0.86
129, 5695.11, 76309.91, 8832.27, 30624.73, -21901.80, -3844.77, 7784.37, -52993.84, -5750.21, 39497.30, 10046.75, -9169.24, 0.00, 0.00, 0.00, 0.00, 0.00, 0.00, 0.00
130, 5695.11, 76309.91, 8832.27, 30624.73, -21901.80, -3844.77, 7784.37, -52993.84, -5742.59, 39530.91, 10082.20, -9233.53, 0.00, 0.00, 0.00, 0.00, 0.00, 0.00, 0.00
131, 5699.61, 76317.86, 8834.28, 30626.92, -21898.81, -3839.22, 7791.46, -52993.21, -5742.59, 39530.91, 10082.20, -9233.53, 0.00, 0.00, 0.00, 0.00, 0.00, 0.00, 0.00
132, 5699.61, 76317.86, 8834.28, 30626.92, -21898.81, -3839.22, 7791.46, -52993.21, -5759.17, 39482.32, 10046.93, -9191.51, 0.00, 0.00, 0.00, 0.00, 0.00, 0.00, 0.00
133, 5693.44, 76316.43, 8833.01, 30626.00, -21904.33, -3845.04, 7780.31, -52995.20, -5759.17, 39482.32, 10046.93, -9191.51, 0.00, 0.00, 0.00, 0.00, 0.00, 0.00, 0.00
134, 5693.44, 76316.43, 8833.01, 30626.00, -21904.33, -3845.04, 7780.31, -52995.20, -5744.51, 39509.12, 10082.42, -9248.46, 0.00, 0.00, 0.00, 0.00, 0.00, 0.00, 0.00
135, 5708.28, 76327.52, 8843.91, 30628.46, -21895.79, -3844.99, 7783.46, -53000.12, -5744.51, 39509.12, 10082.42, -9248.46, 0.00, 0.00, 0.00, 0.00, 0.00, 0.00, 0.00
136, 5708.28, 76327.52, 8843.91, 30628.46, -21895.79, -3844.99, 7783.46, -53000.12, -5757.03, 39461.71, 10060.34, -9208.67, 0.00, 0.00, 0.00, 0.00, 0.00, 0.00, 0.00
137, 5695.72, 76310.71, 8831.26, 30625.06, -21906.18, -3847.00, 7777.85, -53005.59, -5757.03, 39461.71, 10060.34, -9208.67, 0.00, 0.00, 0.00, 0.00, 0.00, 0.00, 0.00
138, 5695.72, 76310.71, 8831.26, 30625.06, -21906.18, -3847.00, 7777.85, -53005.59, -5747.82, 39507.91, 10089.35, -9253.53, 0.00, 0.00, 0.00, 0.00, 0.08, 0.43, 0.91
139, 5713.71, 76332.97, 8851.40, 30642.56, -21887.07, -3834.89, 7794.77, -52988.92, -5747.82, 39507.91, 10089.35, -9253.53, 0.00, 0.00, 0.00, 0.00, 0.00, 0.00, 0.00
140, 5713.71, 76332.97, 8851.40, 30642.56, -21887.07, -3834.89, 7794.77, -52988.92, -5761.05, 39476.13, 10060.07, -9203.44, 0.00, 0.00, 0.00, 0.00, 0.00, 0.00, 0.00
141, 5687.96, 76303.82, 8827.53, 30618.36, -21908.08, -3854.33, 7774.29, -53008.79, -5761.05, 39476.13, 10060.07, -9203.44, 0.00, 0.00, 0.00, 0.00, 0.00, 0.00, 0.00
142, 5687.96, 76303.82, 8827.53, 30618.36, -21908.08, -3854.33, 7774.29, -53008.79, -5751.77, 39498.70, 10083.01, -9264.08, 0.00, 0.00, 0.00, 0.00, 0.00, 0.00, 0.00
143, 5709.28, 76338.80, 8853.35, 30643.55, -21883.54, -3833.70, 7799.22, -52982.06, -5751.77, 39498.70, 10083.01, -9264.08, 0.00, 0.00, 0.00, 0.00, 0.00, 0.00, 0.00
144, 5709.28, 76338.80, 8853.35, 30643.55, -21883.54, -3833.70, 7799.22, -52982.06, -5754.08, 39467.19, 10075.12, -9220.94, 0.00, 0.00, 0.00, 0.00, 0.00, 0.00, 0.00
145, 5695.02, 76311.78, 8830.19, 30614.80, -21916.13, -3866.96, 7756.03, -53029.09, -5754.08, 39467.19, 10075.12, -9220.94, 0.00, 0.00, 0.00, 0.00, 0.00, 0.00, 0.00
146, 5695.02, 76311.78, 8830.19, 30614.80, -21916.13, -3866.96, 7756.03, -53029.09, -5752.09, 39447.36, 10096.46, -9310.64, 0.00, 0.00, 0.00, 0.00, 0.00, 0.00, 0.00
147, 5715.52, 76335.74, 8854.46, 30644.49, -21894.00, -3841.84, 7786.68, -53007.99, -5752.09, 39447.36, 10096.46, -9310.64, 0.00, 0.00, 0.00, 0.00, 0.00, 0.00, 0.00
148, 5715.52, 76335.74, 8854.46, 30644.49, -21894.00, -3841.84, 7786.68, -53007.99, -5749.14, 39492.87, 10080.68, -9223.67, 0.00, 0.00, 0.00, 0.00, 0.07, 0.46, 0.93
149, 5699.72, 76314.66, 8837.81, 30631.03, -21893.94, -3844.77, 7786.12, -52996.01, -5749.14, 39492.87, 10080.68, -9223.67, 0.00, 0.00, 0.00, 0.00, 0.00, 0.00, 0.00
150, 5699.72, 76314.66, 8837.81, 30631.03, -21893.94, -3844.77, 7786.12, -52996.01, -5745.05, 39470.12, 10092.04, -9270.07, 0.00, 0.00, 0.00, 0.00, 0.00, 0.00, 0.00
151, 5708.26, 76329.77, 8848.32, 30644.31, -21895.28, -3845.44, 7781.51, -53013.46, -5745.05, 39470.12, 10092.04, -9270.07, 0.00, 0.00, 0.00, 0.00, 0.00, 0.00, 0.00
152, 5708.26, 76329.77, 8848.32, 30644.31, -21895.28, -3845.44, 7781.51, -53013.46, -5771.82, 39436.46, 10074.24, -9284.09, 0.00, 0.00, 0.00, 0.00, 0.00, 0.00, 0.00
153, 5705.26, 76322.06, 8839.27, 30632.84, -21902.70, -3851.90, 7771.46, -53022.07, -5771.82, 39436.46, 10074.24, -9284.09, 0.00, 0.00, 0.00, 0.00, 0.00, 0.00, 0.00
154, 5705.26, 76322.06, 8839.27, 30632.84, -21902.70, -3851.90, 7771.46, -53022.07, -5746.14, 39457.71, 10091.52, -9279.97, 0.00, 0.00, 0.00, 0.00, 0.00, 0.00, 0.00
155, 5709.46, 76328.39, 8845.79, 30642.56, -21899.70, -3846.24, 7778.65, -53014.43, -5746.14, 39457.71, 10091.52, -9279.97, 0.00, 0.00, 0.00, 0.00, 0.00, 0.00, 0.00
156, 5709.46, 76328.39, 8845.79, 30642.56, -21899.70, -3846.24, 7778.65, -53014.43, -5788.92, 39420.88, 10071.96, -9317.93, 0.00, 0.00, 0.00, 0.00, 0.00, 0.00, 0.00
157, 5693.15, 76310.98, 8827.64, 30618.09, -21918.97, -3870.00, 7752.28, -53041.13, -5788.92, 39420.88, 10071.96, -9317.93, 0.00, 0.00, 0.00, 0.00, 0.04, 0.49, 0.89
158, 5693.15, 76310.98, 8827.64, 30618.09, -21918.97, -3870.00, 7752.28, -53041.13, -5763.73, 39447.23, 10083.94, -9265.96, 0.00, 0.00, 0.00, 0.00, 0.00, 0.00, 0.00
159, 5711.45, 76336.93, 8852.61, 30645.94, -21891.43, -3841.53, 7789.52, -53000.01, -5763.73, 39447.23, 10083.94, -9265.96, 0.00, 0.00, 0.00, 0.00, 0.00, 0.00, 0.00
160, 5711.45, 76336.93, 8852.61, 30645.94, -21891.43, -3841.53, 7789.52, -53000.01, -5747.80, 39477.65, 10101.38, -9268.42, 0.00, 0.00, 0.00, 0.00, 0.00, 0.00, 0.00
161, 5697.08, 76314.22, 8831.96, 30617.64, -21915.64, -3870.74, 7754.22, -53029.63, -5747.80, 39477.65, 10101.38, -9268.42, 0.00, 0.00, 0.00, 0.00, 0.00, 0.00, 0.00
162, 5697.08, 76314.22, 8831.96, 30617.64, -21915.64, -3870.74, 7754.22, -53029.63, -5764.51, 39419.54, 10085.71, -9299.06, 0.00, 0.00, 0.00, 0.00, 0.00, 0.00, 0.00
163, 5713.26, 76337.40, 8851.92, 30640.69, -21892.55, -3845.30, 7782.81, -53008.25, -5764.51, 39419.54, 10085.71, -9299.06, 0.00, 0.00, 0.00, 0.00, 0.00, 0.00, 0.00
164, 5713.26, 76337.40, 8851.92, 30640.69, -21892.55, -3845.30, 7782.81, -53008.25, -5765.41, 39450.02, 10101.16, -9315.65, 0.00, 0.00, 0.00, 0.00, 0.00, 0.00, 0.00
165, 5702.49, 76320.21, 8834.97, 30617.35, -21912.53, -3867.79, 7757.64, -53029.76, -5765.41, 39450.02, 10101.16, -9315.65, 0.00, 0.00, 0.00, 0.00, 0.00, 0.00, 0.00
166, 5702.49, 76320.21, 8834.97, 30617.35, -21912.53, -3867.79, 7757.64, -53029.76, -5749.96, 39420.09, 10089.08, -9279.44, 0.00, 0.00, 0.00, 0.00, 0.00, 0.00, 0.00
167, 5711.47, 76337.93, 8852.34, 30638.83, -21888.17, -3846.51, 7790.59, -53000.95, -5749.96, 39420.09, 10089.08, -9279.44, 0.00, 0.00, 0.00, 0.00, 0.04, 0.50, 0.89
168, 5711.47, 76337.93, 8852.34, 30638.83, -21888.17, -3846.51, 7790.59, -53000.95, -5749.72, 39468.66, 10118.01, -9293.77, 0.00, 0.00, 0.00, 0.00, 0.00, 0.00, 0.00
169, 5705.66, 76328.92, 8840.90, 30622.29, -21900.42, -3856.03, 7770.49, -53008.79, -5749.72, 39468.66, 10118.01, -9293.77, 0.00, 0.00, 0.00, 0.00, 0.00, 0.00, 0.00
170, 5705.66, 76328.92, 8840.90, 30622.29, -21900.42, -3856.03, 7770.49, -53008.79, -5736.35, 39448.61, 10096.28, -9247.30, 0.00, 0.00, 0.00, 0.00, 0.00, 0.00, 0.00
171, 5715.74, 76336.86, 8853.35, 30637.09, -21892.26, -3849.01, 7780.40, -53003.81, -5736.35, 39448.61, 10096.28, -9247.30, 0.00, 0.00, 0.00, 0.00, 0.00, 0.00, 0.00
172, 5715.74, 76336.86, 8853.35, 30637.09, -21892.26, -3849.01, 7780.40, -53003.81, -5748.44, 39454.58, 10125.67, -9311.87, 0.00, 0.00, 0.00, 0.00, 0.00, 0.00, 0.00
173, 5709.66, 76328.12, 8845.84, 30630.43, -21895.63, -3847.99, 7779.08, -53003.92, -5748.44, 39454.58, 10125.67, -9311.87, 0.00, 0.00, 0.00, 0.00, 0.00, 0.00, 0.00
174, 5709.66, 76328.12, 8845.84, 30630.43, -21895.63, -3847.99, 7779.08, -53003.92, -5740.33, 39460.21, 10102.83, -9223.47, 0.00, 0.00, 0.00, 0.00, 0.00, 0.00, 0.00
175, 5725.31, 76344.98, 8861.10, 30644.29, -21875.61, -3831.94, 7808.65, -52971.69, -5740.33, 39460.21, 10102.83, -9223.47, 0.00, 0.00, 0.00, 0.00, 0.00, 0.00, 0.00
176, 5725.31, 76344.98, 8861.10, 30644.29, -21875.61, -3831.94, 7808.65, -52971.69, -5745.40, 39486.61, 10121.32, -9290.88, 0.00, 0.00, 0.00, 0.00, 0.00, 0.00, 0.00
177, 5705.35, 76326.45, 8842.64, 30625.91, -21899.21, -3850.67, 7774.94, -53002.96, -5745.40, 39486.61, 10121.32, -9290.88, 0.00, 0.00, 0.00, 0.00, 0.02, 0.51, 0.89
178, 5705.35, 76326.45, 8842.64, 30625.91, -21899.21, -3850.67, 7774.94, -53002.96, -5727.25, 39454.09, 10115.93, -9221.48, 0.00, 0.00, 0.00, 0.00, 0.00, 0.00, 0.00
179, 5723.97, 76350.36, 8862.11, 30643.28, -21879.56, -3832.54, 7799.53, -52985.81, -5727.25, 39454.09, 10115.93, -9221.48, 0.00, 0.00, 0.00, 0.00, 0.00, 0.00, 0.00
180, 5723.97, 76350.36, 8862.11, 30643.28, -21879.56, -3832.54, 7799.53, -52985.81, -5739.53, 39482.75, 10141.08, -9278.41, 0.00, 0.00, 0.00, 0.00, 0.00, 0.00, 0.00
181, 5724.04, 76345.02, 8863.70, 30644.84, -21875.00, -3831.67, 7803.89, -52976.70, -5739.53, 39482.75, 10141.08, -9278.41, 0.00, 0.00, 0.00, 0.00, 0.00, 0.00, 0.00
182, 5724.04, 76345.02, 8863.70, 30644.84, -21875.00, -3831.67, 7803.89, -52976.70, -5739.59, 39447.23, 10116.26, -9229.06, 0.00, 0.00, 0.00, 0.00, 0.00, 0.00, 0.00
183, 5723.39, 76344.21, 8859.11, 30640.24, -21882.16, -3833.17, 7796.71, -52982.95, -5739.59, 39447.23, 10116.26, -9229.06, 0.00, 0.00, 0.00, 0.00, 0.00, 0.00, 0.00
184, 5723.39, 76344.21, 8859.11, 30640.24, -21882.16, -3833.17, 7796.71, -52982.95, -5705.89, 39532.59, 10150.26, -9230.71, 0.00, 0.00, 0.00, 0.00, 0.00, 0.00, 0.00
185, 5719.52, 76343.07, 8861.26, 30647.97, -21862.38, -3815.44, 7826.80, -52945.54, -5705.89, 39532.59, 10150.26, -9230.71, 0.00, 0.00, 0.00, 0.00, 0.00, 0.00, 0.00
186, 5719.52, 76343.07, 8861.26, 30647.97, -21862.38, -3815.44, 7826.80, -52945.54, -5735.52, 39469.96, 10106.30, -9200.09, 0.00, 0.00, 0.00, 0.00, 0.00, 0.00, 0.00
187, 5701.57, 76318.46, 8838.21, 30622.09, -21895.01, -3848.41, 7781.87, -52993.48, -5735.52, 39469.96, 10106.30, -9200.09, 0.00, 0.00, 0.00, 0.00, 0.02, 0.51, 0.88
188, 5701.57, 76318.46, 8838.21, 30622.09, -21895.01, -3848.41, 7781.87, -52993.48, -5718.38, 39506.62, 10147.58, -9247.03, 0.00, 0.00, 0.00, 0.00, 0.00, 0.00, 0.00
189, 5726.18, 76349.76, 8868.64, 30654.08, -21863.83, -3814.84, 7821.52, -52955.84, -5718.38, 39506.62, 10147.58, -9247.03, 0.00, 0.00, 0.00, 0.00, 0.00, 0.00, 0.00
190, 5726.18, 76349.76, 8868.64, 30654.08, -21863.83, -3814.84, 7821.52, -52955.84, -5727.23, 39469.45, 10124.60, -9204.20, 0.00, 0.00, 0.00, 0.00, 0.00, 0.00, 0.00
191, 5708.99, 76335.20, 8852.18, 30638.81, -21873.64, -3823.82, 7810.73, -52962.70, -5727.23, 39469.45, 10124.60, -9204.20, 0.00, 0.00, 0.00, 0.00, 0.00, 0.00, 0.00
192, 5708.99, 76335.20, 8852.18, 30638.81, -21873.64, -3823.82, 7810.73, -52962.70, -5706.06, 39542.58, 10146.60, -9196.60, 0.00, 0.00, 0.00, 0.00, 0.00, 0.00, 0.00
193, 5717.46, 76339.79, 8862.80, 30658.12, -21856.34, -3805.79, 7834.71, -52936.89, -5706.06, 39542.58, 10146.60, -9196.60, 0.00, 0.00, 0.00, 0.00, 0.00, 0.00, 0.00
194, 5717.46, 76339.79, 8862.80, 30658.12, -21856.34, -3805.79, 7834.71, -52936.89, -5712.59, 39509.21, 10128.00, -9170.21, 0.00, 0.00, 0.00, 0.00, 0.00, 0.00, 0.00
195, 5711.30, 76320.21, 8841.81, 30630.38, -21886.83, -3834.91, 7799.28, -52967.04, -5712.59, 39509.21, 10128.00, -9170.21, 0.00, 0.00, 0.00, 0.00, 0.00, 0.00, 0.00
196, 5711.30, 76320.21, 8841.81, 30630.38, -21886.83, -3834.91, 7799.28, -52967.04, -5716.26, 39513.03, 10132.16, -9224.88, 0.00, 0.00, 0.00, 0.00, 0.02, 0.51, 0.88
197, 5726.11, 76348.80, 8867.36, 30656.38, -21859.58, -3809.74, 7828.81, -52943.57, -5716.26, 39513.03, 10132.16, -9224.88, 0.00, 0.00, 0.00, 0.00, 0.00, 0.00, 0.00
198, 5726.11, 76348.80, 8867.36, 30656.38, -21859.58, -3809.74, 7828.81, -52943.57, -5710.33, 39514.06, 10134.15, -9178.59, 0.00, 0.00, 0.00, 0.00, 0.00, 0.00, 0.00
199, 5701.37, 76317.68, 8842.46, 30637.22, -21877.89, -3822.84, 7813.32, -52956.51, -5710.33, 39514.06, 10134.15, -9178.59, 0.00, 0.00, 0.00, 0.00, 0.00, 0.00, 0.00
200, 5701.37, 76317.68, 8842.46, 30637.22, -21877.89, -3822.84, 7813.32, -52956.51, -5695.40, 39550.38, 10138.86, -9162.87, 0.00, 0.00, 0.00, 0.00, 0.00, 0.00, 0.00
201, 5728.24, 76348.86, 8872.50, 30670.93, -21843.96, -3794.05, 7849.87, -52916.70, -5695.40, 39550.38, 10138.86, -9162.87, 0.00, 0.00, 0.00, 0.00, 0.00, 0.00, 0.00
202, 5728.24, 76348.86, 8872.50, 30670.93, -21843.96, -3794.05, 7849.87, -52916.70, -5713.15, 39522.75, 10133.25, -9185.45, 0.00, 0.00, 0.00, 0.00, 0.00, 0.00, 0.00
203, 5700.86, 76317.50, 8839.33, 30635.03, -21879.25, -3825.81, 7810.44, -52957.45, -5713.15, 39522.75, 10133.25, -9185.45, 0.00, 0.00, 0.00, 0.00, 0.00, 0.00, 0.00
204, 5700.86, 76317.50, 8839.33, 30635.03, -21879.25, -3825.81, 7810.44, -52957.45, -5701.28, 39528.37, 10131.04, -9172.04, 0.00, 0.00, 0.00, 0.00, 0.00, 0.00, 0.00
205, 5722.74, 76344.59, 8865.55, 30666.03, -21851.02, -3797.85, 7843.47, -52925.33, -5701.28, 39528.37, 10131.04, -9172.04, 0.00, 0.00, 0.00, 0.00, 0.00, 0.00, 0.00
206, 5722.74, 76344.59, 8865.55, 30666.03, -21851.02, -3797.85, 7843.47, -52925.33, -5697.12, 39545.73, 10142.89, -9164.86, 0.00, 0.00, 0.00, 0.00, 0.03, 0.50, 0.89
207, 5706.11, 76318.76, 8844.34, 30639.55, -21870.29, -3818.15, 7819.35, -52942.34, -5697.12, 39545.73, 10142.89, -9164.86, 0.00, 0.00, 0.00, 0.00, 0.00, 0.00, 0.00
208, 5706.11, 76318.76, 8844.34, 30639.55, -21870.29, -3818.15, 7819.35, -52942.34, -5689.14, 39550.11, 10133.99, -9144.63, 0.00, 0.00, 0.00, 0.00, 0.00, 0.00, 0.00
209, 5722.76, 76344.77, 8867.67, 30667.53, -21848.43, -3797.05, 7849.62, -52913.84, -5689.14, 39550.11, 10133.99, -9144.63, 0.00, 0.00, 0.00, 0.00, 0.00, 0.00, 0.00
210, 5722.76, 76344.77, 8867.67, 30667.53, -21848.43, -3797.05, 7849.62, -52913.84, -5693.59, 39552.75, 10150.51, -9172.64, 0.00, 0.00, 0.00, 0.00, 0.00, 0.00, 0.00
211, 5712.10, 76335.18, 8853.50, 30643.23, -21860.50, -3811.51, 7829.30, -52932.73, -5693.59, 39552.75, 10150.51, -9172.64, 0.00, 0.00, 0.00, 0.00, 0.00, 0.00, 0.00
212, 5712.10, 76335.18, 8853.50, 30643.23, -21860.50, -3811.51, 7829.30, -52932.73, -5686.89, 39546.05, 10136.43, -9128.16, 0.00, 0.00, 0.00, 0.00, 0.00, 0.00, 0.00
213, 5724.77, 76343.52, 8867.18, 30666.57, -21847.02, -3795.97, 7852.21, -52913.95, -5686.89, 39546.05, 10136.43, -9128.16, 0.00, 0.00, 0.00, 0.00, 0.00, 0.00, 0.00
214, 5724.77, 76343.52, 8867.18, 30666.57, -21847.02, -3795.97, 7852.21, -52913.95, -5678.75, 39576.00, 10173.60, -9156.66, 0.00, 0.00, 0.00, 0.00, 0.00, 0.00, 0.00
215, 5720.28, 76337.95, 8863.79, 30651.44, -21848.65, -3804.71, 7839.92, -52923.54, -5678.75, 39576.00, 10173.60, -9156.66, 0.00, 0.00, 0.00, 0.00, 0.00, 0.00, 0.00
216, 5720.28, 76337.95, 8863.79, 30651.44, -21848.65, -3804.71, 7839.92, -52923.54, -5688.38, 39542.92, 10151.13, -9133.24, 0.00, 0.00, 0.00, 0.00, 0.03, 0.50, 0.88
217, 5725.69, 76349.63, 8876.15, 30668.54, -21839.29, -3792.00, 7855.99, -52913.15, -5688.38, 39542.92, 10151.13, -9133.24, 0.00, 0.00, 0.00, 0.00, 0.00, 0.00, 0.00
218, 5725.69, 76349.63, 8876.15, 30668.54, -21839.29, -3792.00, 7855.99, -52913.15, -5683.11, 39577.45, 10191.41, -9150.54, 0.00, 0.00, 0.00, 0.00, 0.00, 0.00, 0.00
