%OpenBCI Raw EEG Data
%
%Sample Rate = 250.0 Hz
%First Column = Time (ms)
%Other Columns = EEG data in microvolts followed by Accel Data (in G) interleaved with Aux Data
0.0, -175202.42, -174698.91, -181575.64, -181655.44, -174772.28, -174712.72, -174880.58, -181631.08, 0.00, 0.00, 0.00
4.0, -174931.94, -174553.69, -181566.50, -181646.19, -174815.27, -174596.84, -174854.14, -181621.84, 0.00, 0.00, 0.00
8.0, -175031.61, -174702.22, -181586.92, -181666.56, -175548.66, -174982.86, -175371.13, -181642.39, 0.00, 0.00, 0.00
12.0, -175222.42, -174874.36, -181596.11, -181675.75, -175908.64, -175129.73, -175478.56, -181651.89, 0.00, 0.00, 0.00
16.0, -175042.89, -174785.16, -181575.16, -181654.92, -175618.86, -174818.00, -174974.44, -181630.34, 0.00, 0.00, 0.00
20.0, -174575.20, -174578.11, -181562.19, -181641.94, -175361.92, -174617.00, -174833.91, -181617.48, 0.00, 0.00, 0.00
24.0, -174618.77, -174655.61, -181576.20, -181655.81, -175557.30, -174952.78, -175304.81, -181631.41, 0.00, 0.00, 0.00
28.0, -175180.92, -174836.20, -181589.17, -181668.73, -175779.31, -175161.94, -175515.91, -181644.95, 0.00, 0.00, 0.00
32.0, -175317.17, -174794.81, -181570.13, -181649.73, -175545.91, -174900.86, -175050.30, -181625.03, 0.00, 0.00, 0.00
36.0, -175018.47, -174586.72, -181550.27, -181629.91, -175237.09, -174619.69, -174799.70, -181605.38, 0.00, 0.00, 0.00
40.0, -174997.66, -174636.23, -181564.02, -181643.69, -175373.81, -174886.23, -175216.45, -181618.84, 0.00, 0.00, 0.00
44.0, -175227.03, -174832.39, -181583.75, -181663.39, -175656.81, -175174.91, -175557.66, -181639.48, 0.00, 0.00, 0.00
48.0, -175199.19, -174850.22, -181570.97, -181650.75, -175507.25, -174991.11, -175169.08, -181625.84, 0.00, 0.00, 0.00
52.0, -174834.20, -174632.59, -181551.70, -181631.50, -175163.63, -174657.22, -174806.95, -181606.69, 0.00, 0.00, 0.00
56.0, -174563.08, -174600.28, -181558.91, -181638.61, -175214.89, -174810.13, -175123.19, -181613.66, 0.00, 0.00, 0.00
60.0, -174992.25, -174778.56, -181578.34, -181658.00, -175510.16, -175140.48, -175540.38, -181634.05, 0.00, 0.00, 0.00
64.0, -175367.44, -174839.86, -181569.83, -181649.45, -175437.63, -175028.95, -175247.69, -181624.61, 0.00, 0.00, 0.00
68.0, -175117.23, -174642.00, -181546.63, -181626.27, -175075.89, -174668.81, -174801.19, -181601.34, 0.00, 0.00, 0.00
72.0, -174961.11, -174576.81, -181549.27, -181629.08, -175045.98, -174741.38, -175012.19, -181603.80, 0.00, 0.00, 0.00
76.0, -175156.22, -174756.45, -181569.61, -181649.36, -175360.30, -175115.56, -175509.94, -181624.92, 0.00, 0.00, 0.00
80.0, -175261.61, -174868.39, -181567.59, -181647.25, -175385.92, -175099.98, -175352.31, -181622.47, 0.00, 0.00, 0.00
84.0, -175003.95, -174699.16, -181544.97, -181624.72, -175032.14, -174741.44, -174856.47, -181599.58, 0.00, 0.00, 0.00
88.0, -174792.06, -174567.70, -181542.19, -181621.86, -174918.53, -174685.27, -174949.78, -181596.50, 0.00, 0.00, 0.00
92.0, -174946.42, -174714.22, -181562.70, -181642.42, -175213.58, -175057.16, -175475.45, -181617.80, 0.00, 0.00, 0.00
96.0, -175104.67, -174858.09, -181566.72, -181646.50, -175322.42, -175129.73, -175451.20, -181621.91, 0.00, 0.00, 0.00
100.0, -174834.89, -174729.34, -181543.20, -181622.98, -174995.53, -174788.33, -174927.09, -181597.66, 0.00, 0.00, 0.00
104.0, -174390.86, -174546.70, -181534.56, -181614.31, -174793.11, -174639.89, -174878.97, -181588.97, 0.00, 0.00, 0.00
108.0, -174606.05, -174649.53, -181553.05, -181632.77, -175034.31, -174983.33, -175377.91, -181607.83, 0.00, 0.00, 0.00
112.0, -175161.25, -174809.41, -181559.58, -181639.08, -175207.77, -175127.66, -175477.45, -181614.69, 0.00, 0.00, 0.00
116.0, -175237.58, -174729.45, -181539.09, -181618.67, -174926.58, -174824.25, -174972.48, -181593.20, 0.00, 0.00, 0.00
120.0, -174950.56, -174539.73, -181525.03, -181604.78, -174661.64, -174600.31, -174806.45, -181579.31, 0.00, 0.00, 0.00
124.0, -174984.09, -174631.84, -181541.98, -181621.64, -174856.27, -174920.64, -175276.16, -181596.31, 0.00, 0.00, 0.00
128.0, -175206.17, -174822.48, -181556.70, -181636.28, -175103.36, -175156.05, -175519.44, -181611.73, 0.00, 0.00, 0.00
132.0, -175120.02, -174796.98, -181540.06, -181619.52, -174890.06, -174915.36, -175066.80, -181593.92, 0.00, 0.00, 0.00
136.0, -174721.45, -174576.48, -181519.38, -181599.09, -174577.27, -174627.69, -174788.31, -181573.45, 0.00, 0.00, 0.00
140.0, -174552.02, -174587.09, -181531.23, -181610.95, -174700.80, -174769.92, -175187.14, -181585.20, 0.00, 0.00, 0.00
144.0, -175060.78, -174767.91, -181548.91, -181628.48, -174980.16, -175014.89, -175530.23, -181603.89, 0.00, 0.00, 0.00
148.0, -175335.81, -174791.50, -181536.48, -181616.09, -174827.52, -174837.16, -175154.19, -181590.45, 0.00, 0.00, 0.00
152.0, -175044.08, -174576.30, -181516.30, -181596.09, -174222.88, -174503.55, -174764.95, -181570.30, 0.00, 0.00, 0.00
156.0, -174924.02, -174550.72, -181522.44, -181602.13, -174153.56, -174690.64, -175045.84, -181576.09, 0.00, 0.00, 0.00
160.0, -175121.11, -174739.41, -181540.58, -181620.13, -174653.22, -175041.11, -175485.27, -181595.11, 0.00, 0.00, 0.00
164.0, -175157.58, -174800.27, -181533.73, -181613.23, -174814.38, -174937.53, -175213.19, -181587.52, 0.00, 0.00, 0.00
168.0, -174783.13, -174589.83, -181508.92, -181588.61, -174649.50, -174553.34, -174749.39, -181562.47, 0.00, 0.00, 0.00
172.0, -174420.58, -174497.67, -181509.33, -181588.94, -174859.34, -174613.03, -174913.23, -181562.67, 0.00, 0.00, 0.00
176.0, -174758.20, -174680.64, -181528.66, -181608.16, -175628.00, -174986.61, -175406.47, -181582.84, 0.00, 0.00, 0.00
180.0, -175253.88, -174796.45, -181528.25, -181607.84, -175766.20, -174980.27, -175273.02, -181582.14, 0.00, 0.00, 0.00
184.0, -175115.19, -174635.22, -181504.34, -181584.06, -175411.50, -174615.83, -174780.20, -181557.77, 0.00, 0.00, 0.00
188.0, -174883.95, -174512.13, -181499.53, -181579.16, -175271.56, -174586.00, -174842.63, -181552.70, 0.00, 0.00, 0.00
192.0, -175022.02, -174673.77, -181519.52, -181599.05, -175554.06, -174981.50, -175370.94, -181573.20, 0.00, 0.00, 0.00
196.0, -175191.52, -174829.06, -181521.59, -181601.17, -175681.27, -175072.52, -175387.36, -181575.53, 0.00, 0.00, 0.00
200.0, -174981.44, -174711.05, -181501.48, -181581.14, -175361.83, -174737.75, -174873.47, -181554.56, 0.00, 0.00, 0.00
204.0, -174544.23, -174517.14, -181493.16, -181572.89, -175148.02, -174579.44, -174810.19, -181546.16, 0.00, 0.00, 0.00
208.0, -174614.66, -174613.86, -181508.97, -181588.58, -175380.81, -174927.39, -175309.73, -181562.28, 0.00, 0.00, 0.00
212.0, -175180.50, -174781.61, -181517.77, -181597.28, -175568.70, -175091.69, -175443.17, -181571.66, 0.00, 0.00, 0.00
216.0, -175237.14, -174712.42, -181500.52, -181580.22, -175301.17, -174800.63, -174946.83, -181553.31, 0.00, 0.00, 0.00
220.0, -174942.03, -174514.72, -181487.42, -181567.14, -175022.47, -174557.38, -174757.64, -181540.11, 0.00, 0.00, 0.00
224.0, -174959.69, -174590.78, -181502.33, -181581.92, -175200.77, -174861.00, -175216.86, -181555.09, 0.00, 0.00, 0.00
228.0, -175185.97, -174780.84, -181516.31, -181595.83, -175459.28, -175114.92, -175494.53, -181570.08, 0.00, 0.00, 0.00
232.0, -175116.56, -174767.80, -181501.64, -181581.23, -175263.75, -174888.78, -175056.00, -181554.14, 0.00, 0.00, 0.00
236.0, -174809.92, -174550.73, -181483.19, -181562.86, -174941.31, -174582.78, -174746.48, -181535.59, 0.00, 0.00, 0.00
240.0, -174765.77, -174553.53, -181493.61, -181573.20, -175050.27, -174791.80, -175129.91, -181545.98, 0.00, 0.00, 0.00
244.0, -174995.25, -174737.38, -181512.67, -181592.31, -175347.44, -175101.92, -175505.88, -181566.44, 0.00, 0.00, 0.00
248.0, -174992.34, -174775.38, -181501.72, -181581.30, -175232.95, -174950.92, -175156.58, -181554.42, 0.00, 0.00, 0.00
252.0, -174550.95, -174559.83, -181476.84, -181556.47, -174877.83, -174602.86, -174750.97, -181529.16, 0.00, 0.00, 0.00
256.0, -174343.22, -174504.80, -181483.22, -181562.77, -174888.84, -174703.20, -175016.48, -181535.25, 0.00, 0.00, 0.00
260.0, -174773.47, -174690.05, -181503.17, -181582.64, -175186.47, -175044.16, -175459.27, -181556.52, 0.00, 0.00, 0.00
264.0, -175218.11, -174769.53, -181496.19, -181575.59, -175149.73, -174967.50, -175214.89, -181548.55, 0.00, 0.00, 0.00
268.0, -175033.13, -174583.80, -181474.67, -181554.14, -174787.59, -174602.02, -174743.50, -181526.48, 0.00, 0.00, 0.00
272.0, -174851.25, -174501.73, -181474.91, -181554.52, -174721.17, -174635.72, -174904.31, -181526.59, 0.00, 0.00, 0.00
276.0, -175029.73, -174676.84, -181494.61, -181574.20, -175028.38, -175016.36, -175415.80, -181547.56, 0.00, 0.00, 0.00
280.0, -175157.98, -174804.14, -181496.11, -181575.64, -175089.08, -175036.64, -175313.06, -181548.78, 0.00, 0.00, 0.00
284.0, -174898.33, -174650.02, -181475.59, -181555.22, -174743.00, -174680.23, -174806.55, -181527.25, 0.00, 0.00, 0.00
288.0, -174476.86, -174490.97, -181467.53, -181547.19, -174587.91, -174594.00, -174839.73, -181518.91, 0.00, 0.00, 0.00
292.0, -174648.39, -174620.47, -181485.41, -181565.03, -174854.92, -174953.06, -175351.59, -181537.64, 0.00, 0.00, 0.00
296.0, -175202.38, -174768.55, -181491.44, -181570.97, -174987.64, -175049.56, -175379.02, -181544.02, 0.00, 0.00, 0.00
300.0, -175166.45, -174658.84, -181469.83, -181549.48, -174637.06, -174721.59, -174862.31, -181521.06, 0.00, 0.00, 0.00
304.0, -174889.03, -174475.86, -181459.38, -181539.09, -174122.08, -174529.97, -174768.75, -181510.28, 0.00, 0.00, 0.00
308.0, -174948.64, -174581.64, -181475.75, -181555.33, -174358.42, -174857.67, -175256.42, -181527.30, 0.00, 0.00, 0.00
312.0, -175141.94, -174749.70, -181486.14, -181565.61, -174778.41, -175036.95, -175411.25, -181538.58, 0.00, 0.00, 0.00
316.0, -174992.25, -174676.22, -181466.52, -181546.09, -174732.78, -174739.06, -174912.16, -181517.45, 0.00, 0.00, 0.00
320.0, -174513.67, -174454.13, -181449.64, -181529.16, -174645.02, -174464.80, -174680.28, -181499.94, 0.00, 0.00, 0.00
324.0, -174449.13, -174508.47, -181459.59, -181539.09, -175222.73, -174747.63, -175101.23, -181510.22, 0.00, 0.00, 0.00
328.0, -174971.97, -174699.47, -181474.13, -181553.64, -175775.78, -175002.31, -175405.08, -181526.11, 0.00, 0.00, 0.00
332.0, -175215.41, -174691.89, -181461.52, -181541.13, -175600.08, -174781.94, -174988.66, -181512.16, 0.00, 0.00, 0.00
336.0, -174929.19, -174483.25, -181441.44, -181521.02, -175263.31, -174474.78, -174674.27, -181491.27, 0.00, 0.00, 0.00
340.0, -174863.69, -174502.03, -181449.53, -181529.06, -175348.58, -174714.80, -175033.02, -181499.67, 0.00, 0.00, 0.00
344.0, -175088.83, -174696.89, -181466.94, -181546.47, -175649.09, -175038.19, -175433.52, -181518.72, 0.00, 0.00, 0.00
348.0, -175102.36, -174744.39, -181458.19, -181537.84, -175551.41, -174902.80, -175106.52, -181508.75, 0.00, 0.00, 0.00
352.0, -174753.52, -174535.92, -181437.33, -181517.06, -175192.59, -174548.77, -174693.22, -181486.77, 0.00, 0.00, 0.00
356.0, -174431.78, -174473.06, -181443.36, -181522.95, -175187.78, -174648.23, -174942.42, -181492.67, 0.00, 0.00, 0.00
360.0, -174808.05, -174641.92, -181461.94, -181541.44, -175486.47, -174997.56, -175406.66, -181513.14, 0.00, 0.00, 0.00
364.0, -175245.78, -174730.75, -181456.97, -181536.53, -175470.47, -174939.88, -175192.00, -181507.38, 0.00, 0.00, 0.00
368.0, -175032.75, -174550.20, -181432.72, -181512.39, -175110.88, -174575.45, -174719.38, -181481.50, 0.00, 0.00, 0.00
372.0, -174838.61, -174452.44, -181432.36, -181512.08, -175025.80, -174583.64, -174856.48, -181480.92, 0.00, 0.00, 0.00
376.0, -175007.25, -174620.22, -181453.27, -181532.72, -175328.58, -174968.27, -175371.98, -181503.64, 0.00, 0.00, 0.00
380.0, -175147.23, -174754.38, -181455.05, -181534.64, -175408.03, -175007.48, -175297.75, -181505.48, 0.00, 0.00, 0.00
384.0, -174918.28, -174610.13, -181431.58, -181511.16, -175068.94, -174657.63, -174781.84, -181479.95, 0.00, 0.00, 0.00
388.0, -174674.89, -174450.31, -181424.09, -181503.77, -174903.20, -174550.95, -174791.47, -181471.84, 0.00, 0.00, 0.00
392.0, -174797.47, -174573.89, -181443.28, -181522.84, -175177.64, -174915.61, -175310.73, -181492.97, 0.00, 0.00, 0.00
396.0, -174986.34, -174736.34, -181451.83, -181531.39, -175339.38, -175041.72, -175368.81, -181502.17, 0.00, 0.00, 0.00
400.0, -174774.97, -174640.70, -181431.19, -181510.75, -175043.25, -174728.13, -174851.95, -181479.02, 0.00, 0.00, 0.00
404.0, -174304.19, -174437.08, -181419.47, -181499.09, -174800.22, -174517.66, -174726.00, -181466.19, 0.00, 0.00, 0.00
408.0, -174436.38, -174523.36, -181436.45, -181515.97, -175006.58, -174817.95, -175205.73, -181484.84, 0.00, 0.00, 0.00
412.0, -174976.25, -174700.63, -181447.88, -181527.31, -175217.89, -175012.72, -175389.27, -181497.75, 0.00, 0.00, 0.00
416.0, -175146.61, -174651.70, -181429.45, -181509.08, -174974.75, -174741.66, -174911.16, -181476.83, 0.00, 0.00, 0.00
420.0, -174858.94, -174446.48, -181412.05, -181491.64, -174674.31, -174474.33, -174674.41, -181457.56, 0.00, 0.00, 0.00
424.0, -174848.42, -174502.95, -181427.38, -181506.91, -174824.81, -174762.88, -175105.14, -181474.52, 0.00, 0.00, 0.00
428.0, -175080.11, -174699.31, -181445.02, -181524.36, -175103.27, -175044.23, -175430.34, -181494.53, 0.00, 0.00, 0.00
432.0, -175041.36, -174710.64, -181431.55, -181510.98, -174941.55, -174848.45, -175028.14, -181478.81, 0.00, 0.00, 0.00
436.0, -174658.84, -174490.92, -181411.56, -181491.11, -174603.69, -174521.67, -174685.27, -181455.77, 0.00, 0.00, 0.00
440.0, -174413.14, -174468.91, -181418.84, -181498.39, -174670.86, -174682.88, -175022.31, -181464.28, 0.00, 0.00, 0.00
444.0, -174870.13, -174653.94, -181435.63, -181514.98, -174966.13, -175002.63, -175428.80, -181484.41, 0.00, 0.00, 0.00
448.0, -175228.97, -174708.72, -181427.45, -181506.91, -174882.14, -174880.83, -175118.88, -181474.19, 0.00, 0.00, 0.00
452.0, -174973.52, -174508.59, -181405.97, -181485.63, -174524.47, -174525.64, -174678.19, -181448.28, 0.00, 0.00, 0.00
456.0, -174830.33, -174451.61, -181411.16, -181490.84, -174512.48, -174616.14, -174914.47, -181454.23, 0.00, 0.00, 0.00
460.0, -175036.91, -174642.48, -181432.14, -181511.63, -174834.72, -174993.30, -175408.70, -181480.05, 0.00, 0.00, 0.00
464.0, -175138.70, -174753.59, -181430.06, -181509.53, -174852.55, -174968.48, -175233.73, -181477.00, 0.00, 0.00, 0.00
468.0, -174878.88, -174580.42, -181408.23, -181487.75, -174392.48, -174618.92, -174735.41, -181449.23, 0.00, 0.00, 0.00
472.0, -174679.80, -174442.33, -181405.09, -181484.72, -174042.55, -174557.64, -174850.00, -181445.47, 0.00, 0.00, 0.00
476.0, -174839.70, -174578.98, -181427.06, -181506.59, -174483.23, -174847.55, -175364.03, -181473.81, 0.00, 0.00, 0.00
480.0, -174979.83, -174708.30, -181430.22, -181509.59, -174795.36, -174888.36, -175299.83, -181477.03, 0.00, 0.00, 0.00
484.0, -174681.58, -174560.22, -181404.09, -181483.69, -174666.83, -174519.36, -174763.19, -181441.83, 0.00, 0.00, 0.00
488.0, -174231.50, -174379.05, -181395.58, -181475.19, -174721.05, -174409.45, -174721.09, -181426.25, 0.00, 0.00, 0.00
492.0, -174456.36, -174511.69, -181415.17, -181494.73, -175455.02, -174794.97, -175230.05, -181458.14, 0.00, 0.00, 0.00
496.0, -175005.55, -174684.53, -181422.67, -181502.08, -175774.14, -174941.05, -175324.69, -181468.73, 0.00, 0.00, 0.00
500.0, -175081.13, -174596.59, -181402.39, -181481.98, -175479.61, -174622.08, -174814.58, -181427.11, 0.00, 0.00, 0.00
504.0, -174796.69, -174404.28, -181386.19, -181465.89, -175219.77, -174428.30, -174670.98, -181359.86, 0.00, 0.00, 0.00
508.0, -174844.95, -174504.59, -181402.69, -181482.22, -175430.50, -174785.97, -175161.83, -181428.28, 0.00, 0.00, 0.00
512.0, -175070.33, -174698.95, -181417.19, -181496.66, -175673.23, -175016.25, -175392.39, -181462.50, 0.00, 0.00, 0.00
516.0, -174971.11, -174665.95, -181397.77, -181477.41, -175443.59, -174759.59, -174920.97, -181413.61, 0.00, 0.00, 0.00
520.0, -174545.48, -174441.64, -181379.84, -181459.39, -175127.25, -174465.55, -174648.41, -181279.09, 0.00, 0.00, 0.00
524.0, -174404.59, -174457.91, -181391.86, -181471.34, -175257.50, -174712.63, -175058.50, -181365.94, 0.00, 0.00, 0.00
528.0, -174937.78, -174643.94, -181411.09, -181490.59, -175536.33, -174996.88, -175389.73, -181453.42, 0.00, 0.00, 0.00
532.0, -175187.64, -174657.52, -181398.45, -181477.97, -175378.80, -174802.39, -174991.38, -181399.13, 0.00, 0.00, 0.00
536.0, -174888.45, -174439.13, -181376.28, -181455.83, -175019.78, -174456.64, -174619.25, -181169.31, 0.00, 0.00, 0.00
540.0, -174792.67, -174432.38, -181384.67, -181464.13, -175070.13, -174637.02, -174937.02, -181234.89, 0.00, 0.00, 0.00
544.0, -175014.91, -174634.53, -181403.16, -181482.53, -175383.14, -174982.33, -175375.22, -181429.69, 0.00, 0.00, 0.00
548.0, -175053.47, -174701.72, -181393.98, -181473.30, -175315.31, -174874.39, -175084.72, -181383.94, 0.00, 0.00, 0.00
552.0, -174705.63, -174493.11, -181370.41, -181449.89, -174941.02, -174499.13, -174617.20, -181079.23, 0.00, 0.00, 0.00
556.0, -174352.66, -174396.97, -181373.58, -181453.20, -174897.13, -174557.75, -174810.42, -181061.69, 0.00, 0.00, 0.00
560.0, -174705.19, -174568.44, -181393.25, -181472.75, -175198.53, -174925.34, -175311.13, -181364.81, 0.00, 0.00, 0.00
564.0, -175176.36, -174674.16, -181390.25, -181469.83, -175213.95, -174900.05, -175151.73, -181360.50, 0.00, 0.00, 0.00
568.0, -174979.55, -174498.97, -181364.08, -181443.56, -174845.59, -174521.30, -174641.55, -180970.78, 0.00, 0.00, 0.00
572.0, -174753.44, -174371.73, -181359.08, -181438.58, -174716.78, -174480.53, -174716.92, -180845.61, 0.00, 0.00, 0.00
576.0, -174902.38, -174530.59, -181381.47, -181461.02, -175008.56, -174866.61, -175249.92, -181224.05, 0.00, 0.00, 0.00
580.0, -175061.22, -174678.03, -181387.02, -181466.59, -175118.84, -174938.17, -175237.36, -181327.72, 0.00, 0.00, 0.00
584.0, -174828.56, -174545.19, -181363.39, -181442.88, -174781.05, -174582.47, -174707.75, -180895.44, 0.00, 0.00, 0.00
588.0, -174378.00, -174359.73, -181352.59, -181432.05, -174567.70, -174435.38, -174650.58, -180650.97, 0.00, 0.00, 0.00
592.0, -174475.91, -174471.44, -181371.80, -181451.20, -174806.64, -174794.84, -175157.47, -181007.91, 0.00, 0.00, 0.00
596.0, -175035.50, -174635.72, -181381.73, -181461.16, -174981.56, -174941.94, -175278.33, -181209.86, 0.00, 0.00, 0.00
600.0, -175071.08, -174550.22, -181359.41, -181438.95, -174692.09, -174627.58, -174766.27, -180792.69, 0.00, 0.00, 0.00
604.0, -174769.38, -174354.64, -181345.44, -181425.03, -174412.20, -174394.58, -174588.05, -180442.98, 0.00, 0.00, 0.00
608.0, -174794.08, -174449.33, -181360.47, -181440.08, -174599.03, -174721.88, -175055.77, -180756.30, 0.00, 0.00, 0.00
612.0, -175015.41, -174642.88, -181372.64, -181451.98, -174846.81, -174960.31, -175315.88, -181061.84, 0.00, 0.00, 0.00
616.0, -174925.33, -174614.25, -181353.69, -181433.03, -174606.48, -174712.14, -174860.13, -180721.53, 0.00, 0.00, 0.00
620.0, -174478.14, -174382.56, -181336.39, -181415.94, -174007.45, -174397.00, -174564.59, -180287.02, 0.00, 0.00, 0.00
624.0, -174318.92, -174382.63, -181347.36, -181426.94, -174058.27, -174613.97, -174935.09, -180500.41, 0.00, 0.00, 0.00
628.0, -174800.67, -174556.44, -181364.66, -181444.22, -174531.89, -174892.30, -175291.14, -180854.47, 0.00, 0.00, 0.00
632.0, -175097.45, -174561.73, -181349.67, -181429.27, -174597.56, -174698.56, -174908.86, -180582.55, 0.00, 0.00, 0.00
636.0, -174806.33, -174347.06, -181324.55, -181404.14, -174433.20, -174334.19, -174515.03, -180078.81, 0.00, 0.00, 0.00
640.0, -174679.28, -174343.41, -181332.39, -181411.88, -174763.28, -174497.47, -174791.91, -180190.13, 0.00, 0.00, 0.00
644.0, -174885.34, -174550.63, -181354.25, -181433.81, -175526.08, -174863.59, -175265.88, -180614.58, 0.00, 0.00, 0.00
648.0, -174942.19, -174630.47, -181347.20, -181426.78, -175553.70, -174781.56, -175025.53, -180484.61, 0.00, 0.00, 0.00
652.0, -174579.14, -174432.45, -181324.75, -181404.41, -175187.47, -174414.09, -174575.55, -179972.47, 0.00, 0.00, 0.00
656.0, -174231.84, -174330.55, -181324.08, -181403.72, -175125.75, -174478.22, -174750.94, -179976.70, 0.00, 0.00, 0.00
660.0, -174583.56, -174508.53, -181343.81, -181423.34, -175422.16, -174857.13, -175250.05, -180411.23, 0.00, 0.00, 0.00
664.0, -175084.31, -174625.17, -181343.20, -181422.69, -175459.48, -174854.92, -175119.59, -180395.53, 0.00, 0.00, 0.00
668.0, -174946.41, -174464.72, -181320.27, -181399.84, -175106.78, -174490.70, -174619.69, -179884.73, 0.00, 0.00, 0.00
672.0, -174714.86, -174334.23, -181316.42, -181396.05, -174966.31, -174438.84, -174678.41, -179775.97, 0.00, 0.00, 0.00
676.0, -174856.06, -174490.86, -181337.97, -181417.45, -175253.92, -174822.75, -175209.33, -180210.05, 0.00, 0.00, 0.00
680.0, -175029.52, -174647.56, -181341.34, -181420.81, -175387.30, -174918.33, -175229.11, -180328.17, 0.00, 0.00, 0.00
684.0, -174831.92, -174531.52, -181319.13, -181398.61, -175072.30, -174589.27, -174707.13, -179853.81, 0.00, 0.00, 0.00
688.0, -174437.28, -174338.73, -181310.39, -181389.89, -174859.61, -174415.73, -174631.95, -179636.20, 0.00, 0.00, 0.00
692.0, -174434.14, -174431.08, -181327.22, -181406.70, -175093.25, -174741.97, -175131.52, -180014.48, 0.00, 0.00, 0.00
696.0, -174985.13, -174599.22, -181337.17, -181416.52, -175287.20, -174911.38, -175272.73, -180228.45, 0.00, 0.00, 0.00
700.0, -175055.19, -174532.50, -181319.27, -181398.73, -175022.11, -174621.14, -174774.75, -179809.30, 0.00, 0.00, 0.00
704.0, -174759.28, -174332.38, -181303.36, -181382.92, -174740.28, -174378.53, -174572.55, -179486.89, 0.00, 0.00, 0.00
708.0, -174776.27, -174406.52, -181315.69, -181395.22, -174918.69, -174687.06, -175030.00, -179800.75, 0.00, 0.00, 0.00
712.0, -175004.19, -174598.80, -181333.73, -181413.23, -175182.16, -174940.30, -175306.84, -180117.89, 0.00, 0.00, 0.00
716.0, -174939.41, -174588.23, -181317.77, -181397.23, -174990.39, -174717.03, -174872.59, -179787.72, 0.00, 0.00, 0.00
720.0, -174635.48, -174371.83, -181300.00, -181379.39, -174666.47, -174408.36, -174567.25, -179390.89, 0.00, 0.00, 0.00
724.0, -174585.64, -174372.55, -181309.44, -181388.80, -174770.27, -174607.16, -174948.33, -179613.30, 0.00, 0.00, 0.00
728.0, -174816.27, -174558.42, -181328.30, -181407.63, -175071.75, -174923.27, -175337.36, -179997.27, 0.00, 0.00, 0.00
732.0, -174817.38, -174600.88, -181317.45, -181396.84, -174961.69, -174775.81, -174993.08, -179770.89, 0.00, 0.00, 0.00
736.0, -174374.72, -174386.42, -181295.55, -181374.98, -174604.52, -174425.19, -174577.06, -179313.56, 0.00, 0.00, 0.00
740.0, -174166.06, -174324.06, -181301.23, -181380.58, -174613.50, -174522.23, -174839.63, -179416.83, 0.00, 0.00, 0.00
744.0, -174598.44, -174500.55, -181322.48, -181401.75, -174915.42, -174862.92, -175289.45, -179821.83, 0.00, 0.00, 0.00
748.0, -175049.16, -174583.39, -181316.55, -181395.83, -174885.45, -174791.75, -175051.81, -179703.28, 0.00, 0.00, 0.00
752.0, -174866.86, -174398.19, -181291.06, -181370.36, -174524.20, -174426.25, -174579.44, -179220.95, 0.00, 0.00, 0.00
756.0, -174680.33, -174307.25, -181290.44, -181369.77, -174452.13, -174454.88, -174732.55, -179215.50, 0.00, 0.00, 0.00
760.0, -174858.45, -174483.97, -181313.41, -181392.77, -174761.11, -174838.41, -175248.48, -179644.73, 0.00, 0.00, 0.00
764.0, -174991.27, -174615.02, -181313.34, -181392.64, -174828.13, -174863.72, -175153.67, -179655.81, 0.00, 0.00, 0.00
768.0, -174738.11, -174463.19, -181291.14, -181370.63, -174483.02, -174510.33, -174632.30, -179176.81, 0.00, 0.00, 0.00
772.0, -174325.56, -174303.05, -181284.53, -181364.08, -174327.89, -174405.06, -174655.77, -179056.94, 0.00, 0.00, 0.00
776.0, -174476.02, -174426.22, -181304.52, -181383.89, -174596.48, -174751.59, -175171.16, -179453.45, 0.00, 0.00, 0.00
780.0, -175032.25, -174576.34, -181311.73, -181391.08, -174735.38, -174854.83, -175206.58, -179568.23, 0.00, 0.00, 0.00
784.0, -175000.11, -174471.52, -181289.42, -181368.80, -174343.31, -174524.58, -174684.84, -179122.05, 0.00, 0.00, 0.00
788.0, -174715.00, -174290.83, -181277.36, -181356.73, -173821.20, -174337.25, -174572.69, -178887.64, 0.00, 0.00, 0.00
792.0, -174770.55, -174396.59, -181293.67, -181373.11, -174136.48, -174680.48, -175059.33, -179232.86, 0.00, 0.00, 0.00
796.0, -174968.94, -174567.39, -181305.09, -181384.44, -174561.91, -174866.20, -175222.19, -179445.44, 0.00, 0.00, 0.00
800.0, -174823.31, -174496.86, -181285.47, -181364.89, -174515.53, -174568.09, -174724.52, -179041.09, 0.00, 0.00, 0.00
804.0, -174350.23, -174281.08, -181268.63, -181348.08, -174422.02, -174294.81, -174492.22, -178700.97, 0.00, 0.00, 0.00
808.0, -174278.80, -174336.27, -181280.00, -181359.41, -174985.78, -174583.64, -174915.14, -178968.31, 0.00, 0.00, 0.00
812.0, -174817.72, -174527.02, -181294.30, -181373.58, -175575.70, -174847.67, -175222.81, -179267.31, 0.00, 0.00, 0.00
816.0, -175049.16, -174525.75, -181279.69, -181359.13, -175412.03, -174635.67, -174808.70, -178965.92, 0.00, 0.00, 0.00
820.0, -174758.22, -174315.19, -181260.27, -181339.70, -175075.42, -174320.88, -174484.02, -178570.50, 0.00, 0.00, 0.00
824.0, -174691.53, -174329.55, -181270.92, -181350.16, -175160.98, -174552.25, -174844.89, -178768.48, 0.00, 0.00, 0.00
828.0, -174922.89, -174531.84, -181290.61, -181369.92, -175472.08, -174890.30, -175266.06, -179151.84, 0.00, 0.00, 0.00
832.0, -174944.03, -174587.50, -181281.38, -181360.69, -175381.70, -174762.19, -174949.48, -178956.69, 0.00, 0.00, 0.00
836.0, -174650.92, -174381.17, -181260.33, -181339.67, -175026.92, -174421.23, -174529.91, -178517.14, 0.00, 0.00, 0.00
840.0, -174532.94, -174316.33, -181264.53, -181343.92, -175042.67, -174465.86, -174800.45, -178624.81, 0.00, 0.00, 0.00
844.0, -174752.17, -174498.91, -181286.03, -181365.31, -175373.95, -174775.80, -175282.58, -179053.42, 0.00, 0.00, 0.00
848.0, -174844.81, -174603.89, -181284.22, -181363.52, -175377.88, -174736.67, -175081.45, -178976.88, 0.00, 0.00, 0.00
852.0, -174494.61, -174423.86, -181260.73, -181340.19, -175018.64, -174371.23, -174582.05, -178508.33, 0.00, 0.00, 0.00
856.0, -174135.33, -174287.44, -181258.69, -181338.09, -174926.78, -174396.33, -174702.84, -178483.19, 0.00, 0.00, 0.00
860.0, -174483.98, -174442.66, -181280.80, -181360.13, -175228.64, -174788.44, -175214.84, -178900.50, 0.00, 0.00, 0.00
864.0, -175014.17, -174579.72, -181283.06, -181362.34, -175307.66, -174829.30, -175138.83, -178927.89, 0.00, 0.00, 0.00
868.0, -174906.34, -174438.84, -181257.23, -181336.81, -174963.55, -174472.77, -174614.75, -178458.89, 0.00, 0.00, 0.00
872.0, -174658.61, -174278.88, -181248.80, -181328.16, -174791.89, -174369.27, -174618.06, -178320.88, 0.00, 0.00, 0.00
876.0, -174785.58, -174408.58, -181270.34, -181349.52, -175073.19, -174754.47, -175147.95, -178727.25, 0.00, 0.00, 0.00
880.0, -174982.23, -174579.55, -181282.83, -181362.08, -175244.69, -174892.69, -175217.59, -178876.69, 0.00, 0.00, 0.00
884.0, -174806.42, -174484.94, -181261.36, -181340.66, -174942.52, -174571.23, -174690.97, -178440.70, 0.00, 0.00, 0.00
888.0, -174410.14, -174287.05, -181249.86, -181329.27, -174692.31, -174356.09, -174555.20, -178191.25, 0.00, 0.00, 0.00
892.0, -174353.30, -174363.11, -181265.72, -181345.02, -174906.86, -174665.59, -175044.66, -178532.20, 0.00, 0.00, 0.00
896.0, -174896.73, -174535.64, -181277.20, -181356.48, -175128.91, -174867.02, -175241.00, -178764.73, 0.00, 0.00, 0.00
900.0, -175011.38, -174488.02, -181257.83, -181337.03, -174880.84, -174591.23, -174751.55, -178382.66, 0.00, 0.00, 0.00
904.0, -174705.05, -174273.89, -181239.53, -181318.84, -174567.16, -174306.56, -174490.97, -178034.34, 0.00, 0.00, 0.00
908.0, -174694.33, -174326.48, -181253.17, -181332.56, -174717.03, -174584.75, -174920.66, -178304.23, 0.00, 0.00, 0.00
912.0, -174929.23, -174524.94, -181269.78, -181349.05, -175002.17, -174872.28, -175254.92, -178632.00, 0.00, 0.00, 0.00
916.0, -174884.52, -174532.16, -181256.17, -181335.38, -174833.59, -174667.95, -174842.73, -178339.67, 0.00, 0.00, 0.00
920.0, -174487.69, -174305.58, -181234.84, -181314.23, -174477.08, -174324.27, -174475.61, -177916.86, 0.00, 0.00, 0.00
924.0, -174231.66, -174281.16, -181242.75, -181322.11, -174533.30, -174506.20, -174800.31, -178078.72, 0.00, 0.00, 0.00
928.0, -174687.92, -174466.17, -181259.08, -181338.36, -174829.50, -174828.88, -175216.30, -178445.34, 0.00, 0.00, 0.00
932.0, -175041.06, -174520.09, -181248.44, -181327.66, -174740.83, -174701.20, -174903.98, -178250.55, 0.00, 0.00, 0.00
936.0, -174770.81, -174314.00, -181226.86, -181306.14, -174363.81, -174324.20, -174453.44, -177780.42, 0.00, 0.00, 0.00
940.0, -174615.16, -174259.77, -181230.78, -181310.19, -174337.05, -174412.88, -174670.97, -177837.31, 0.00, 0.00, 0.00
944.0, -174814.48, -174448.08, -181252.06, -181331.41, -174653.63, -174792.58, -175178.44, -178247.52, 0.00, 0.00, 0.00
948.0, -174908.41, -174553.47, -181247.08, -181326.39, -174662.16, -174760.81, -175004.56, -178176.59, 0.00, 0.00, 0.00
952.0, -174593.89, -174369.44, -181223.16, -181302.48, -174143.64, -174377.27, -174494.34, -177691.75, 0.00, 0.00, 0.00
956.0, -174174.16, -174224.00, -181219.38, -181298.70, -173783.00, -174332.30, -174571.83, -177622.47, 0.00, 0.00, 0.00
960.0, -174403.81, -174370.52, -181237.69, -181316.83, -174211.56, -174692.72, -175074.88, -178001.86, 0.00, 0.00, 0.00
964.0, -174909.53, -174490.77, -181237.91, -181317.05, -174502.81, -174724.61, -175015.53, -178017.56, 0.00, 0.00, 0.00
968.0, -174836.69, -174335.05, -181212.56, -181291.84, -174358.33, -174337.72, -174485.28, -177526.47, 0.00, 0.00, 0.00
972.0, -174555.08, -174175.42, -181204.05, -181283.55, -174369.55, -174213.47, -174440.30, -177338.36, 0.00, 0.00, 0.00
976.0, -174645.45, -174323.53, -181223.05, -181302.41, -175079.98, -174599.91, -174956.06, -177705.70, 0.00, 0.00, 0.00
980.0, -174836.05, -174499.95, -181231.64, -181310.89, -175499.41, -174753.59, -175083.36, -177858.70, 0.00, 0.00, 0.00
984.0, -174649.19, -174409.45, -181209.14, -181288.44, -175207.23, -174431.44, -174577.56, -177432.17, 0.00, 0.00, 0.00
988.0, -174160.19, -174194.25, -181195.58, -181274.98, -174931.20, -174220.42, -174420.94, -177152.59, 0.00, 0.00, 0.00
992.0, -174203.28, -174276.91, -181211.73, -181291.02, -175114.38, -174558.06, -174886.34, -177459.39, 0.00, 0.00, 0.00
996.0, -174736.64, -174467.97, -181222.95, -181302.17, -175340.20, -174774.28, -175127.95, -177698.84, 0.00, 0.00, 0.00
1000.0, -174929.80, -174428.11, -181203.63, -181282.91, -175108.56, -174511.69, -174665.41, -177340.44, 0.00, 0.00, 0.00
1004.0, -174636.20, -174214.66, -181186.25, -181265.63, -174787.17, -174225.61, -174398.88, -176984.03, 0.00, 0.00, 0.00
1008.0, -174606.44, -174257.97, -181199.22, -181278.45, -174917.09, -174505.92, -174808.31, -177230.80, 0.00, 0.00, 0.00
1012.0, -174836.25, -174454.38, -181218.19, -181297.36, -175205.03, -174803.83, -175173.47, -177564.39, 0.00, 0.00, 0.00
1016.0, -174813.19, -174475.44, -181204.98, -181284.22, -175061.14, -174623.89, -174795.16, -177305.16, 0.00, 0.00, 0.00
1020.0, -174421.78, -174257.34, -181183.72, -181263.03, -174709.20, -174281.39, -174419.48, -176888.08, 0.00, 0.00, 0.00
1024.0, -174157.45, -174222.09, -181189.38, -181268.66, -174747.30, -174435.84, -174721.02, -177029.56, 0.00, 0.00, 0.00
1028.0, -174602.70, -174405.47, -181210.70, -181289.98, -175045.80, -174769.22, -175159.23, -177402.53, 0.00, 0.00, 0.00
1032.0, -174995.89, -174473.23, -181201.39, -181280.69, -174986.48, -174669.16, -174886.77, -177246.67, 0.00, 0.00, 0.00
1036.0, -174754.61, -174281.38, -181178.55, -181257.83, -174625.44, -174307.19, -174436.77, -176796.44, 0.00, 0.00, 0.00
1040.0, -174593.14, -174215.06, -181180.06, -181259.39, -174589.33, -174373.34, -174640.86, -176843.00, 0.00, 0.00, 0.00
1044.0, -174787.89, -174391.77, -181202.39, -181281.66, -174907.36, -174748.56, -175148.69, -177259.03, 0.00, 0.00, 0.00
1048.0, -174902.70, -174509.89, -181202.59, -181281.83, -174945.08, -174744.66, -175006.47, -177224.42, 0.00, 0.00, 0.00
1052.0, -174642.67, -174345.30, -181178.63, -181257.98, -174593.50, -174385.72, -174501.36, -176762.31, 0.00, 0.00, 0.00
1056.0, -174266.20, -174201.98, -181175.34, -181254.64, -174467.41, -174323.17, -174573.36, -176691.36, 0.00, 0.00, 0.00
1060.0, -174405.20, -174337.36, -181195.28, -181274.63, -174751.39, -174687.42, -175087.94, -177090.16, 0.00, 0.00, 0.00
1064.0, -174943.95, -174479.77, -181199.02, -181278.25, -174862.36, -174761.67, -175070.08, -177158.27, 0.00, 0.00, 0.00
1068.0, -174861.20, -174357.48, -181175.67, -181255.03, -174538.38, -174421.88, -174549.86, -176711.95, 0.00, 0.00, 0.00
1072.0, -174596.69, -174188.41, -181167.23, -181246.58, -174334.28, -174272.64, -174496.20, -176532.66, 0.00, 0.00, 0.00
1076.0, -174690.88, -174313.83, -181187.56, -181266.86, -174586.83, -174635.25, -175011.41, -176907.09, 0.00, 0.00, 0.00
1080.0, -174896.67, -174492.06, -181198.52, -181277.73, -174783.45, -174805.33, -175144.27, -177091.44, 0.00, 0.00, 0.00
1084.0, -174752.55, -174420.52, -181179.50, -181258.72, -174512.16, -174513.78, -174638.52, -176692.02, 0.00, 0.00, 0.00
1088.0, -174460.92, -174212.55, -181163.61, -181242.89, -174245.50, -174275.45, -174455.97, -176416.59, 0.00, 0.00, 0.00
1092.0, -174496.86, -174281.63, -181181.58, -181260.77, -174444.58, -174486.36, -174930.64, -176738.91, 0.00, 0.00, 0.00
1096.0, -174726.69, -174473.78, -181195.39, -181274.61, -174703.44, -174704.16, -175183.28, -177017.63, 0.00, 0.00, 0.00
1100.0, -174638.31, -174456.80, -181178.88, -181258.14, -174485.94, -174465.73, -174732.95, -176689.28, 0.00, 0.00, 0.00
1104.0, -174152.67, -174228.09, -181161.53, -181240.83, -173915.98, -174166.22, -174417.00, -176319.63, 0.00, 0.00, 0.00
1108.0, -174072.83, -174218.50, -181172.11, -181251.27, -173901.70, -174411.66, -174782.14, -176526.94, 0.00, 0.00, 0.00
1112.0, -174524.19, -174391.20, -181188.95, -181267.91, -174371.63, -174705.67, -175129.39, -176843.16, 0.00, 0.00, 0.00
1116.0, -174873.27, -174401.41, -181173.27, -181252.48, -174444.83, -174516.94, -174748.22, -176579.73, 0.00, 0.00, 0.00
1120.0, -174633.86, -174184.50, -181149.38, -181228.77, -174281.34, -174152.58, -174351.89, -176133.48, 0.00, 0.00, 0.00
1124.0, -174504.47, -174172.77, -181156.02, -181235.22, -174616.94, -174315.53, -174623.59, -176245.48, 0.00, 0.00, 0.00
1128.0, -174712.20, -174382.84, -181175.98, -181255.09, -175373.06, -174688.41, -175096.00, -176632.11, 0.00, 0.00, 0.00
1132.0, -174774.03, -174469.48, -181169.53, -181248.77, -175399.67, -174613.66, -174859.02, -176501.58, 0.00, 0.00, 0.00
1136.0, -174426.80, -174275.30, -181145.38, -181224.73, -175034.61, -174247.02, -174399.34, -176042.20, 0.00, 0.00, 0.00
1140.0, -174068.05, -174162.42, -181145.06, -181224.39, -174968.56, -174302.67, -174564.02, -176053.73, 0.00, 0.00, 0.00
1144.0, -174410.52, -174325.08, -181166.78, -181245.97, -175265.75, -174682.47, -175070.19, -176452.23, 0.00, 0.00, 0.00
1148.0, -174914.80, -174443.05, -181165.33, -181244.36, -175308.77, -174685.22, -174952.00, -176427.63, 0.00, 0.00, 0.00
1152.0, -174770.56, -174285.64, -181141.73, -181220.83, -174954.83, -174321.06, -174443.48, -175960.23, 0.00, 0.00, 0.00
1156.0, -174536.73, -174153.05, -181137.06, -181216.30, -174809.23, -174254.95, -174490.39, -175865.00, 0.00, 0.00, 0.00
1160.0, -174674.20, -174312.17, -181160.28, -181239.47, -175094.75, -174637.50, -175020.28, -176268.41, 0.00, 0.00, 0.00
1164.0, -174850.30, -174474.09, -181163.39, -181242.47, -175232.50, -174738.73, -175045.88, -176367.34, 0.00, 0.00, 0.00
1168.0, -174653.44, -174363.56, -181139.97, -181219.20, -174918.95, -174408.16, -174523.44, -175927.47, 0.00, 0.00, 0.00
1172.0, -174233.78, -174169.95, -181130.64, -181209.98, -174697.81, -174234.80, -174437.34, -175723.75, 0.00, 0.00, 0.00
1176.0, -174257.13, -174250.27, -181148.56, -181227.73, -174927.20, -174573.17, -174937.58, -176077.38, 0.00, 0.00, 0.00
1180.0, -174821.22, -174415.63, -181158.30, -181237.34, -175125.27, -174746.14, -175091.22, -176268.78, 0.00, 0.00, 0.00
1184.0, -174883.02, -174353.06, -181139.20, -181218.42, -174861.58, -174457.42, -174593.88, -175876.95, 0.00, 0.00, 0.00
1188.0, -174584.22, -174153.72, -181123.08, -181202.41, -174574.89, -174205.38, -174386.25, -175575.88, 0.00, 0.00, 0.00
1192.0, -174597.05, -174227.91, -181138.52, -181217.72, -174749.44, -174501.53, -174840.77, -175872.95, 0.00, 0.00, 0.00
1196.0, -174828.13, -174424.77, -181155.94, -181234.98, -175017.44, -174759.09, -175130.58, -176167.59, 0.00, 0.00, 0.00
1200.0, -174768.22, -174420.16, -181140.41, -181219.52, -174830.41, -174540.05, -174699.78, -175856.97, 0.00, 0.00, 0.00
1204.0, -174460.28, -174199.03, -181118.13, -181197.34, -174500.70, -174225.41, -174379.05, -175480.39, 0.00, 0.00, 0.00
1208.0, -174407.02, -174194.72, -181129.64, -181208.92, -174601.11, -174418.86, -174751.77, -175693.78, 0.00, 0.00, 0.00
1212.0, -174636.61, -174383.70, -181150.06, -181229.13, -174904.78, -174736.77, -175144.23, -176055.31, 0.00, 0.00, 0.00
1216.0, -174639.92, -174428.97, -181138.78, -181217.92, -174798.25, -174592.20, -174804.25, -175838.55, 0.00, 0.00, 0.00
1220.0, -174198.67, -174215.41, -181117.20, -181196.44, -174438.66, -174237.66, -174381.69, -175403.56, 0.00, 0.00, 0.00
1224.0, -173985.89, -174143.47, -181122.48, -181201.66, -174441.88, -174340.69, -174636.08, -175502.47, 0.00, 0.00, 0.00
1228.0, -174419.34, -174316.48, -181141.48, -181220.55, -174744.30, -174690.52, -175094.50, -175889.52, 0.00, 0.00, 0.00
1232.0, -174874.14, -174403.64, -181136.83, -181215.89, -174719.13, -174623.47, -174865.00, -175774.02, 0.00, 0.00, 0.00
1236.0, -174691.75, -174220.86, -181113.36, -181192.42, -174355.09, -174253.33, -174388.28, -175309.58, 0.00, 0.00, 0.00
1240.0, -174501.09, -174131.14, -181111.58, -181190.75, -174277.08, -174274.67, -174533.50, -175303.30, 0.00, 0.00, 0.00
1244.0, -174675.59, -174313.00, -181132.30, -181211.47, -174585.33, -174660.34, -175046.55, -175717.05, 0.00, 0.00, 0.00
1248.0, -174810.63, -174447.69, -181134.16, -181213.31, -174656.39, -174690.75, -174956.42, -175725.39, 0.00, 0.00, 0.00
1252.0, -174568.61, -174298.72, -181110.44, -181189.56, -174311.80, -174342.58, -174441.05, -175264.66, 0.00, 0.00, 0.00
1256.0, -174176.66, -174134.44, -181104.98, -181184.16, -174156.61, -174220.36, -174467.67, -175152.22, 0.00, 0.00, 0.00
1260.0, -174282.77, -174252.67, -181126.02, -181205.09, -174429.88, -174490.09, -174989.16, -175544.16, 0.00, 0.00, 0.00
1264.0, -174836.84, -174405.66, -181131.47, -181210.55, -174574.73, -174588.08, -175031.86, -175655.77, 0.00, 0.00, 0.00
1268.0, -174816.39, -174302.70, -181108.38, -181187.53, -174188.75, -174253.19, -174508.59, -175219.78, 0.00, 0.00, 0.00
1272.0, -174525.72, -174112.75, -181096.16, -181175.23, -173653.17, -174092.08, -174385.53, -174985.56, 0.00, 0.00, 0.00
1276.0, -174576.58, -174209.41, -181112.72, -181191.73, -173952.64, -174457.22, -174869.52, -175321.31, 0.00, 0.00, 0.00
1280.0, -174774.75, -174378.16, -181123.38, -181202.33, -174379.91, -174653.91, -175044.28, -175527.64, 0.00, 0.00, 0.00
1284.0, -174629.95, -174312.28, -181104.64, -181183.66, -174336.63, -174357.80, -174546.28, -175134.92, 0.00, 0.00, 0.00
1288.0, -174142.53, -174093.47, -181088.80, -181167.97, -174231.44, -174080.20, -174296.81, -174796.00, 0.00, 0.00, 0.00
1292.0, -174083.67, -174142.59, -181097.63, -181176.66, -174773.88, -174368.39, -174710.22, -175051.23, 0.00, 0.00, 0.00
1296.0, -174620.45, -174337.61, -181110.72, -181189.73, -175376.39, -174642.83, -175032.81, -175342.23, 0.00, 0.00, 0.00
1300.0, -174863.69, -174340.30, -181096.22, -181175.33, -175216.41, -174430.48, -174623.47, -175043.92, 0.00, 0.00, 0.00
1304.0, -174572.61, -174128.11, -181076.69, -181155.83, -174873.61, -174112.97, -174290.77, -174648.81, 0.00, 0.00, 0.00
1308.0, -174498.03, -174139.86, -181088.16, -181167.28, -174950.03, -174343.98, -174637.33, -174835.27, 0.00, 0.00, 0.00
1312.0, -174722.11, -174342.14, -181106.03, -181184.94, -175255.22, -174680.55, -175059.91, -175204.95, 0.00, 0.00, 0.00
1316.0, -174744.70, -174399.19, -181097.42, -181176.33, -175167.28, -174554.06, -174747.98, -175011.61, 0.00, 0.00, 0.00
1320.0, -174397.63, -174191.66, -181077.78, -181156.86, -174805.19, -174195.97, -174318.17, -174569.17, 0.00, 0.00, 0.00
1324.0, -174067.84, -174114.94, -181081.17, -181160.23, -174792.80, -174292.61, -174553.78, -174648.52, 0.00, 0.00, 0.00
1328.0, -174430.75, -174285.94, -181101.63, -181180.59, -175097.88, -174644.80, -175034.34, -175042.70, 0.00, 0.00, 0.00
1332.0, -174888.00, -174382.58, -181096.73, -181175.77, -175092.47, -174596.91, -174835.94, -174952.59, 0.00, 0.00, 0.00
1336.0, -174688.91, -174205.80, -181072.22, -181151.31, -174729.59, -174227.06, -174347.25, -174486.36, 0.00, 0.00, 0.00
1340.0, -174485.73, -174098.83, -181071.75, -181150.80, -174633.41, -174223.84, -174467.56, -174456.39, 0.00, 0.00, 0.00
1344.0, -174650.52, -174261.61, -181092.11, -181171.00, -174936.28, -174609.97, -174992.42, -174869.38, 0.00, 0.00, 0.00
1348.0, -174798.33, -174401.95, -181095.64, -181174.50, -175026.09, -174660.22, -174936.55, -174903.88, 0.00, 0.00, 0.00
1352.0, -174573.84, -174263.98, -181072.61, -181151.55, -174688.31, -174309.80, -174416.56, -174445.97, 0.00, 0.00, 0.00
1356.0, -174323.64, -174097.42, -181065.13, -181144.20, -174512.73, -174188.75, -174411.58, -174306.19, 0.00, 0.00, 0.00
1360.0, -174441.36, -174215.48, -181085.06, -181163.98, -174784.78, -174556.86, -174939.13, -174699.50, 0.00, 0.00, 0.00
1364.0, -174635.63, -174381.20, -181092.75, -181171.59, -174955.45, -174696.20, -175022.80, -174844.53, 0.00, 0.00, 0.00
1368.0, -174432.16, -174291.63, -181074.00, -181152.95, -174661.44, -174382.92, -174503.06, -174422.41, 0.00, 0.00, 0.00
1372.0, -173954.25, -174088.61, -181061.55, -181140.59, -174408.84, -174163.61, -174355.36, -174174.64, 0.00, 0.00, 0.00
1376.0, -174070.89, -174165.28, -181077.58, -181156.48, -174611.06, -174461.42, -174830.67, -174501.05, 0.00, 0.00, 0.00
1380.0, -174615.00, -174340.14, -181087.92, -181166.83, -174832.36, -174664.06, -175035.03, -174730.86, 0.00, 0.00, 0.00
1384.0, -174791.39, -174298.34, -181068.95, -181147.83, -174595.66, -174397.84, -174559.34, -174421.41, 0.00, 0.00, 0.00
1388.0, -174498.91, -174089.47, -181050.33, -181129.34, -174285.28, -174116.64, -174298.34, -174303.05, 0.00, 0.00, 0.00
1392.0, -174480.50, -174143.31, -181063.63, -181142.64, -174426.86, -174390.97, -174716.41, -174392.27, 0.00, 0.00, 0.00
1396.0, -174713.67, -174345.28, -181080.80, -181159.78, -174711.89, -174681.02, -175059.34, -174677.72, 0.00, 0.00, 0.00
1400.0, -174682.13, -174362.17, -181068.39, -181147.30, -174556.55, -174491.38, -174664.92, -174447.06, 0.00, 0.00, 0.00
1404.0, -174282.73, -174138.97, -181049.42, -181128.39, -174207.97, -174153.81, -174295.56, -174356.14, 0.00, 0.00, 0.00
1408.0, -174036.28, -174100.19, -181056.02, -181135.00, -174258.86, -174310.86, -174608.77, -174354.53, 0.00, 0.00, 0.00
1412.0, -174503.58, -174276.81, -181075.03, -181153.95, -174556.08, -174639.41, -175035.72, -174611.59, 0.00, 0.00, 0.00
1416.0, -174868.98, -174337.61, -181068.28, -181147.22, -174480.44, -174524.61, -174741.58, -174463.77, 0.00, 0.00, 0.00
1420.0, -174608.89, -174137.58, -181043.00, -181121.97, -173955.42, -174155.11, -174291.56, -174351.33, 0.00, 0.00, 0.00
1424.0, -174442.31, -174064.67, -181045.97, -181124.92, -173695.20, -174211.75, -174488.86, -174348.61, 0.00, 0.00, 0.00
1428.0, -174624.27, -174237.27, -181065.75, -181144.66, -174165.56, -174576.94, -174978.59, -174539.17, 0.00, 0.00, 0.00
1432.0, -174710.97, -174333.16, -181061.66, -181140.56, -174393.06, -174540.83, -174801.91, -174485.25, 0.00, 0.00, 0.00
1436.0, -174374.77, -174147.05, -181036.58, -181115.59, -174229.73, -174148.38, -174287.81, -174351.33, 0.00, 0.00, 0.00
1440.0, -173948.06, -174013.52, -181030.19, -181109.31, -174354.70, -174106.47, -174344.81, -174346.03, 0.00, 0.00, 0.00
1444.0, -174207.75, -174174.80, -181049.22, -181128.16, -175109.91, -174487.33, -174862.36, -174437.13, 0.00, 0.00, 0.00
1448.0, -174737.08, -174319.30, -181050.28, -181129.28, -175331.70, -174548.92, -174851.09, -174471.59, 0.00, 0.00, 0.00
1452.0, -174681.27, -174187.73, -181028.27, -181107.39, -174994.58, -174193.44, -174336.27, -174321.09, 0.00, 0.00, 0.00
1456.0, -174412.48, -174029.77, -181019.83, -181099.06, -174790.36, -174080.00, -174292.17, -174346.16, 0.00, 0.00, 0.00
1460.0, -174510.14, -174170.52, -181039.42, -181118.39, -175043.70, -174464.33, -174809.02, -174399.80, 0.00, 0.00, 0.00
1464.0, -174709.50, -174348.20, -181048.34, -181127.17, -175227.25, -174620.56, -174937.05, -174517.31, 0.00, 0.00, 0.00
1468.0, -174542.80, -174266.63, -181028.27, -181107.22, -174941.48, -174311.77, -174429.92, -174317.66, 0.00, 0.00, 0.00
1472.0, -174077.92, -174047.58, -181014.77, -181093.78, -174667.52, -174085.34, -174253.88, -174336.05, 0.00, 0.00, 0.00
1476.0, -174073.75, -174112.44, -181029.20, -181108.17, -174852.89, -174399.80, -174714.06, -174338.64, 0.00, 0.00, 0.00
1480.0, -174630.19, -174296.03, -181041.72, -181120.81, -175086.33, -174619.05, -174958.97, -174518.30, 0.00, 0.00, 0.00
1484.0, -174789.25, -174265.30, -181025.45, -181104.58, -174863.55, -174365.45, -174504.56, -174330.86, 0.00, 0.00, 0.00
1488.0, -174485.28, -174050.70, -181008.11, -181087.19, -174541.13, -174071.63, -174227.23, -174343.98, 0.00, 0.00, 0.00
1492.0, -174448.59, -174087.63, -181019.64, -181098.61, -174662.77, -174333.78, -174623.48, -174310.16, 0.00, 0.00, 0.00
1496.0, -174679.45, -174287.05, -181038.11, -181117.05, -174953.47, -174635.58, -174993.45, -174526.45, 0.00, 0.00, 0.00
1500.0, -174661.20, -174313.53, -181024.63, -181103.70, -174814.13, -174461.48, -174620.94, -174357.86, 0.00, 0.00, 0.00
1504.0, -174284.84, -174093.84, -181003.09, -181082.05, -174457.45, -174113.73, -174238.14, -174339.16, 0.00, 0.00, 0.00
1508.0, -173999.19, -174051.28, -181008.84, -181087.77, -174490.73, -174250.14, -174529.44, -174297.59, 0.00, 0.00, 0.00
1512.0, -174422.22, -174229.58, -181027.38, -181106.36, -174790.56, -174586.67, -174968.22, -174498.03, 0.00, 0.00, 0.00
1516.0, -174817.03, -174299.97, -181020.45, -181099.44, -174733.22, -174489.42, -174697.58, -174390.67, 0.00, 0.00, 0.00
1520.0, -174572.61, -174105.53, -180997.30, -181076.28, -174365.55, -174120.39, -174242.86, -174327.19, 0.00, 0.00, 0.00
1524.0, -174398.39, -174027.92, -180998.86, -181077.89, -174314.67, -174177.89, -174422.56, -174309.45, 0.00, 0.00, 0.00
1528.0, -174587.22, -174207.91, -181021.27, -181100.27, -174627.25, -174559.41, -174932.25, -174469.83, 0.00, 0.00, 0.00
1532.0, -174701.27, -174326.30, -181019.42, -181098.41, -174665.89, -174556.39, -174799.58, -174443.64, 0.00, 0.00, 0.00
1536.0, -174422.19, -174159.63, -180994.61, -181073.58, -174307.75, -174188.13, -174293.44, -174299.20, 0.00, 0.00, 0.00
1540.0, -174004.91, -174009.53, -180989.88, -181068.91, -174168.45, -174124.36, -174347.58, -174284.61, 0.00, 0.00, 0.00
1544.0, -174200.58, -174154.55, -181011.89, -181090.75, -174445.84, -174490.45, -174863.75, -174404.00, 0.00, 0.00, 0.00
1548.0, -174745.75, -174301.84, -181014.92, -181093.84, -174559.67, -174566.77, -174861.17, -174465.69, 0.00, 0.00, 0.00
1552.0, -174683.19, -174180.20, -180992.53, -181071.56, -174234.95, -174224.91, -174337.70, -174297.38, 0.00, 0.00, 0.00
1556.0, -174408.05, -174002.38, -180981.75, -181060.80, -174019.66, -174066.97, -174264.97, -174297.06, 0.00, 0.00, 0.00
1560.0, -174493.84, -174124.91, -181000.36, -181079.28, -174263.89, -174431.48, -174777.02, -174357.73, 0.00, 0.00, 0.00
1564.0, -174701.47, -174305.42, -181010.39, -181089.30, -174463.45, -174605.36, -174926.78, -174506.34, 0.00, 0.00, 0.00
1568.0, -174555.66, -174235.06, -180990.67, -181069.70, -174140.02, -174308.27, -174428.36, -174290.66, 0.00, 0.00, 0.00
1572.0, -174124.98, -174015.75, -180975.61, -181054.64, -173563.45, -174047.59, -174228.36, -174318.83, 0.00, 0.00, 0.00
1576.0, -174017.31, -174063.89, -180987.25, -181066.05, -173762.50, -174321.98, -174664.44, -174304.42, 0.00, 0.00, 0.00
1580.0, -174517.75, -174232.83, -180999.84, -181078.56, -174207.95, -174543.63, -174916.34, -174468.80, 0.00, 0.00, 0.00
1584.0, -174717.08, -174197.59, -180982.97, -181061.69, -174205.27, -174286.27, -174459.67, -174281.81, 0.00, 0.00, 0.00
1588.0, -174405.50, -173978.27, -180963.06, -181042.02, -174065.92, -173960.22, -174142.66, -174289.83, 0.00, 0.00, 0.00
1592.0, -174338.58, -174014.83, -180971.83, -181050.70, -174518.45, -174199.45, -174500.78, -174249.25, 0.00, 0.00, 0.00
1596.0, -174560.55, -174223.55, -180989.56, -181068.39, -175219.30, -174522.22, -174902.66, -174427.95, 0.00, 0.00, 0.00
1600.0, -174554.33, -174261.92, -180978.98, -181057.86, -175135.59, -174362.17, -174558.16, -174297.20, 0.00, 0.00, 0.00
1604.0, -174127.30, -174041.70, -180958.63, -181037.52, -174770.25, -174009.59, -174159.25, -174294.42, 0.00, 0.00, 0.00
1608.0, -173873.91, -173984.92, -180962.31, -181041.23, -174778.14, -174166.55, -174418.19, -174271.92, 0.00, 0.00, 0.00
1612.0, -174306.63, -174170.17, -180981.05, -181059.89, -175076.41, -174518.64, -174886.72, -174410.25, 0.00, 0.00, 0.00
1616.0, -174739.98, -174251.25, -180975.78, -181054.63, -175037.89, -174438.58, -174651.94, -174326.03, 0.00, 0.00, 0.00
1620.0, -174524.63, -174059.52, -180950.31, -181029.25, -174668.64, -174065.09, -174183.83, -174272.64, 0.00, 0.00, 0.00
1624.0, -174335.42, -173969.77, -180949.38, -181028.38, -174596.20, -174107.39, -174335.94, -174259.48, 0.00, 0.00, 0.00
1628.0, -174514.81, -174148.38, -180970.64, -181049.59, -174904.00, -174495.69, -174857.89, -174390.41, 0.00, 0.00, 0.00
1632.0, -174641.59, -174275.56, -180972.09, -181050.91, -174959.88, -174511.70, -174759.36, -174381.05, 0.00, 0.00, 0.00
1636.0, -174373.44, -174117.94, -180948.11, -181027.05, -174608.00, -174149.41, -174248.20, -174246.42, 0.00, 0.00, 0.00
1640.0, -173944.75, -173956.52, -180941.75, -181020.61, -174450.42, -174062.61, -174273.33, -174263.09, 0.00, 0.00, 0.00
1644.0, -174121.78, -174092.25, -180961.33, -181040.08, -174719.16, -174427.91, -174790.28, -174344.41, 0.00, 0.00, 0.00
1648.0, -174674.52, -174245.91, -180966.91, -181045.64, -174850.06, -174523.48, -174820.31, -174413.31, 0.00, 0.00, 0.00
1652.0, -174644.36, -174135.08, -180946.06, -181024.92, -174534.03, -174187.94, -174304.55, -174237.86, 0.00, 0.00, 0.00
1656.0, -174362.05, -173954.50, -180934.27, -181013.27, -174301.58, -174012.45, -174209.67, -174261.81, 0.00, 0.00, 0.00
1660.0, -174433.55, -174068.73, -180950.02, -181028.94, -174532.73, -174370.41, -174708.94, -174299.77, 0.00, 0.00, 0.00
1664.0, -174644.86, -174251.75, -180964.13, -181042.95, -174744.75, -174559.86, -174884.31, -174451.66, 0.00, 0.00, 0.00
1668.0, -174513.83, -174192.91, -180945.56, -181024.48, -174486.39, -174276.36, -174397.89, -174252.63, 0.00, 0.00, 0.00
1672.0, -174085.89, -173972.58, -180927.80, -181006.70, -174193.33, -174009.94, -174182.47, -174269.64, 0.00, 0.00, 0.00
1676.0, -173980.25, -174015.45, -180942.66, -181021.55, -174352.55, -174285.53, -174616.45, -174253.50, 0.00, 0.00, 0.00
1680.0, -174515.33, -174200.17, -180956.23, -181034.95, -174608.09, -174540.55, -174904.00, -174451.78, 0.00, 0.00, 0.00
1684.0, -174727.17, -174192.69, -180939.09, -181018.02, -174419.91, -174318.75, -174474.73, -174254.34, 0.00, 0.00, 0.00
1688.0, -174427.55, -173975.59, -180919.38, -180998.36, -174081.34, -173996.98, -174146.97, -174258.73, 0.00, 0.00, 0.00
1692.0, -174360.00, -173985.23, -180930.81, -181009.66, -174166.44, -174212.59, -174503.89, -174227.14, 0.00, 0.00, 0.00
1696.0, -174586.08, -174183.14, -180950.84, -181029.55, -174467.14, -174539.06, -174919.47, -174445.45, 0.00, 0.00, 0.00
1700.0, -174597.22, -174232.78, -180940.66, -181019.33, -174365.58, -174398.52, -174591.27, -174289.13, 0.00, 0.00, 0.00
1704.0, -174254.23, -174022.47, -180916.67, -180995.53, -173902.63, -174038.70, -174168.05, -174236.14, 0.00, 0.00, 0.00
1708.0, -173921.52, -173952.33, -180921.30, -181000.11, -173619.36, -174118.89, -174403.56, -174203.56, 0.00, 0.00, 0.00
1712.0, -174249.55, -174113.84, -180939.69, -181018.38, -174032.73, -174457.73, -174859.28, -174379.78, 0.00, 0.00, 0.00
1716.0, -174683.14, -174185.48, -180932.66, -181011.38, -174216.63, -174379.75, -174625.70, -174300.22, 0.00, 0.00, 0.00
1720.0, -174465.33, -173990.91, -180909.06, -180987.88, -174045.73, -173985.73, -174136.88, -174222.05, 0.00, 0.00, 0.00
1724.0, -174248.61, -173901.17, -180907.39, -180986.19, -174206.83, -173995.22, -174245.36, -174220.73, 0.00, 0.00, 0.00
1728.0, -174406.91, -174083.03, -180925.77, -181004.36, -174984.16, -174392.16, -174766.73, -174314.77, 0.00, 0.00, 0.00
1732.0, -174544.14, -174221.19, -180927.28, -181006.05, -175185.70, -174430.86, -174705.30, -174321.97, 0.00, 0.00, 0.00
1736.0, -174267.05, -174071.56, -180904.28, -180983.16, -174837.94, -174068.05, -174194.94, -174202.53, 0.00, 0.00, 0.00
1740.0, -173819.66, -173893.41, -180896.11, -180974.94, -174659.19, -173982.08, -174192.17, -174219.42, 0.00, 0.00, 0.00
1744.0, -174022.45, -174022.27, -180914.31, -180992.97, -174916.67, -174359.06, -174705.25, -174272.55, 0.00, 0.00, 0.00
1748.0, -174574.27, -174182.20, -180921.05, -180999.75, -175060.84, -174471.41, -174768.97, -174349.97, 0.00, 0.00, 0.00
1752.0, -174588.89, -174081.22, -180900.58, -180979.36, -174754.06, -174143.19, -174255.80, -174198.06, 0.00, 0.00, 0.00
1756.0, -174300.64, -173897.44, -180887.23, -180966.06, -174506.02, -173951.38, -174132.88, -174225.98, 0.00, 0.00, 0.00
1760.0, -174355.88, -174006.69, -180905.02, -180983.77, -174721.70, -174298.61, -174626.02, -174240.14, 0.00, 0.00, 0.00
1764.0, -174572.69, -174194.06, -180916.91, -180995.45, -174947.08, -174504.27, -174844.97, -174390.72, 0.00, 0.00, 0.00
1768.0, -174456.64, -174148.97, -180896.86, -180975.52, -174703.38, -174233.23, -174367.00, -174192.95, 0.00, 0.00, 0.00
1772.0, -174018.09, -173922.88, -180880.95, -180959.69, -174398.00, -173956.92, -174118.89, -174225.09, 0.00, 0.00, 0.00
1776.0, -173903.81, -173956.89, -180895.05, -180973.69, -174540.45, -174222.31, -174537.34, -174204.53, 0.00, 0.00, 0.00
1780.0, -174433.72, -174151.89, -180912.08, -180990.70, -174804.09, -174486.25, -174855.39, -174391.80, 0.00, 0.00, 0.00
1784.0, -174670.16, -174155.53, -180896.78, -180975.55, -174631.06, -174279.42, -174445.33, -174214.03, 0.00, 0.00, 0.00
1788.0, -174373.53, -173938.28, -180874.75, -180953.53, -174285.02, -173949.30, -174094.33, -174217.63, 0.00, 0.00, 0.00
1792.0, -174289.31, -173937.41, -180883.23, -180962.02, -174351.78, -174148.30, -174424.64, -174177.55, 0.00, 0.00, 0.00
1796.0, -174514.41, -174137.63, -180903.25, -180981.94, -174659.34, -174484.78, -174855.83, -174385.58, 0.00, 0.00, 0.00
1800.0, -174542.44, -174197.55, -180895.36, -180974.02, -174577.28, -174363.20, -174553.06, -174253.25, 0.00, 0.00, 0.00
1804.0, -174188.09, -173988.81, -180873.06, -180951.77, -174212.27, -174001.63, -174117.45, -174201.38, 0.00, 0.00, 0.00
1808.0, -173852.11, -173906.95, -180876.34, -180955.14, -174190.89, -174078.70, -174337.56, -174174.08, 0.00, 0.00, 0.00
1812.0, -174223.61, -174080.23, -180895.14, -180973.86, -174492.27, -174432.66, -174822.83, -174347.94, 0.00, 0.00, 0.00
1816.0, -174679.08, -174179.81, -180890.38, -180969.02, -174492.42, -174390.52, -174635.48, -174289.55, 0.00, 0.00, 0.00
1820.0, -174473.73, -174002.95, -180866.89, -180945.66, -174128.88, -174020.55, -174141.97, -174181.80, 0.00, 0.00, 0.00
1824.0, -174261.33, -173883.38, -180863.22, -180941.97, -174021.36, -174005.11, -174241.55, -174163.13, 0.00, 0.00, 0.00
1828.0, -174421.16, -174048.48, -180886.33, -180964.98, -174320.72, -174391.66, -174770.56, -174304.50, 0.00, 0.00, 0.00
1832.0, -174572.45, -174191.98, -180889.16, -180967.78, -174416.33, -174447.95, -174734.31, -174341.44, 0.00, 0.00, 0.00
1836.0, -174335.53, -174055.70, -180866.64, -180945.39, -174047.39, -174098.33, -174208.84, -174177.14, 0.00, 0.00, 0.00
1840.0, -173897.89, -173875.83, -180859.06, -180937.75, -173578.44, -173953.72, -174174.48, -174189.63, 0.00, 0.00, 0.00
1844.0, -173998.80, -173986.67, -180875.45, -180954.16, -173806.95, -174287.75, -174668.78, -174244.78, 0.00, 0.00, 0.00
1848.0, -174536.97, -174135.34, -180882.53, -180961.19, -174172.44, -174403.19, -174738.98, -174335.53, 0.00, 0.00, 0.00
1852.0, -174546.33, -174028.44, -180862.53, -180941.25, -174080.61, -174063.44, -174218.30, -174148.97, 0.00, 0.00, 0.00
1856.0, -174235.06, -173836.13, -180846.48, -180925.39, -174018.22, -173843.39, -174054.61, -174175.47, 0.00, 0.00, 0.00
1860.0, -174263.45, -173946.98, -180860.28, -180939.06, -174650.17, -174184.95, -174520.84, -174171.97, 0.00, 0.00, 0.00
1864.0, -174480.11, -174149.00, -180873.58, -180952.23, -175173.00, -174416.84, -174776.22, -174322.33, 0.00, 0.00, 0.00
1868.0, -174374.72, -174115.56, -180857.09, -180935.88, -174952.63, -174157.30, -174316.36, -174153.19, 0.00, 0.00, 0.00
1872.0, -173907.73, -173885.17, -180839.13, -180917.97, -174634.63, -173874.70, -174047.91, -174186.67, 0.00, 0.00, 0.00
1876.0, -173812.95, -173898.58, -180849.77, -180928.47, -174755.45, -174148.52, -174443.31, -174156.53, 0.00, 0.00, 0.00
1880.0, -174325.11, -174085.38, -180862.47, -180941.03, -175022.78, -174433.66, -174792.53, -174324.63, 0.00, 0.00, 0.00
1884.0, -174613.55, -174099.52, -180849.77, -180928.45, -174865.78, -174240.94, -174404.98, -174164.47, 0.00, 0.00, 0.00
1888.0, -174330.75, -173885.38, -180827.42, -180906.25, -174510.95, -173900.92, -174040.83, -174163.42, 0.00, 0.00, 0.00
1892.0, -174232.09, -173877.39, -180834.23, -180913.00, -174559.25, -174084.23, -174351.30, -174120.11, 0.00, 0.00, 0.00
1896.0, -174451.36, -174077.22, -180854.53, -180933.14, -174867.91, -174429.14, -174805.86, -174314.00, 0.00, 0.00, 0.00
1900.0, -174492.94, -174147.05, -180847.05, -180925.61, -174804.09, -174326.03, -174529.86, -174203.28, 0.00, 0.00, 0.00
1904.0, -174145.98, -173945.16, -180825.30, -180904.03, -174438.84, -173960.72, -174071.00, -174152.30, 0.00, 0.00, 0.00
1908.0, -173794.95, -173852.11, -180827.55, -180906.30, -174397.41, -174016.08, -174262.02, -174125.14, 0.00, 0.00, 0.00
1912.0, -174145.56, -174020.59, -180848.14, -180926.69, -174695.63, -174373.78, -174758.83, -174278.00, 0.00, 0.00, 0.00
1916.0, -174622.02, -174126.83, -180844.47, -180922.97, -174712.66, -174349.50, -174603.48, -174239.73, 0.00, 0.00, 0.00
1920.0, -174438.39, -173958.64, -180821.94, -180900.50, -174350.95, -173979.17, -174102.33, -174134.14, 0.00, 0.00, 0.00
1924.0, -174213.94, -173834.78, -180817.09, -180895.70, -174225.22, -173945.63, -174175.94, -174118.14, 0.00, 0.00, 0.00
1928.0, -174364.44, -173984.67, -180838.66, -180917.30, -174518.55, -174338.11, -174706.84, -174238.33, 0.00, 0.00, 0.00
1932.0, -174526.13, -174131.97, -180843.06, -180921.70, -174631.42, -174413.36, -174698.88, -174290.42, 0.00, 0.00, 0.00
1936.0, -174305.47, -174007.45, -180819.50, -180898.30, -174303.61, -174069.25, -174173.58, -174119.81, 0.00, 0.00, 0.00
1940.0, -173867.03, -173826.31, -180808.75, -180887.55, -174097.19, -173919.70, -174114.56, -174135.19, 0.00, 0.00, 0.00
1944.0, -173944.59, -173933.25, -180827.70, -180906.39, -174338.22, -174267.42, -174617.75, -174190.20, 0.00, 0.00, 0.00
1948.0, -174504.38, -174097.42, -180835.91, -180914.55, -174514.41, -174415.06, -174734.08, -174311.69, 0.00, 0.00, 0.00
1952.0, -174544.92, -174019.08, -180815.70, -180894.38, -174230.34, -174107.70, -174228.25, -174113.58, 0.00, 0.00, 0.00
1956.0, -174246.17, -173826.05, -180802.34, -180881.08, -173955.06, -173877.36, -174049.52, -174149.56, 0.00, 0.00, 0.00
1960.0, -174275.25, -173913.13, -180818.20, -180896.94, -174147.16, -174197.44, -174518.41, -174156.50, 0.00, 0.00, 0.00
1964.0, -174500.00, -174104.80, -180835.02, -180913.53, -174398.14, -174433.44, -174784.31, -174338.92, 0.00, 0.00, 0.00
1968.0, -174416.67, -174083.19, -180817.34, -180895.92, -174187.34, -174192.19, -174335.53, -174128.33, 0.00, 0.00, 0.00
1972.0, -174007.34, -173858.88, -180796.69, -180875.31, -173862.95, -173887.22, -174044.48, -174135.11, 0.00, 0.00, 0.00
1976.0, -173818.64, -173873.41, -180808.58, -180887.20, -173972.47, -174112.19, -174425.55, -174103.34, 0.00, 0.00, 0.00
1980.0, -174318.55, -174065.08, -180826.72, -180905.14, -174251.02, -174402.94, -174782.98, -174317.22, 0.00, 0.00, 0.00
1984.0, -174605.45, -174090.63, -180812.89, -180891.41, -174095.55, -174228.47, -174410.98, -174151.31, 0.00, 0.00, 0.00
1988.0, -174316.13, -173875.16, -180791.97, -180870.63, -173481.34, -173872.30, -174013.83, -174135.47, 0.00, 0.00, 0.00
1992.0, -174193.20, -173838.52, -180796.13, -180874.72, -173425.06, -174008.48, -174287.03, -174098.06, 0.00, 0.00, 0.00
1996.0, -174393.78, -174014.69, -180814.47, -180893.00, -173932.58, -174352.75, -174739.89, -174275.45, 0.00, 0.00, 0.00
2000.0, -174433.56, -174077.45, -180805.73, -180884.22, -174097.17, -174252.66, -174474.73, -174170.98, 0.00, 0.00, 0.00
2004.0, -174050.70, -173870.23, -180782.42, -180861.08, -173927.72, -173862.75, -173999.00, -174105.80, 0.00, 0.00, 0.00
2008.0, -173683.55, -173772.45, -180782.41, -180861.03, -174129.63, -173898.27, -174144.53, -174088.66, 0.00, 0.00, 0.00
2012.0, -174014.22, -173949.00, -180801.95, -180880.56, -174894.19, -174272.88, -174648.77, -174193.69, 0.00, 0.00, 0.00
2016.0, -174509.92, -174064.70, -180800.50, -180879.08, -175032.25, -174266.48, -174532.19, -174171.58, 0.00, 0.00, 0.00
2020.0, -174386.88, -173902.69, -180776.05, -180854.66, -174672.66, -173895.97, -174038.50, -174080.98, 0.00, 0.00, 0.00
2024.0, -174147.67, -173775.13, -180770.31, -180848.94, -174523.88, -173858.95, -174087.92, -174092.14, 0.00, 0.00, 0.00
2028.0, -174285.23, -173941.52, -180788.91, -180867.42, -174806.81, -174258.53, -174621.56, -174168.34, 0.00, 0.00, 0.00
2032.0, -174459.06, -174103.14, -180793.55, -180872.05, -174937.55, -174355.89, -174650.53, -174229.27, 0.00, 0.00, 0.00
2036.0, -174244.58, -173987.14, -180773.11, -180851.69, -174617.39, -174018.63, -174131.23, -174079.67, 0.00, 0.00, 0.00
2040.0, -173788.36, -173789.02, -180762.89, -180841.45, -174392.89, -173848.08, -174046.95, -174097.28, 0.00, 0.00, 0.00
2044.0, -173866.34, -173889.44, -180779.63, -180858.02, -174619.84, -174195.28, -174542.06, -174123.53, 0.00, 0.00, 0.00
2048.0, -174426.08, -174062.66, -180787.92, -180866.22, -174808.41, -174362.69, -174691.11, -174249.08, 0.00, 0.00, 0.00
2052.0, -174504.02, -173995.41, -180767.80, -180846.28, -174539.22, -174068.63, -174197.23, -174064.66, 0.00, 0.00, 0.00
2056.0, -174203.61, -173791.22, -180753.09, -180831.73, -174252.66, -173818.98, -173995.19, -174080.98, 0.00, 0.00, 0.00
2060.0, -174218.13, -173863.47, -180767.92, -180846.39, -174428.73, -174126.36, -174448.09, -174072.16, 0.00, 0.00, 0.00
2064.0, -174448.19, -174057.41, -180783.63, -180862.06, -174691.81, -174381.47, -174738.63, -174273.64, 0.00, 0.00, 0.00
2068.0, -174379.52, -174046.30, -180768.52, -180846.97, -174496.39, -174154.03, -174302.73, -174091.94, 0.00, 0.00, 0.00
2072.0, -173976.05, -173820.80, -180748.30, -180826.86, -174162.86, -173837.58, -173982.02, -174106.31, 0.00, 0.00, 0.00
2076.0, -173764.06, -173813.39, -180757.36, -180835.86, -174253.30, -174047.13, -174342.06, -174063.78, 0.00, 0.00, 0.00
2080.0, -174249.03, -173995.41, -180774.78, -180853.09, -174536.56, -174349.25, -174726.84, -174261.34, 0.00, 0.00, 0.00
2084.0, -174560.25, -174032.17, -180765.33, -180843.72, -174417.55, -174192.59, -174378.67, -174109.09, 0.00, 0.00, 0.00
2088.0, -174281.27, -173823.16, -180743.47, -180822.05, -174056.50, -173838.05, -173972.86, -174084.81, 0.00, 0.00, 0.00
2092.0, -174154.06, -173784.11, -180746.06, -180824.63, -174068.72, -173970.48, -174234.33, -174056.41, 0.00, 0.00, 0.00
2096.0, -174366.31, -173972.97, -180769.08, -180847.42, -174384.42, -174332.06, -174717.70, -174246.89, 0.00, 0.00, 0.00
2100.0, -174438.06, -174063.02, -180764.75, -180843.16, -174360.16, -174266.17, -174496.42, -174160.61, 0.00, 0.00, 0.00
2104.0, -174120.33, -173874.23, -180742.38, -180820.83, -173994.98, -173896.91, -174016.77, -174067.89, 0.00, 0.00, 0.00
2108.0, -173736.80, -173761.19, -180742.09, -180820.52, -173914.89, -173911.75, -174155.48, -174060.25, 0.00, 0.00, 0.00
2112.0, -174022.16, -173923.44, -180760.92, -180839.27, -174207.56, -174275.81, -174659.86, -174197.75, 0.00, 0.00, 0.00
2116.0, -174534.47, -174048.11, -180761.61, -180839.91, -174262.59, -174289.94, -174555.81, -174191.19, 0.00, 0.00, 0.00
2120.0, -174396.02, -173896.56, -180738.34, -180816.69, -173849.36, -173926.86, -174044.27, -174042.61, 0.00, 0.00, 0.00
2124.0, -174144.83, -173747.95, -180732.38, -180810.67, -173391.69, -173828.69, -174058.22, -174043.80, 0.00, 0.00, 0.00
2128.0, -174258.58, -173883.63, -180750.27, -180828.64, -173726.14, -174199.47, -174575.64, -174130.66, 0.00, 0.00, 0.00
2132.0, -174424.16, -174030.59, -180753.05, -180831.33, -174082.63, -174298.66, -174615.44, -174208.53, 0.00, 0.00, 0.00
2136.0, -174202.31, -173909.33, -180730.17, -180808.53, -173977.02, -173948.69, -174081.28, -174036.59, 0.00, 0.00, 0.00
2140.0, -174318.50, -174002.31, -180744.67, -180822.88, -175055.92, -174281.11, -174619.22, -174183.25, 0.00, 0.00, 0.00
2144.0, -174454.52, -173944.22, -180725.14, -180803.52, -174801.75, -173994.56, -174141.25, -174025.69, 0.00, 0.00, 0.00
2148.0, -174155.41, -173738.19, -180709.25, -180787.70, -174499.03, -173739.72, -173918.94, -174059.69, 0.00, 0.00, 0.00
2152.0, -174152.73, -173802.84, -180723.55, -180801.89, -174657.22, -174050.28, -174353.13, -174046.30, 0.00, 0.00, 0.00
2156.0, -174381.53, -173998.16, -180739.42, -180817.61, -174927.98, -174321.20, -174682.52, -174216.39, 0.00, 0.00, 0.00
2160.0, -174327.78, -173998.78, -180725.27, -180803.67, -174748.72, -174109.16, -174268.55, -174040.94, 0.00, 0.00, 0.00
2164.0, -173917.23, -173774.02, -180703.39, -180781.81, -174407.28, -173782.89, -173933.16, -174047.95, 0.00, 0.00, 0.00
2168.0, -173691.17, -173757.67, -180711.41, -180789.78, -174477.88, -173979.17, -174271.88, -173998.75, 0.00, 0.00, 0.00
2172.0, -174157.45, -173947.86, -180729.41, -180807.69, -174766.67, -174296.03, -174675.70, -174195.13, 0.00, 0.00, 0.00
2176.0, -174511.00, -173995.55, -180718.70, -180797.00, -174665.38, -174156.66, -174351.25, -174064.34, 0.00, 0.00, 0.00
2180.0, -174248.41, -173787.95, -180696.50, -180775.05, -174300.97, -173796.52, -173933.58, -174040.31, 0.00, 0.00, 0.00
2184.0, -174106.47, -173738.16, -180703.09, -180781.50, -174293.17, -173907.27, -174172.36, -174010.81, 0.00, 0.00, 0.00
2188.0, -174311.44, -173930.78, -180724.05, -180802.38, -174607.50, -174278.25, -174658.25, -174182.42, 0.00, 0.00, 0.00
2192.0, -174397.17, -174031.75, -180720.13, -180798.53, -174603.39, -174232.11, -174460.59, -174119.61, 0.00, 0.00, 0.00
2196.0, -174094.83, -173849.31, -180695.16, -180773.64, -174239.84, -173864.45, -173970.53, -174024.39, 0.00, 0.00, 0.00
2200.0, -173699.58, -173720.33, -180693.03, -180771.38, -174141.56, -173848.55, -174084.19, -173993.22, 0.00, 0.00, 0.00
2204.0, -173951.03, -173870.39, -180714.42, -180792.69, -174430.48, -174219.03, -174597.56, -174129.34, 0.00, 0.00, 0.00
2208.0, -174473.63, -173999.34, -180717.36, -180795.66, -174503.86, -174253.45, -174528.00, -174147.22, 0.00, 0.00, 0.00
2212.0, -174355.06, -173856.75, -180694.88, -180773.28, -174160.27, -173896.77, -174014.88, -174005.58, 0.00, 0.00, 0.00
2216.0, -174100.69, -173703.27, -180687.45, -180765.84, -173982.83, -173795.95, -174010.36, -174014.73, 0.00, 0.00, 0.00
2220.0, -174216.36, -173847.30, -180707.03, -180785.31, -174251.38, -174171.88, -174533.92, -174091.70, 0.00, 0.00, 0.00
2224.0, -174406.36, -174016.53, -180715.64, -180793.80, -174416.11, -174301.09, -174614.45, -174194.48, 0.00, 0.00, 0.00
2228.0, -174228.28, -173921.84, -180694.77, -180773.06, -174117.27, -173982.39, -174097.78, -173981.97, 0.00, 0.00, 0.00
2232.0, -173796.27, -173716.95, -180679.56, -180758.03, -173865.36, -173773.81, -173957.94, -174006.63, 0.00, 0.00, 0.00
2236.0, -173772.94, -173794.69, -180695.47, -180773.77, -174069.36, -174092.13, -174434.94, -174030.28, 0.00, 0.00, 0.00
2240.0, -174329.11, -173971.64, -180707.72, -180785.75, -174286.73, -174290.11, -174640.05, -174195.03, 0.00, 0.00, 0.00
2244.0, -174449.14, -173928.34, -180690.31, -180768.50, -174046.75, -174021.94, -174164.61, -174001.89, 0.00, 0.00, 0.00
2248.0, -174145.30, -173717.02, -180673.59, -180751.88, -173739.56, -173744.55, -173913.94, -174029.77, 0.00, 0.00, 0.00
2252.0, -174128.44, -173767.75, -180686.95, -180765.09, -173883.28, -174015.86, -174333.39, -174012.48, 0.00, 0.00, 0.00
2256.0, -174359.36, -173965.78, -180702.69, -180780.72, -174163.31, -174295.72, -174668.19, -174215.84, 0.00, 0.00, 0.00
2260.0, -174320.83, -173978.28, -180686.48, -180764.66, -173989.27, -174100.17, -174268.45, -174020.91, 0.00, 0.00, 0.00
2264.0, -173921.36, -173754.16, -180667.05, -180745.39, -173400.05, -173758.56, -173906.56, -174003.86, 0.00, 0.00, 0.00
2268.0, -173658.20, -173721.80, -180676.05, -180754.28, -173342.53, -173912.23, -174213.88, -173958.64, 0.00, 0.00, 0.00
2272.0, -174075.48, -173894.08, -180695.23, -180773.44, -173825.75, -174222.59, -174623.13, -174148.56, 0.00, 0.00, 0.00
2276.0, -174446.78, -173933.67, -180682.58, -180760.83, -173950.09, -174083.19, -174307.02, -174022.56, 0.00, 0.00, 0.00
2280.0, -174188.95, -173724.08, -180657.59, -180735.84, -173780.72, -173700.20, -173857.39, -173985.61, 0.00, 0.00, 0.00
2284.0, -174017.42, -173671.64, -180657.34, -180735.66, -174027.06, -173790.33, -174052.78, -173968.22, 0.00, 0.00, 0.00
2288.0, -174204.48, -173867.06, -180679.81, -180757.95, -174808.19, -174171.98, -174559.89, -174091.55, 0.00, 0.00, 0.00
2292.0, -174300.78, -173975.95, -180676.14, -180754.22, -174917.08, -174145.30, -174405.47, -174046.64, 0.00, 0.00, 0.00
2296.0, -173977.56, -173797.80, -180650.95, -180729.14, -174551.97, -173772.45, -173912.14, -173965.91, 0.00, 0.00, 0.00
2300.0, -173570.50, -173657.83, -180649.08, -180727.30, -174431.00, -173768.09, -173995.06, -173964.36, 0.00, 0.00, 0.00
2304.0, -173843.84, -173808.64, -180668.98, -180747.13, -174710.70, -174152.19, -174514.22, -174050.33, 0.00, 0.00, 0.00
2308.0, -174372.53, -173944.75, -180670.75, -180748.97, -174798.86, -174204.22, -174482.58, -174076.55, 0.00, 0.00, 0.00
2312.0, -174315.75, -173811.66, -180648.11, -180726.45, -174462.67, -173852.41, -173968.89, -173955.02, 0.00, 0.00, 0.00
2316.0, -174052.47, -173654.78, -180639.34, -180717.69, -174267.14, -173731.16, -173936.11, -173971.44, 0.00, 0.00, 0.00
2320.0, -174153.80, -173789.52, -180656.94, -180735.11, -174523.63, -174107.30, -174454.91, -174022.67, 0.00, 0.00, 0.00
2324.0, -174350.69, -173962.50, -180664.36, -180742.44, -174701.98, -174255.84, -174568.73, -174131.58, 0.00, 0.00, 0.00
2328.0, -174186.38, -173878.50, -180644.88, -180722.97, -174414.05, -173946.05, -174060.11, -173943.53, 0.00, 0.00, 0.00
2332.0, -173749.09, -173667.17, -180630.83, -180708.95, -174148.52, -173721.03, -173897.75, -173977.88, 0.00, 0.00, 0.00
2336.0, -173709.97, -173733.13, -180646.86, -180725.14, -174338.38, -174028.39, -174361.95, -173979.92, 0.00, 0.00, 0.00
2340.0, -174268.16, -173911.97, -180659.80, -180738.05, -174568.44, -174242.38, -174592.02, -174143.58, 0.00, 0.00, 0.00
2344.0, -174402.81, -173880.30, -180644.63, -180722.92, -174344.20, -173989.14, -174132.11, -173941.66, 0.00, 0.00, 0.00
2348.0, -174097.11, -173670.34, -180625.53, -180703.86, -174026.41, -173697.64, -173858.09, -173973.70, 0.00, 0.00, 0.00
2352.0, -174064.98, -173713.95, -180637.42, -180715.66, -174153.36, -173955.81, -174257.88, -173956.78, 0.00, 0.00, 0.00
2356.0, -174294.69, -173914.36, -180657.67, -180735.81, -174440.39, -174252.50, -174619.91, -174154.59, 0.00, 0.00, 0.00
2360.0, -174270.22, -173937.06, -180642.39, -180720.47, -174296.08, -174072.83, -174241.98, -173979.69, 0.00, 0.00, 0.00
2364.0, -173883.88, -173717.53, -180621.02, -180699.19, -173944.27, -173729.58, -173867.52, -173967.20, 0.00, 0.00, 0.00
2368.0, -173615.02, -173674.20, -180627.44, -180705.53, -173983.16, -173879.28, -174166.06, -173930.47, 0.00, 0.00, 0.00
2372.0, -174052.98, -173849.66, -180647.83, -180725.77, -174280.25, -174213.78, -174602.56, -174124.70, 0.00, 0.00, 0.00
2376.0, -174443.72, -173917.08, -180639.75, -180717.80, -174217.98, -174111.72, -174327.28, -174011.44, 0.00, 0.00, 0.00
2380.0, -174198.11, -173720.34, -180615.48, -180693.66, -173851.66, -173745.94, -173877.44, -173947.75, 0.00, 0.00, 0.00
2384.0, -174029.80, -173647.14, -180617.75, -180695.88, -173808.81, -173805.45, -174066.58, -173915.75, 0.00, 0.00, 0.00
2388.0, -174220.73, -173827.91, -180638.08, -180716.06, -174121.45, -174183.36, -174570.89, -174095.19, 0.00, 0.00, 0.00
2392.0, -174330.91, -173943.89, -180636.05, -180714.23, -174153.50, -174173.77, -174427.22, -174066.69, 0.00, 0.00, 0.00
2396.0, -174062.11, -173778.70, -180612.91, -180691.19, -173797.81, -173809.97, -173915.88, -173937.22, 0.00, 0.00, 0.00
2400.0, -173666.28, -173638.78, -180608.69, -180686.84, -173667.33, -173750.23, -173975.27, -173907.03, 0.00, 0.00, 0.00
2404.0, -173822.27, -173776.58, -180628.59, -180706.66, -173946.20, -174117.72, -174490.58, -174032.98, 0.00, 0.00, 0.00
2408.0, -174362.17, -173918.16, -180633.38, -180711.52, -174054.34, -174188.92, -174478.67, -174089.13, 0.00, 0.00, 0.00
2412.0, -174305.92, -173794.11, -180611.36, -180689.53, -173617.23, -173843.81, -173958.72, -173919.41, 0.00, 0.00, 0.00
2416.0, -174026.92, -173619.20, -180599.66, -180677.84, -173132.45, -173676.47, -173890.06, -173919.28, 0.00, 0.00, 0.00
2420.0, -174102.31, -173733.27, -180617.27, -180695.45, -173491.50, -174027.92, -174387.28, -173965.14, 0.00, 0.00, 0.00
2424.0, -174287.92, -173894.64, -180624.98, -180703.09, -173889.56, -174182.36, -174510.84, -174090.25, 0.00, 0.00, 0.00
2428.0, -174110.05, -173804.61, -180603.00, -180681.14, -173817.59, -173861.23, -173995.11, -173910.25, 0.00, 0.00, 0.00
2432.0, -173618.00, -173589.25, -180586.16, -180664.25, -173733.78, -173610.59, -173791.05, -173927.98, 0.00, 0.00, 0.00
2436.0, -173608.19, -173661.56, -180598.48, -180676.56, -174314.75, -173915.83, -174228.53, -173901.03, 0.00, 0.00, 0.00
2440.0, -174139.58, -173852.11, -180614.11, -180692.08, -174881.25, -174147.38, -174506.91, -174052.48, 0.00, 0.00, 0.00
2444.0, -174348.27, -173828.70, -180595.63, -180673.64, -174683.09, -173902.20, -174068.72, -173888.88, 0.00, 0.00, 0.00
2448.0, -174052.09, -173615.45, -180576.05, -180654.28, -174351.52, -173604.88, -173780.20, -173922.42, 0.00, 0.00, 0.00
2452.0, -174002.45, -173649.52, -180589.30, -180667.47, -174458.06, -173868.53, -174157.28, -173903.50, 0.00, 0.00, 0.00
2456.0, -174228.72, -173850.83, -180607.97, -180686.00, -174749.44, -174178.44, -174551.86, -174068.77, 0.00, 0.00, 0.00
2460.0, -174219.48, -173884.97, -180597.19, -180675.20, -174622.14, -174014.41, -174200.08, -173921.44, 0.00, 0.00, 0.00
2464.0, -173834.23, -173668.05, -180575.88, -180653.98, -174262.84, -173664.98, -173813.16, -173914.33, 0.00, 0.00, 0.00
2468.0, -173545.23, -173619.97, -180579.56, -180657.50, -174280.59, -173812.44, -174087.09, -173874.75, 0.00, 0.00, 0.00
2472.0, -173963.27, -173803.47, -180597.08, -180674.89, -174578.98, -174157.36, -174542.69, -174043.47, 0.00, 0.00, 0.00
2476.0, -174379.78, -173880.63, -180589.11, -180667.02, -174533.66, -174072.45, -174294.41, -173949.36, 0.00, 0.00, 0.00
2480.0, -174151.28, -173688.03, -180566.77, -180644.84, -174166.83, -173703.09, -173833.11, -173884.86, 0.00, 0.00, 0.00
2484.0, -173967.94, -173596.27, -180565.50, -180643.53, -174103.28, -173743.92, -173999.36, -173853.72, 0.00, 0.00, 0.00
2488.0, -174150.28, -173771.31, -180588.08, -180665.92, -174412.56, -174121.67, -174509.72, -174013.22, 0.00, 0.00, 0.00
2492.0, -174274.63, -173898.00, -180588.64, -180666.55, -174464.86, -174132.02, -174394.92, -174004.17, 0.00, 0.00, 0.00
2496.0, -174008.61, -173739.67, -180565.67, -180643.64, -174112.84, -173770.59, -173878.81, -173868.36, 0.00, 0.00, 0.00
2500.0, -173589.92, -173579.89, -180559.23, -180637.22, -173963.55, -173692.20, -173911.25, -173865.81, 0.00, 0.00, 0.00
2504.0, -173773.20, -173711.69, -180579.22, -180657.16, -174236.02, -174061.14, -174426.84, -173963.05, 0.00, 0.00, 0.00
2508.0, -174323.34, -173860.41, -180584.34, -180662.28, -174361.02, -174150.75, -174443.56, -174033.50, 0.00, 0.00, 0.00
2512.0, -174257.48, -173747.48, -180561.88, -180639.95, -174041.66, -173814.61, -173926.86, -173871.91, 0.00, 0.00, 0.00
2516.0, -173977.75, -173572.95, -180550.44, -180628.55, -173816.14, -173643.19, -173841.05, -173882.34, 0.00, 0.00, 0.00
2520.0, -174053.97, -173689.08, -180569.36, -180647.27, -174051.95, -173996.75, -174344.86, -173922.52, 0.00, 0.00, 0.00
2524.0, -174263.63, -173869.56, -180580.77, -180658.77, -174259.30, -174180.25, -174508.38, -174072.73, 0.00, 0.00, 0.00
2528.0, -174128.78, -173808.33, -180561.34, -180639.55, -173997.53, -173894.16, -174017.41, -173869.78, 0.00, 0.00, 0.00
2532.0, -173703.98, -173592.56, -180546.36, -180624.44, -173709.19, -173635.55, -173804.98, -173895.09, 0.00, 0.00, 0.00
2536.0, -173605.48, -173641.84, -180561.23, -180639.06, -173872.36, -173916.03, -174242.28, -173882.13, 0.00, 0.00, 0.00
2540.0, -174143.16, -173826.03, -180574.38, -180652.11, -174122.23, -174161.48, -174528.03, -174072.61, 0.00, 0.00, 0.00
2544.0, -174338.92, -173815.08, -180559.38, -180637.31, -173925.31, -173935.23, -174096.09, -173881.36, 0.00, 0.00, 0.00
2548.0, -174036.31, -173597.70, -180540.59, -180618.58, -173401.50, -173612.44, -173770.59, -173898.05, 0.00, 0.00, 0.00
2552.0, -173962.73, -173605.14, -180549.47, -180627.39, -173296.56, -173813.28, -174119.64, -173860.61, 0.00, 0.00, 0.00
2556.0, -174174.08, -173791.53, -180566.30, -180644.11, -173767.69, -174125.36, -174511.44, -174047.33, 0.00, 0.00, 0.00
2560.0, -174164.61, -173820.77, -180555.78, -180633.69, -173866.45, -173962.92, -174162.84, -173898.08, 0.00, 0.00, 0.00
2564.0, -173740.94, -173598.28, -180532.64, -180610.67, -173700.88, -173587.17, -173741.58, -173872.05, 0.00, 0.00, 0.00
2568.0, -173451.56, -173545.95, -180535.08, -180613.08, -174010.83, -173701.08, -173975.56, -173843.06, 0.00, 0.00, 0.00
2572.0, -173852.91, -173738.73, -180555.50, -180633.38, -174751.05, -174055.78, -174447.06, -173977.95, 0.00, 0.00, 0.00
2576.0, -174298.83, -173825.36, -180549.50, -180627.28, -174785.30, -173986.89, -174231.02, -173907.05, 0.00, 0.00, 0.00
2580.0, -174101.70, -173638.11, -180523.77, -180601.73, -174416.17, -173613.50, -173762.17, -173852.56, 0.00, 0.00, 0.00
2584.0, -173901.95, -173545.53, -180523.61, -180601.47, -174328.83, -173660.05, -173897.02, -173820.22, 0.00, 0.00, 0.00
2588.0, -174073.86, -173730.11, -180546.80, -180624.44, -174632.30, -174058.06, -174420.73, -173947.17, 0.00, 0.00, 0.00
2592.0, -174208.47, -173865.19, -180546.52, -180624.19, -174702.28, -174088.59, -174344.03, -173955.22, 0.00, 0.00, 0.00
2596.0, -173945.52, -173714.09, -180521.48, -180599.25, -174354.69, -173730.17, -173832.39, -173825.11, 0.00, 0.00, 0.00
2600.0, -173511.73, -173540.92, -180515.36, -180593.11, -174188.97, -173636.30, -173843.17, -173827.75, 0.00, 0.00, 0.00
2604.0, -173691.84, -173665.25, -180533.31, -180611.05, -174452.88, -173998.95, -174358.48, -173904.88, 0.00, 0.00, 0.00
2608.0, -174247.63, -173819.50, -180540.64, -180618.39, -174592.58, -174103.86, -174410.20, -173988.77, 0.00, 0.00, 0.00
2612.0, -174225.45, -173714.98, -180518.88, -180596.70, -174283.86, -173774.55, -173896.95, -173822.00, 0.00, 0.00, 0.00
2616.0, -173938.16, -173528.09, -180507.25, -180584.91, -174041.72, -173590.06, -173781.09, -173855.91, 0.00, 0.00, 0.00
2620.0, -174000.19, -173636.89, -180526.63, -180604.23, -174264.41, -173939.34, -174273.89, -173880.88, 0.00, 0.00, 0.00
2624.0, -174215.97, -173822.81, -180539.44, -180617.02, -174484.84, -174138.50, -174470.52, -174031.91, 0.00, 0.00, 0.00
2628.0, -174096.44, -173773.09, -180522.41, -180600.09, -174237.98, -173865.34, -173988.47, -173830.78, 0.00, 0.00, 0.00
2632.0, -173675.73, -173553.72, -180504.56, -180582.33, -173939.45, -173594.34, -173748.91, -173852.78, 0.00, 0.00, 0.00
2636.0, -173549.64, -173593.08, -180517.28, -180594.89, -174086.80, -173860.78, -174171.06, -173829.91, 0.00, 0.00, 0.00
2640.0, -174071.41, -173780.94, -180532.69, -180610.30, -174346.02, -174119.61, -174479.03, -174027.06, 0.00, 0.00, 0.00
2644.0, -174302.08, -173779.86, -180516.75, -180594.47, -174167.17, -173906.98, -174065.59, -173842.34, 0.00, 0.00, 0.00
2648.0, -174004.55, -173563.95, -180494.73, -180572.61, -173822.64, -173578.48, -173727.94, -173850.31, 0.00, 0.00, 0.00
2652.0, -173926.55, -173570.36, -180502.56, -180580.31, -173896.03, -173780.94, -174067.11, -173817.69, 0.00, 0.00, 0.00
2656.0, -174151.28, -173769.47, -180523.88, -180601.50, -174201.20, -174111.48, -174486.97, -174021.75, 0.00, 0.00, 0.00
2660.0, -174173.13, -173825.38, -180514.94, -180592.56, -174113.44, -173983.36, -174175.36, -173882.19, 0.00, 0.00, 0.00
2664.0, -173834.11, -173615.42, -180489.86, -180567.67, -173751.56, -173624.30, -173746.89, -173827.56, 0.00, 0.00, 0.00
2668.0, -173501.70, -173533.02, -180493.91, -180571.52, -173738.00, -173705.48, -173976.27, -173787.78, 0.00, 0.00, 0.00
2672.0, -173840.22, -173697.30, -180515.19, -180592.64, -174040.06, -174059.02, -174449.97, -173980.81, 0.00, 0.00, 0.00
2676.0, -174297.88, -173789.34, -180509.48, -180587.05, -174031.77, -174009.83, -174249.80, -173913.70, 0.00, 0.00, 0.00
2680.0, -174103.45, -173609.72, -180484.09, -180561.91, -173667.22, -173638.20, -173758.56, -173807.05, 0.00, 0.00, 0.00
2684.0, -173896.72, -173504.72, -180482.97, -180560.69, -173567.03, -173628.75, -173868.36, -173798.47, 0.00, 0.00, 0.00
2688.0, -174060.03, -173674.64, -180505.06, -180582.52, -173867.98, -174016.38, -174394.30, -173940.02, 0.00, 0.00, 0.00
2692.0, -174206.39, -173816.14, -180508.64, -180586.17, -173955.66, -174065.23, -174341.97, -173964.22, 0.00, 0.00, 0.00
2696.0, -173968.88, -173675.38, -180483.27, -180560.97, -173515.06, -173710.91, -173828.11, -173783.28, 0.00, 0.00, 0.00
2700.0, -173538.56, -173497.86, -180474.55, -180552.25, -173052.42, -173574.14, -173805.61, -173794.16, 0.00, 0.00, 0.00
2704.0, -173617.33, -173612.28, -180493.53, -180570.94, -173412.88, -173918.20, -174301.00, -173857.47, 0.00, 0.00, 0.00
2708.0, -174146.56, -173758.91, -180498.75, -180576.14, -173773.50, -174027.30, -174361.23, -173944.20, 0.00, 0.00, 0.00
2712.0, -174161.95, -173648.08, -180474.92, -180552.47, -173676.88, -173681.63, -173836.94, -173766.80, 0.00, 0.00, 0.00
2716.0, -173854.48, -173460.86, -180461.70, -180539.33, -173621.06, -173470.70, -173683.86, -173805.23, 0.00, 0.00, 0.00
2720.0, -173889.91, -173569.58, -180477.83, -180555.39, -174260.14, -173816.80, -174156.58, -173807.78, 0.00, 0.00, 0.00
2724.0, -174106.14, -173762.98, -180490.27, -180567.75, -174780.05, -174040.83, -174397.25, -173941.53, 0.00, 0.00, 0.00
2728.0, -173993.50, -173722.00, -180470.48, -180548.05, -174552.48, -173775.55, -173936.17, -173766.55, 0.00, 0.00, 0.00
2732.0, -173519.00, -173492.53, -180454.59, -180532.33, -174235.23, -173499.75, -173682.30, -173802.91, 0.00, 0.00, 0.00
2736.0, -173438.16, -173520.61, -180466.80, -180544.22, -174361.59, -173780.38, -174082.83, -173777.25, 0.00, 0.00, 0.00
2740.0, -173961.47, -173718.84, -180482.06, -180559.38, -174627.73, -174055.69, -174417.50, -173938.78, 0.00, 0.00, 0.00
2744.0, -174234.88, -173727.66, -180468.88, -180546.45, -174462.72, -173856.31, -174021.20, -173781.47, 0.00, 0.00, 0.00
2748.0, -173947.34, -173514.27, -180448.52, -180526.19, -174110.66, -173519.41, -173664.23, -173792.25, 0.00, 0.00, 0.00
2752.0, -173854.83, -173511.72, -180455.11, -180532.58, -174166.27, -173711.58, -173981.09, -173760.00, 0.00, 0.00, 0.00
2756.0, -174076.41, -173707.89, -180474.92, -180552.17, -174474.73, -174055.17, -174416.22, -173939.06, 0.00, 0.00, 0.00
2760.0, -174112.69, -173773.20, -180466.45, -180543.80, -174403.44, -173944.33, -174126.98, -173825.06, 0.00, 0.00, 0.00
2764.0, -173756.67, -173567.75, -180444.63, -180522.09, -174037.06, -173578.77, -173686.91, -173780.69, 0.00, 0.00, 0.00
2768.0, -173413.98, -173480.36, -180446.78, -180524.27, -174002.05, -173649.83, -173889.72, -173738.77, 0.00, 0.00, 0.00
2772.0, -173775.42, -173645.31, -180468.97, -180546.28, -174301.67, -174005.86, -174377.83, -173900.75, 0.00, 0.00, 0.00
2776.0, -174245.39, -173747.56, -180466.13, -180543.42, -174309.89, -173972.36, -174206.34, -173857.03, 0.00, 0.00, 0.00
2780.0, -174057.92, -173575.45, -180441.31, -180518.73, -173947.11, -173601.03, -173713.33, -173764.64, 0.00, 0.00, 0.00
2784.0, -173837.31, -173461.22, -180435.70, -180513.11, -173828.14, -173572.52, -173799.20, -173760.67, 0.00, 0.00, 0.00
2788.0, -173991.72, -173627.05, -180457.00, -180534.30, -174123.19, -173962.33, -174324.80, -173871.78, 0.00, 0.00, 0.00
2792.0, -174151.00, -173774.39, -180461.20, -180538.50, -174229.94, -174030.44, -174301.28, -173912.97, 0.00, 0.00, 0.00
2796.0, -173923.17, -173641.80, -180438.86, -180516.39, -173896.88, -173682.70, -173784.58, -173751.19, 0.00, 0.00, 0.00
2800.0, -173489.67, -173459.05, -180430.81, -180508.38, -173698.78, -173539.58, -173742.92, -173751.75, 0.00, 0.00, 0.00
2804.0, -173576.09, -173570.30, -180450.23, -180527.69, -173942.88, -173889.28, -174247.73, -173811.30, 0.00, 0.00, 0.00
2808.0, -174135.86, -173732.92, -180458.09, -180535.64, -174111.52, -174029.88, -174353.81, -173928.86, 0.00, 0.00, 0.00
2812.0, -174160.45, -173648.03, -180436.16, -180513.78, -173824.75, -173719.11, -173845.06, -173754.25, 0.00, 0.00, 0.00
2816.0, -173864.17, -173452.73, -180420.44, -180498.09, -173556.69, -173495.44, -173677.45, -173763.84, 0.00, 0.00, 0.00
2820.0, -173900.28, -173544.34, -180437.77, -180515.31, -173753.38, -173824.58, -174152.72, -173768.47, 0.00, 0.00, 0.00
2824.0, -174125.31, -173736.80, -180452.16, -180529.56, -173999.97, -174059.08, -174411.42, -173958.30, 0.00, 0.00, 0.00
2828.0, -174034.91, -173708.56, -180433.02, -180510.48, -173778.30, -173811.97, -173956.80, -173751.09, 0.00, 0.00, 0.00
2832.0, -173626.67, -173483.27, -180415.16, -180492.72, -173271.59, -173507.72, -173671.59, -173771.98, 0.00, 0.00, 0.00
2836.0, -173434.75, -173489.98, -180427.33, -180504.80, -173193.83, -173722.38, -174050.22, -173736.03, 0.00, 0.00, 0.00
2840.0, -173901.02, -173661.25, -180442.78, -180520.11, -173639.41, -173993.81, -174384.22, -173916.48, 0.00, 0.00, 0.00
2844.0, -174180.83, -173664.08, -180428.19, -180505.69, -173699.94, -173792.73, -173990.59, -173752.20, 0.00, 0.00, 0.00
2848.0, -173883.00, -173444.64, -180403.92, -180481.44, -173538.17, -173429.02, -173603.67, -173739.56, 0.00, 0.00, 0.00
2852.0, -173761.41, -173437.17, -180411.11, -180488.47, -173892.97, -173594.59, -173884.39, -173690.95, 0.00, 0.00, 0.00
2856.0, -173971.75, -173643.36, -180432.42, -180509.75, -174636.78, -173954.69, -174349.91, -173860.11, 0.00, 0.00, 0.00
2860.0, -174021.38, -173718.78, -180424.64, -180502.09, -174640.59, -173862.75, -174095.47, -173768.67, 0.00, 0.00, 0.00
2864.0, -173646.31, -173514.48, -180400.92, -180478.42, -174271.06, -173492.56, -173639.41, -173728.41, 0.00, 0.00, 0.00
2868.0, -173305.19, -173409.30, -180400.66, -180478.03, -174212.47, -173562.14, -173810.69, -173710.22, 0.00, 0.00, 0.00
2872.0, -173657.89, -173586.81, -180419.56, -180496.91, -174506.13, -173937.72, -174307.22, -173830.03, 0.00, 0.00, 0.00
2876.0, -174151.00, -173700.11, -180418.25, -180495.61, -174532.42, -173924.64, -174167.61, -173801.97, 0.00, 0.00, 0.00
2880.0, -174016.11, -173534.28, -180395.58, -180473.00, -174172.66, -173553.59, -173667.03, -173712.92, 0.00, 0.00, 0.00
2884.0, -173783.78, -173407.67, -180390.17, -180467.52, -174034.52, -173511.95, -173722.16, -173711.14, 0.00, 0.00, 0.00
2888.0, -173927.30, -173575.81, -180412.72, -180489.80, -174322.61, -173902.22, -174254.47, -173802.05, 0.00, 0.00, 0.00
2892.0, -174094.63, -173731.70, -180419.25, -180496.34, -174445.23, -173988.23, -174271.45, -173859.42, 0.00, 0.00, 0.00
2896.0, -173876.31, -173609.06, -180394.75, -180471.95, -174120.13, -173646.56, -173754.78, -173705.70, 0.00, 0.00, 0.00
2900.0, -173428.56, -173416.39, -180383.41, -180460.67, -173902.98, -173489.30, -173682.69, -173707.00, 0.00, 0.00, 0.00
2904.0, -173504.05, -173519.31, -180401.33, -180478.47, -174134.08, -173836.13, -174180.48, -173743.34, 0.00, 0.00, 0.00
2908.0, -174059.67, -173687.78, -180410.69, -180487.80, -174317.05, -173992.80, -174321.30, -173871.44, 0.00, 0.00, 0.00
2912.0, -174130.77, -173613.61, -180389.50, -180466.77, -174041.50, -173693.20, -173822.09, -173683.05, 0.00, 0.00, 0.00
2916.0, -173834.52, -173408.42, -180373.45, -180450.77, -173760.64, -173452.17, -173629.69, -173728.64, 0.00, 0.00, 0.00
2920.0, -173858.14, -173481.73, -180388.81, -180466.02, -173944.89, -173762.34, -174087.98, -173733.55, 0.00, 0.00, 0.00
2924.0, -174085.03, -173672.44, -180406.05, -180483.09, -174202.31, -174008.69, -174363.25, -173906.64, 0.00, 0.00, 0.00
2928.0, -174008.70, -173656.23, -180390.94, -180468.14, -173999.66, -173775.33, -173921.75, -173705.13, 0.00, 0.00, 0.00
2932.0, -173618.22, -173434.06, -180371.63, -180448.84, -173669.45, -173464.63, -173615.52, -173719.89, 0.00, 0.00, 0.00
2936.0, -173400.61, -173442.13, -180381.08, -180458.19, -173767.53, -173686.33, -173985.39, -173685.45, 0.00, 0.00, 0.00
2940.0, -173874.48, -173630.48, -180399.11, -180476.14, -174049.09, -173986.00, -174350.08, -173886.22, 0.00, 0.00, 0.00
2944.0, -174179.83, -173663.03, -180386.39, -180463.53, -173923.86, -173823.34, -173992.59, -173725.59, 0.00, 0.00, 0.00
2948.0, -173901.30, -173450.47, -180365.16, -180442.36, -173565.80, -173472.16, -173597.25, -173700.58, 0.00, 0.00, 0.00
2952.0, -173781.77, -173417.14, -180371.13, -180448.33, -173587.22, -173608.58, -173872.38, -173661.00, 0.00, 0.00, 0.00
2956.0, -173995.03, -173617.58, -180390.95, -180468.09, -173901.94, -173967.48, -174345.75, -173867.83, 0.00, 0.00, 0.00
2960.0, -174060.03, -173703.63, -180386.89, -180464.11, -173869.39, -173894.47, -174111.39, -173777.91, 0.00, 0.00, 0.00
2964.0, -173744.00, -173508.34, -180360.78, -180438.11, -173502.89, -173527.69, -173641.91, -173695.20, 0.00, 0.00, 0.00
2968.0, -173369.31, -173393.20, -180361.45, -180438.63, -173432.64, -173530.27, -173796.11, -173676.58, 0.00, 0.00, 0.00
2972.0, -173655.61, -173548.39, -180381.05, -180458.05, -173728.61, -173895.41, -174294.56, -173823.45, 0.00, 0.00, 0.00
2976.0, -174158.44, -173665.92, -180381.44, -180458.45, -173774.02, -173903.66, -174176.55, -173810.48, 0.00, 0.00, 0.00
2980.0, -174004.69, -173508.70, -180358.36, -180435.55, -173263.67, -173536.08, -173664.91, -173673.20, 0.00, 0.00, 0.00
2984.0, -173755.69, -173370.73, -180350.98, -180428.11, -172878.41, -173449.67, -173683.94, -173659.09, 0.00, 0.00, 0.00
2988.0, -173872.73, -173523.02, -180370.44, -180447.44, -173308.69, -173818.16, -174198.47, -173750.92, 0.00, 0.00, 0.00
2992.0, -174032.39, -173669.98, -180377.36, -180454.41, -173652.31, -173907.09, -174227.53, -173820.48, 0.00, 0.00, 0.00
2996.0, -173793.56, -173541.94, -180353.34, -180430.47, -173538.80, -173552.66, -173696.34, -173646.36, 0.00, 0.00, 0.00
3000.0, -173300.78, -173338.11, -180339.95, -180417.03, -173508.19, -173363.05, -173579.16, -173680.41, 0.00, 0.00, 0.00
3004.0, -173404.06, -173441.63, -180356.44, -180433.25, -174163.11, -173711.61, -174059.88, -173683.13, 0.00, 0.00, 0.00
3008.0, -173951.34, -173623.98, -180364.80, -180441.63, -174631.64, -173895.30, -174245.75, -173795.52, 0.00, 0.00, 0.00
3012.0, -174070.78, -173561.11, -180345.14, -180421.95, -174375.83, -173603.80, -173761.58, -173633.17, 0.00, 0.00, 0.00
3016.0, -173771.78, -173358.84, -180329.06, -180405.97, -174079.20, -173361.38, -173549.13, -173678.48, 0.00, 0.00, 0.00
3020.0, -173773.91, -173432.23, -180345.11, -180422.02, -174241.59, -173685.20, -173990.47, -173670.52, 0.00, 0.00, 0.00
3024.0, -174001.48, -173628.53, -180360.25, -180437.09, -174506.14, -173953.70, -174302.08, -173831.03, 0.00, 0.00, 0.00
3028.0, -173939.66, -173622.20, -180345.69, -180422.58, -174319.27, -173734.58, -173879.72, -173660.17, 0.00, 0.00, 0.00
3032.0, -173513.50, -173396.41, -180325.95, -180402.83, -173978.17, -173412.61, -173549.88, -173678.88, 0.00, 0.00, 0.00
3036.0, -173310.19, -173388.44, -180334.27, -180411.00, -174055.80, -173617.11, -173894.39, -173638.41, 0.00, 0.00, 0.00
3040.0, -173795.05, -173577.61, -180352.73, -180429.42, -174343.95, -173927.34, -174291.36, -173818.11, 0.00, 0.00, 0.00
3044.0, -174133.20, -173620.14, -180340.48, -180417.22, -174236.20, -173781.34, -173959.55, -173677.73, 0.00, 0.00, 0.00
3048.0, -173865.30, -173412.06, -180318.89, -180395.80, -173873.80, -173425.09, -173549.05, -173660.28, 0.00, 0.00, 0.00
3052.0, -173730.36, -173368.59, -180323.27, -180400.08, -173874.03, -173543.09, -173796.67, -173640.77, 0.00, 0.00, 0.00
3056.0, -173937.92, -173561.16, -180344.13, -180420.73, -174187.86, -173907.73, -174284.45, -173808.30, 0.00, 0.00, 0.00
3060.0, -174015.95, -173656.63, -180338.56, -180415.23, -174174.16, -173852.88, -174080.45, -173733.58, 0.00, 0.00, 0.00
3064.0, -173704.59, -173468.19, -180314.95, -180391.89, -173808.64, -173482.75, -173594.48, -173639.23, 0.00, 0.00, 0.00
3068.0, -173311.53, -173344.75, -180315.14, -180391.84, -173716.95, -173485.11, -173718.28, -173619.20, 0.00, 0.00, 0.00
3072.0, -173574.19, -173500.97, -180336.94, -180413.48, -174007.63, -173856.38, -174228.63, -173755.06, 0.00, 0.00, 0.00
3076.0, -174091.16, -173629.91, -180336.03, -180412.77, -174073.44, -173882.75, -174149.36, -173762.77, 0.00, 0.00, 0.00
3080.0, -173969.50, -173483.78, -180311.50, -180388.30, -173728.56, -173526.05, -173633.02, -173621.03, 0.00, 0.00, 0.00
3084.0, -173719.05, -173332.67, -180303.14, -180379.95, -173557.52, -173425.70, -173634.64, -173614.36, 0.00, 0.00, 0.00
3088.0, -173838.72, -173477.78, -180323.94, -180400.72, -173829.88, -173801.66, -174160.08, -173707.41, 0.00, 0.00, 0.00
3092.0, -174024.19, -173644.58, -180332.39, -180409.11, -173986.17, -173924.13, -174230.14, -173808.13, 0.00, 0.00, 0.00
3096.0, -173838.09, -173544.14, -180309.53, -180386.38, -173682.23, -173599.89, -173712.81, -173606.03, 0.00, 0.00, 0.00
3100.0, -173396.69, -173336.19, -180296.70, -180373.45, -173437.22, -173400.61, -173584.25, -173646.20, 0.00, 0.00, 0.00
3104.0, -173402.95, -173415.05, -180313.91, -180390.50, -173646.81, -173723.14, -174063.09, -173667.17, 0.00, 0.00, 0.00
3108.0, -173966.06, -173590.25, -180325.63, -180402.17, -173859.66, -173914.38, -174253.66, -173817.53, 0.00, 0.00, 0.00
3112.0, -174069.09, -173540.75, -180307.56, -180384.19, -173596.66, -173641.52, -173774.22, -173620.00, 0.00, 0.00, 0.00
3116.0, -173761.72, -173328.92, -180291.11, -180367.75, -173034.42, -173359.59, -173525.58, -173652.16, 0.00, 0.00, 0.00
3120.0, -173739.48, -173379.59, -180304.08, -180380.67, -173099.08, -173619.88, -173937.80, -173626.20, 0.00, 0.00, 0.00
3124.0, -173952.48, -173565.05, -180318.58, -180395.16, -173570.78, -173883.80, -174256.50, -173806.48, 0.00, 0.00, 0.00
3128.0, -173887.77, -173553.84, -180302.28, -180378.84, -173607.31, -173661.47, -173836.94, -173624.19, 0.00, 0.00, 0.00
3132.0, -173433.27, -173322.39, -180280.72, -180357.36, -173457.58, -173311.94, -173475.38, -173628.39, 0.00, 0.00, 0.00
3136.0, -173217.00, -173309.81, -180288.36, -180364.95, -173873.91, -173496.16, -173783.89, -173589.52, 0.00, 0.00, 0.00
3140.0, -173670.75, -173511.53, -180304.00, -180380.45, -174554.13, -173824.30, -174211.53, -173739.03, 0.00, 0.00, 0.00
3144.0, -174052.61, -173565.69, -180293.05, -180369.52, -174496.53, -173693.64, -173912.55, -173626.05, 0.00, 0.00, 0.00
3148.0, -173806.47, -173362.38, -180272.88, -180349.41, -174127.30, -173331.20, -173497.16, -173605.44, 0.00, 0.00, 0.00
3152.0, -173653.41, -173313.72, -180276.22, -180352.63, -174105.42, -173453.59, -173720.23, -173562.70, 0.00, 0.00, 0.00
3156.0, -173852.64, -173504.42, -180296.00, -180372.30, -174418.53, -173835.92, -174211.30, -173722.72, 0.00, 0.00, 0.00
3160.0, -173943.91, -173608.36, -180295.78, -180372.14, -174423.19, -173800.20, -174029.64, -173674.44, 0.00, 0.00, 0.00
3164.0, -173629.81, -173426.83, -180271.84, -180348.17, -174059.78, -173430.69, -173540.70, -173595.16, 0.00, 0.00, 0.00
3168.0, -173226.84, -173291.28, -180267.75, -180344.13, -173949.89, -173413.08, -173638.22, -173579.28, 0.00, 0.00, 0.00
3172.0, -173503.36, -173448.56, -180286.53, -180362.81, -174234.34, -173785.25, -174154.84, -173683.53, 0.00, 0.00, 0.00
3176.0, -174034.14, -173586.45, -180289.52, -180365.73, -174318.59, -173831.05, -174110.42, -173707.69, 0.00, 0.00, 0.00
3180.0, -173931.17, -173447.20, -180267.14, -180343.56, -173978.69, -173475.84, -173596.63, -173570.31, 0.00, 0.00, 0.00
3184.0, -173669.83, -173286.31, -180258.47, -180334.81, -173788.70, -173359.75, -173573.61, -173592.11, 0.00, 0.00, 0.00
3188.0, -173777.47, -173420.88, -180278.53, -180354.70, -174051.00, -173733.52, -174092.34, -173652.23, 0.00, 0.00, 0.00
3192.0, -173970.97, -173590.86, -180285.75, -180361.98, -174223.55, -173873.47, -174189.73, -173757.11, 0.00, 0.00, 0.00
3196.0, -173798.05, -173500.34, -180264.52, -180340.91, -173931.03, -173558.98, -173683.08, -173565.48, 0.00, 0.00, 0.00
3200.0, -173349.22, -173292.08, -180254.41, -180330.84, -173670.81, -173342.91, -173533.33, -173607.22, 0.00, 0.00, 0.00
3204.0, -173336.41, -173365.84, -180269.06, -180345.27, -173866.88, -173660.78, -174002.67, -173613.28, 0.00, 0.00, 0.00
3208.0, -173899.06, -173546.77, -180278.59, -180354.77, -174093.97, -173871.39, -174226.56, -173770.08, 0.00, 0.00, 0.00
3212.0, -174027.08, -173508.63, -180261.41, -180337.73, -173862.55, -173611.22, -173759.91, -173574.28, 0.00, 0.00, 0.00
3216.0, -173721.44, -173293.06, -180242.66, -180318.94, -173547.95, -173326.42, -173492.72, -173603.69, 0.00, 0.00, 0.00
3220.0, -173695.36, -173339.47, -180256.58, -180332.75, -173682.02, -173592.38, -173901.03, -173582.66, 0.00, 0.00, 0.00
3224.0, -173924.42, -173541.94, -180275.64, -180351.77, -173965.59, -173880.86, -174250.53, -173784.53, 0.00, 0.00, 0.00
3228.0, -173895.47, -173560.48, -180262.31, -180338.50, -173814.95, -173695.67, -173863.91, -173602.11, 0.00, 0.00, 0.00
3232.0, -173507.78, -173337.95, -180242.14, -180318.25, -173465.22, -173356.59, -173492.05, -173582.17, 0.00, 0.00, 0.00
3236.0, -173242.53, -173300.09, -180249.02, -180325.02, -173510.80, -173510.08, -173797.08, -173536.09, 0.00, 0.00, 0.00
3240.0, -173688.56, -173483.42, -180266.45, -180342.55, -173808.39, -173839.77, -174229.30, -173749.42, 0.00, 0.00, 0.00
3244.0, -174065.72, -173547.36, -180259.03, -180335.14, -173739.56, -173729.98, -173944.75, -173634.52, 0.00, 0.00, 0.00
3248.0, -173811.72, -173346.67, -180235.23, -180311.41, -173373.47, -173363.55, -173496.36, -173576.91, 0.00, 0.00, 0.00
3252.0, -173648.19, -173274.45, -180237.47, -180313.59, -173336.05, -173432.23, -173695.75, -173528.95, 0.00, 0.00, 0.00
3256.0, -173841.17, -173458.06, -180259.77, -180335.66, -173649.05, -173806.91, -174193.75, -173716.05, 0.00, 0.00, 0.00
3260.0, -173948.64, -173572.78, -180258.70, -180334.78, -173674.44, -173791.58, -174037.97, -173680.41, 0.00, 0.00, 0.00
3264.0, -173664.75, -173400.27, -180235.13, -180311.25, -173168.30, -173421.23, -173533.66, -173553.48, 0.00, 0.00, 0.00
3268.0, -173248.67, -173251.31, -180229.06, -180305.08, -172800.69, -173360.03, -173595.47, -173552.28, 0.00, 0.00, 0.00
3272.0, -173432.45, -173386.03, -180248.59, -180324.56, -173226.58, -173714.64, -174099.39, -173647.20, 0.00, 0.00, 0.00
3276.0, -173950.28, -173511.20, -180250.88, -180326.78, -173531.89, -173761.50, -174065.55, -173676.42, 0.00, 0.00, 0.00
3280.0, -173880.27, -173367.41, -180225.70, -180301.69, -173400.48, -173389.03, -173536.48, -173526.78, 0.00, 0.00, 0.00
3284.0, -173593.16, -173206.75, -180215.45, -180291.33, -173400.00, -173248.95, -173469.89, -173533.53, 0.00, 0.00, 0.00
3288.0, -173673.67, -173349.03, -180233.95, -180309.69, -174099.92, -173624.59, -173975.25, -173562.72, 0.00, 0.00, 0.00
3292.0, -173870.84, -173531.70, -180243.25, -180319.09, -174532.27, -173789.88, -174126.14, -173677.41, 0.00, 0.00, 0.00
3296.0, -173700.58, -173450.72, -180221.30, -180297.19, -174254.23, -173482.05, -173632.30, -173509.30, 0.00, 0.00, 0.00
3300.0, -173219.53, -173234.08, -180207.02, -180282.77, -173975.41, -173261.53, -173458.52, -173550.05, 0.00, 0.00, 0.00
3304.0, -173239.77, -173303.89, -180222.59, -180298.31, -174154.89, -173589.86, -173912.84, -173541.58, 0.00, 0.00, 0.00
3308.0, -173789.05, -173490.92, -180235.86, -180311.53, -174390.63, -173816.75, -174160.58, -173690.22, 0.00, 0.00, 0.00
3312.0, -173973.41, -173462.55, -180217.80, -180293.50, -174172.78, -173567.45, -173708.28, -173534.44, 0.00, 0.00, 0.00
3316.0, -173672.31, -173246.52, -180199.94, -180275.73, -173846.31, -173269.06, -173420.11, -173551.88, 0.00, 0.00, 0.00
3320.0, -173629.50, -173283.22, -180212.63, -180288.41, -173960.38, -173526.36, -173807.94, -173511.02, 0.00, 0.00, 0.00
3324.0, -173859.38, -173485.88, -180233.44, -180309.13, -174251.58, -173832.17, -174188.45, -173707.16, 0.00, 0.00, 0.00
3328.0, -173845.31, -173515.38, -180220.34, -180296.08, -174118.45, -173662.81, -173824.28, -173555.41, 0.00, 0.00, 0.00
3332.0, -173458.41, -173295.45, -180197.55, -180273.23, -173762.25, -173314.97, -173434.27, -173545.23, 0.00, 0.00, 0.00
3336.0, -173178.14, -173248.75, -180201.72, -180277.30, -173789.70, -173450.78, -173718.36, -173494.66, 0.00, 0.00, 0.00
3340.0, -173607.31, -173431.22, -180220.45, -180296.00, -174089.73, -173789.41, -174166.28, -173682.59, 0.00, 0.00, 0.00
3344.0, -174012.39, -173504.81, -180213.69, -180289.33, -174038.09, -173697.02, -173905.53, -173581.31, 0.00, 0.00, 0.00
3348.0, -173773.91, -173308.42, -180188.33, -180264.05, -173670.77, -173328.05, -173445.02, -173518.69, 0.00, 0.00, 0.00
3352.0, -173596.05, -173225.14, -180190.38, -180265.81, -173614.69, -173365.64, -173618.64, -173494.38, 0.00, 0.00, 0.00
3356.0, -173783.22, -173406.30, -180211.69, -180287.02, -173925.75, -173749.80, -174131.03, -173653.22, 0.00, 0.00, 0.00
3360.0, -173902.42, -173528.17, -180212.08, -180287.53, -173970.06, -173753.58, -174007.50, -173637.33, 0.00, 0.00, 0.00
3364.0, -173629.66, -173363.83, -180187.73, -180263.23, -173615.47, -173390.25, -173497.86, -173513.92, 0.00, 0.00, 0.00
3368.0, -173214.09, -173213.70, -180181.83, -180257.25, -173473.00, -173319.59, -173545.55, -173525.30, 0.00, 0.00, 0.00
3372.0, -173395.44, -173350.36, -180202.23, -180277.47, -173748.16, -173684.50, -174063.00, -173616.50, 0.00, 0.00, 0.00
3376.0, -173940.23, -173496.45, -180208.45, -180283.84, -173865.81, -173765.67, -174070.55, -173670.61, 0.00, 0.00, 0.00
3380.0, -173889.77, -173376.19, -180185.67, -180261.09, -173542.30, -173424.03, -173550.58, -173491.34, 0.00, 0.00, 0.00
3384.0, -173612.63, -173196.38, -180174.02, -180249.33, -173319.91, -173269.13, -173471.56, -173506.42, 0.00, 0.00, 0.00
3388.0, -173695.78, -173320.56, -180191.98, -180267.17, -173561.17, -173632.39, -173979.56, -173559.13, 0.00, 0.00, 0.00
3392.0, -173903.89, -173503.38, -180201.86, -180277.09, -173764.94, -173808.88, -174135.84, -173706.47, 0.00, 0.00, 0.00
3396.0, -173764.25, -173436.70, -180181.23, -180256.69, -173498.30, -173519.53, -173640.02, -173485.66, 0.00, 0.00, 0.00
3400.0, -173366.56, -173222.86, -180166.44, -180241.80, -173216.52, -173265.36, -173440.36, -173513.91, 0.00, 0.00, 0.00
3404.0, -173244.05, -173275.59, -180182.95, -180258.16, -173389.42, -173538.27, -173887.27, -173514.95, 0.00, 0.00, 0.00
3408.0, -173768.25, -173455.72, -180196.52, -180271.78, -173637.44, -173776.89, -174154.33, -173706.94, 0.00, 0.00, 0.00
3412.0, -173958.33, -173438.88, -180178.77, -180254.08, -173405.75, -173543.30, -173714.42, -173497.86, 0.00, 0.00, 0.00
3416.0, -173651.09, -173219.36, -180161.06, -180236.23, -172789.48, -173220.22, -173396.48, -173509.70, 0.00, 0.00, 0.00
3420.0, -173584.36, -173236.78, -180172.13, -180247.23, -172858.80, -173436.33, -173753.48, -173478.83, 0.00, 0.00, 0.00
3424.0, -173797.25, -173427.31, -180188.63, -180263.61, -173358.97, -173747.92, -174137.16, -173672.88, 0.00, 0.00, 0.00
3428.0, -173780.14, -173450.06, -180176.38, -180251.39, -173451.09, -173577.06, -173779.39, -173514.80, 0.00, 0.00, 0.00
3432.0, -173345.55, -173220.00, -180150.89, -180225.95, -173284.63, -173204.78, -173365.69, -173483.48, 0.00, 0.00, 0.00
3436.0, -173068.83, -173164.48, -180153.06, -180227.81, -173590.38, -173337.30, -173606.81, -173437.11, 0.00, 0.00, 0.00
3440.0, -173472.83, -173360.44, -180172.84, -180247.61, -174339.56, -173691.69, -174076.55, -173590.44, 0.00, 0.00, 0.00
3444.0, -173916.06, -173443.67, -180167.59, -180242.53, -174372.97, -173615.30, -173851.06, -173519.06, 0.00, 0.00, 0.00
3448.0, -173721.91, -173252.98, -180142.67, -180217.58, -173999.39, -173238.31, -173389.30, -173472.67, 0.00, 0.00, 0.00
3452.0, -173528.55, -173170.06, -180143.91, -180218.56, -173920.59, -173289.11, -173537.06, -173455.05, 0.00, 0.00, 0.00
3456.0, -173706.28, -173352.30, -180168.23, -180242.92, -174228.73, -173691.58, -174059.44, -173575.69, 0.00, 0.00, 0.00
3460.0, -173837.69, -173483.94, -180168.91, -180243.77, -174291.80, -173716.98, -173968.77, -173574.14, 0.00, 0.00, 0.00
3464.0, -173566.45, -173328.09, -180144.89, -180219.73, -173941.30, -173355.47, -173459.95, -173455.39, 0.00, 0.00, 0.00
3468.0, -173131.38, -173162.63, -180139.44, -180214.08, -173779.13, -173263.83, -173478.30, -173469.00, 0.00, 0.00, 0.00
3472.0, -173329.03, -173299.23, -180157.28, -180231.75, -174046.28, -173633.38, -173992.19, -173540.13, 0.00, 0.00, 0.00
3476.0, -173884.63, -173456.22, -180160.55, -180235.16, -174182.36, -173735.28, -174030.28, -173611.47, 0.00, 0.00, 0.00
3480.0, -173845.20, -173345.44, -180137.31, -180211.97, -173867.83, -173401.30, -173512.23, -173438.67, 0.00, 0.00, 0.00
3484.0, -173560.38, -173161.39, -180125.38, -180199.88, -173630.52, -173218.13, -173407.55, -173457.00, 0.00, 0.00, 0.00
3488.0, -173630.45, -173279.13, -180143.14, -180217.55, -173861.34, -173572.58, -173910.41, -173493.72, 0.00, 0.00, 0.00
3492.0, -173847.73, -173468.95, -180158.09, -180232.64, -174082.13, -173771.03, -174104.97, -173655.23, 0.00, 0.00, 0.00
3496.0, -173722.77, -173413.86, -180138.00, -180212.55, -173829.00, -173490.69, -173616.41, -173460.28, 0.00, 0.00, 0.00
3500.0, -173292.63, -173188.78, -180121.66, -180196.14, -173530.80, -173225.33, -173380.20, -173472.02, 0.00, 0.00, 0.00
3504.0, -173189.22, -173222.81, -180135.09, -180209.23, -173689.77, -173504.83, -173816.08, -173455.55, 0.00, 0.00, 0.00
3508.0, -173734.11, -173406.03, -180153.95, -180228.13, -173951.58, -173760.20, -174119.45, -173661.92, 0.00, 0.00, 0.00
3512.0, -173936.52, -173400.47, -180136.86, -180211.20, -173765.66, -173540.97, -173694.91, -173467.33, 0.00, 0.00, 0.00
3516.0, -173632.28, -173183.92, -180116.25, -180190.50, -173421.69, -173213.52, -173358.78, -173465.05, 0.00, 0.00, 0.00
3520.0, -173565.84, -173197.89, -180127.16, -180201.08, -173509.05, -173422.63, -173711.31, -173431.81, 0.00, 0.00, 0.00
3524.0, -173799.83, -173400.95, -180146.88, -180220.95, -173821.36, -173753.97, -174128.59, -173662.97, 0.00, 0.00, 0.00
3528.0, -173817.23, -173453.59, -180138.33, -180212.66, -173725.48, -173619.72, -173805.48, -173513.75, 0.00, 0.00, 0.00
3532.0, -173474.97, -173238.70, -180116.09, -180190.27, -173357.91, -173256.39, -173377.69, -173454.03, 0.00, 0.00, 0.00
3536.0, -173147.16, -173165.00, -180117.80, -180191.69, -173352.50, -173348.52, -173622.67, -173426.16, 0.00, 0.00, 0.00
3540.0, -173504.84, -173343.50, -180136.84, -180210.78, -173664.53, -173702.19, -174101.80, -173628.61, 0.00, 0.00, 0.00
3544.0, -173944.28, -173437.50, -180132.95, -180207.05, -173650.78, -173646.38, -173889.77, -173553.28, 0.00, 0.00, 0.00
3548.0, -173721.03, -173250.94, -180107.02, -180181.08, -173221.88, -173267.97, -173390.56, -173432.75, 0.00, 0.00, 0.00
3552.0, -173513.44, -173140.41, -180106.64, -180180.45, -172834.61, -173265.11, -173502.84, -173401.98, 0.00, 0.00, 0.00
3556.0, -173676.61, -173307.70, -180129.33, -180203.13, -173194.59, -173644.80, -174024.06, -173563.69, 0.00, 0.00, 0.00
3560.0, -173806.38, -173434.72, -180129.84, -180203.73, -173485.34, -173673.42, -173947.59, -173579.86, 0.00, 0.00, 0.00
3564.0, -173510.58, -173267.72, -180103.02, -180176.67, -173334.00, -173287.34, -173406.92, -173423.00, 0.00, 0.00, 0.00
3568.0, -173044.42, -173085.52, -180092.95, -180166.34, -173388.16, -173163.45, -173378.59, -173418.27, 0.00, 0.00, 0.00
3572.0, -173246.52, -173226.66, -180111.22, -180184.53, -174130.50, -173542.20, -173899.38, -173481.06, 0.00, 0.00, 0.00
3576.0, -173805.58, -173395.81, -180117.89, -180191.39, -174446.22, -173667.38, -173985.92, -173572.52, 0.00, 0.00, 0.00
3580.0, -173803.78, -173290.92, -180097.19, -180170.64, -174131.61, -173328.97, -173465.48, -173409.66, 0.00, 0.00, 0.00
3584.0, -173507.41, -173101.20, -180084.56, -180157.67, -173871.91, -173140.31, -173330.31, -173423.30, 0.00, 0.00, 0.00
3588.0, -173568.16, -173224.30, -180103.67, -180176.69, -174095.94, -173511.28, -173834.31, -173449.28, 0.00, 0.00, 0.00
3592.0, -173795.84, -173428.16, -180114.64, -180187.94, -174334.38, -173734.22, -174069.86, -173617.23, 0.00, 0.00, 0.00
3596.0, -173676.53, -173381.00, -180095.20, -180168.53, -174086.13, -173457.22, -173585.19, -173410.84, 0.00, 0.00, 0.00
3600.0, -173228.98, -173147.11, -180077.63, -180150.61, -173769.88, -173170.22, -173323.27, -173426.05, 0.00, 0.00, 0.00
3604.0, -173120.67, -173177.83, -180091.67, -180164.53, -173918.31, -173448.88, -173750.55, -173414.59, 0.00, 0.00, 0.00
3608.0, -173668.73, -173374.08, -180108.16, -180181.25, -174194.77, -173728.81, -174084.64, -173618.98, 0.00, 0.00, 0.00
3612.0, -173893.33, -173378.27, -180094.45, -180167.61, -174019.36, -173519.41, -173667.73, -173423.69, 0.00, 0.00, 0.00
3616.0, -173583.44, -173152.55, -180071.77, -180144.69, -173659.34, -173172.23, -173291.81, -173411.69, 0.00, 0.00, 0.00
3620.0, -173504.66, -173150.33, -180080.94, -180153.42, -173732.44, -173368.22, -173630.27, -173399.00, 0.00, 0.00, 0.00
3624.0, -173743.95, -173357.75, -180102.44, -180175.14, -174058.53, -173720.13, -174079.05, -173621.13, 0.00, 0.00, 0.00
3628.0, -173772.11, -173418.39, -180093.78, -180166.77, -173975.47, -173597.95, -173771.27, -173484.94, 0.00, 0.00, 0.00
3632.0, -173405.61, -173198.34, -180072.06, -180144.81, -173593.13, -173217.47, -173314.33, -173408.14, 0.00, 0.00, 0.00
3636.0, -173068.75, -173115.19, -180074.98, -180147.30, -173570.47, -173293.30, -173534.78, -173380.75, 0.00, 0.00, 0.00
3640.0, -173460.63, -173298.98, -180096.17, -180168.73, -173890.91, -173663.17, -174042.13, -173579.42, 0.00, 0.00, 0.00
3644.0, -173914.16, -173402.72, -180093.11, -180165.83, -173894.17, -173624.55, -173858.33, -173523.16, 0.00, 0.00, 0.00
3648.0, -173688.73, -173216.27, -180068.16, -180140.50, -173512.27, -173234.53, -173343.00, -173393.19, 0.00, 0.00, 0.00
3652.0, -173472.36, -173100.84, -180063.64, -180135.66, -173400.83, -173219.69, -173439.23, -173397.41, 0.00, 0.00, 0.00
3656.0, -173651.08, -173278.81, -180084.48, -180156.66, -173722.69, -173627.52, -173990.72, -173550.88, 0.00, 0.00, 0.00
3660.0, -173811.00, -173431.38, -180087.70, -180160.19, -173826.72, -173691.88, -173957.34, -173589.05, 0.00, 0.00, 0.00
3664.0, -173562.31, -173283.02, -180063.28, -180135.41, -173470.81, -173321.28, -173408.56, -173384.20, 0.00, 0.00, 0.00
3668.0, -173121.61, -173090.83, -180054.05, -180125.75, -173272.80, -173180.66, -173367.05, -173384.42, 0.00, 0.00, 0.00
3672.0, -173249.30, -173215.44, -180075.84, -180147.52, -173543.98, -173546.89, -173902.06, -173488.17, 0.00, 0.00, 0.00
3676.0, -173827.30, -173389.34, -180085.73, -180157.83, -173720.13, -173690.28, -174007.56, -173615.42, 0.00, 0.00, 0.00
3680.0, -173799.88, -173289.38, -180062.34, -180134.31, -173409.50, -173356.77, -173471.09, -173382.55, 0.00, 0.00, 0.00
3684.0, -173492.25, -173080.95, -180048.08, -180119.41, -173133.86, -173131.78, -173297.63, -173399.33, 0.00, 0.00, 0.00
3688.0, -173549.16, -173188.84, -180068.13, -180139.39, -173357.95, -173483.42, -173801.59, -173448.03, 0.00, 0.00, 0.00
3692.0, -173787.95, -173398.81, -180080.20, -180152.02, -173617.30, -173725.28, -174063.52, -173651.08, 0.00, 0.00, 0.00
3696.0, -173677.42, -173357.28, -180062.34, -180134.11, -173354.17, -173453.48, -173576.17, -173398.14, 0.00, 0.00, 0.00
3700.0, -173238.00, -173113.66, -180043.66, -180114.73, -172755.11, -173134.13, -173272.61, -173389.98, 0.00, 0.00, 0.00
3704.0, -173079.59, -173127.17, -180055.45, -180126.31, -172823.92, -173376.53, -173679.00, -173387.27, 0.00, 0.00, 0.00
3708.0, -173601.30, -173316.58, -180072.70, -180144.06, -173314.45, -173663.27, -174036.91, -173603.80, 0.00, 0.00, 0.00
3712.0, -173828.86, -173312.00, -180056.30, -180127.50, -173352.08, -173443.31, -173618.06, -173411.52, 0.00, 0.00, 0.00
3716.0, -173496.84, -173074.94, -180030.39, -180100.67, -173168.91, -173060.41, -173207.95, -173370.39, 0.00, 0.00, 0.00
3720.0, -173390.86, -173072.14, -180037.91, -180107.78, -173553.72, -173248.56, -173513.34, -173349.73, 0.00, 0.00, 0.00
3724.0, -173626.58, -173291.44, -180059.98, -180130.58, -174314.95, -173631.63, -174001.75, -173554.00, 0.00, 0.00, 0.00
3728.0, -173666.13, -173363.92, -180051.81, -180122.64, -174297.36, -173523.73, -173723.03, -173438.38, 0.00, 0.00, 0.00
3732.0, -173251.47, -173139.42, -180026.38, -180096.20, -173899.38, -173125.70, -173241.95, -173355.16, 0.00, 0.00, 0.00
3736.0, -172929.50, -173041.39, -180026.91, -180095.91, -173851.44, -173204.42, -173431.52, -173327.94, 0.00, 0.00, 0.00
3740.0, -173338.80, -173239.89, -180049.69, -180119.53, -174177.17, -173605.64, -173966.58, -173509.23, 0.00, 0.00, 0.00
3744.0, -173823.41, -173356.22, -180048.38, -180118.70, -174196.34, -173585.61, -173814.94, -173473.02, 0.00, 0.00, 0.00
3748.0, -173624.66, -173168.44, -180021.22, -180090.38, -173805.42, -173184.91, -173284.42, -173341.45, 0.00, 0.00, 0.00
3752.0, -173393.00, -173038.06, -180016.20, -180084.09, -173673.16, -173154.16, -173353.69, -173349.75, 0.00, 0.00, 0.00
3756.0, -173564.73, -173219.22, -180040.55, -180109.25, -173995.11, -173574.55, -173920.84, -173487.97, 0.00, 0.00, 0.00
3760.0, -173736.92, -173382.00, -180047.91, -180117.55, -174117.89, -173660.39, -173923.48, -173542.63, 0.00, 0.00, 0.00
3764.0, -173481.42, -173239.36, -180021.88, -180090.59, -173760.16, -173286.72, -173367.45, -173343.61, 0.00, 0.00, 0.00
3768.0, -173010.50, -173039.38, -180009.66, -180076.42, -173538.09, -173120.16, -173296.27, -173341.73, 0.00, 0.00, 0.00
3772.0, -173168.03, -173163.86, -180029.59, -180096.98, -173804.28, -173493.11, -173833.78, -173426.70, 0.00, 0.00, 0.00
3776.0, -173758.70, -173349.89, -180039.20, -180108.03, -174000.97, -173660.84, -173972.94, -173568.38, 0.00, 0.00, 0.00
3780.0, -173751.13, -173259.67, -180017.45, -180085.30, -173695.00, -173329.41, -173434.83, -173336.20, 0.00, 0.00, 0.00
3784.0, -173434.59, -173041.77, -180002.70, -180067.59, -173401.39, -173080.59, -173230.81, -173346.91, 0.00, 0.00, 0.00
3788.0, -173479.28, -173138.55, -180021.55, -180086.92, -173615.14, -173424.20, -173727.63, -173386.95, 0.00, 0.00, 0.00
3792.0, -173725.86, -173353.69, -180037.19, -180105.05, -173891.30, -173687.36, -174023.34, -173602.22, 0.00, 0.00, 0.00
3796.0, -173626.02, -173322.55, -180018.11, -180085.39, -173660.23, -173423.92, -173545.47, -173360.27, 0.00, 0.00, 0.00
3800.0, -173160.41, -173072.14, -179996.36, -180059.66, -173306.70, -173092.69, -173212.94, -173346.22, 0.00, 0.00, 0.00
3804.0, -173029.25, -173078.56, -180008.00, -180070.59, -173431.67, -173342.42, -173616.86, -173351.16, 0.00, 0.00, 0.00
3808.0, -173592.38, -173286.63, -180029.02, -180095.08, -173742.81, -173661.06, -174014.89, -173588.72, 0.00, 0.00, 0.00
3812.0, -173841.73, -173311.89, -180015.56, -180081.72, -173594.66, -173475.17, -173627.39, -173392.69, 0.00, 0.00, 0.00
3816.0, -173522.44, -173079.88, -179991.31, -180051.19, -173207.38, -173094.58, -173204.05, -173327.73, 0.00, 0.00, 0.00
3820.0, -173415.31, -173058.78, -179998.53, -180054.92, -173247.53, -173257.00, -173506.89, -173315.80, 0.00, 0.00, 0.00
3824.0, -173657.94, -173277.11, -180022.55, -180085.56, -173594.59, -173645.44, -174013.58, -173566.92, 0.00, 0.00, 0.00
3828.0, -173714.41, -173360.77, -180015.83, -180080.53, -173546.83, -173556.53, -173752.67, -173453.28, 0.00, 0.00, 0.00
3832.0, -173344.41, -173139.72, -179991.02, -180045.00, -173068.02, -173149.64, -173236.92, -173321.19, 0.00, 0.00, 0.00
3836.0, -172966.63, -173021.03, -179991.75, -180027.61, -172713.31, -173168.03, -173396.11, -173312.66, 0.00, 0.00, 0.00
3840.0, -173315.02, -173195.22, -180012.20, -180064.78, -173125.34, -173559.92, -173927.02, -173495.28, 0.00, 0.00, 0.00
3844.0, -173797.56, -173305.81, -180009.80, -180070.28, -173372.75, -173545.67, -173786.17, -173465.44, 0.00, 0.00, 0.00
3848.0, -173588.92, -173112.17, -179980.23, -180001.55, -173182.97, -173122.06, -173225.72, -173299.33, 0.00, 0.00, 0.00
3852.0, -173327.84, -172970.44, -179970.00, -179888.05, -173268.53, -173053.14, -173247.83, -173287.89, 0.00, 0.00, 0.00
3856.0, -173481.98, -173159.03, -179992.05, -179965.44, -174063.67, -173476.11, -173815.89, -173411.27, 0.00, 0.00, 0.00
3860.0, -173664.52, -173336.41, -180001.19, -180049.28, -174357.61, -173585.19, -173862.19, -173488.69, 0.00, 0.00, 0.00
3864.0, -173405.30, -173200.47, -179975.06, -179966.83, -174001.16, -173207.81, -173304.95, -173289.05, 0.00, 0.00, 0.00
3868.0, -172913.78, -172984.48, -179963.77, -179791.86, -173754.88, -173038.70, -173200.16, -173305.41, 0.00, 0.00, 0.00
3872.0, -173075.31, -173102.70, -179983.17, -179832.63, -174010.14, -173432.47, -173733.94, -173368.91, 0.00, 0.00, 0.00
3876.0, -173661.11, -173299.27, -179996.27, -179984.33, -174221.50, -173622.91, -173917.23, -173509.59, 0.00, 0.00, 0.00
3880.0, -173708.67, -173220.67, -179972.47, -179907.78, -173924.84, -173299.94, -173386.95, -173284.75, 0.00, 0.00, 0.00
3884.0, -173385.77, -172995.28, -179952.77, -179684.13, -173612.16, -173029.81, -173155.69, -173288.28, 0.00, 0.00, 0.00
3888.0, -173415.31, -173076.75, -179970.63, -179691.45, -173810.69, -173367.44, -173641.02, -173319.28, 0.00, 0.00, 0.00
3892.0, -173665.83, -173292.27, -179990.52, -179874.56, -174099.78, -173650.27, -173972.77, -173539.58, 0.00, 0.00, 0.00
3896.0, -173579.11, -173274.34, -179972.03, -179849.59, -173881.97, -173399.59, -173512.31, -173322.03, 0.00, 0.00, 0.00
3900.0, -173101.64, -173027.02, -179949.17, -179613.72, -173515.53, -173051.69, -173160.72, -173291.22, 0.00, 0.00, 0.00
3904.0, -172956.67, -173028.92, -179959.78, -179559.58, -173620.66, -173285.78, -173544.59, -173273.64, 0.00, 0.00, 0.00
3908.0, -173506.95, -173243.83, -179980.39, -179733.45, -173938.61, -173623.78, -173972.88, -173516.94, 0.00, 0.00, 0.00
3912.0, -173795.63, -173284.34, -179967.44, -179754.91, -173810.78, -173456.81, -173609.84, -173352.91, 0.00, 0.00, 0.00
3916.0, -173482.86, -173050.84, -179943.81, -179517.63, -173415.11, -173066.28, -173156.30, -173288.67, 0.00, 0.00, 0.00
3920.0, -173358.14, -173008.23, -179948.53, -179417.41, -173434.48, -173205.61, -173430.98, -173275.83, 0.00, 0.00, 0.00
3924.0, -173596.45, -173224.72, -179971.08, -179600.31, -173784.77, -173602.44, -173958.84, -173504.45, 0.00, 0.00, 0.00
3928.0, -173667.89, -173322.38, -179965.41, -179678.16, -173757.50, -173533.34, -173730.16, -173412.63, 0.00, 0.00, 0.00
3932.0, -173307.75, -173109.94, -179939.27, -179459.16, -173354.11, -173125.03, -173201.63, -173277.41, 0.00, 0.00, 0.00
3936.0, -172920.28, -172979.88, -179937.14, -179300.30, -173270.66, -173137.86, -173339.72, -173272.61, 0.00, 0.00, 0.00
3940.0, -173274.27, -173160.66, -179960.48, -179444.88, -173601.91, -173545.52, -173894.33, -173453.02, 0.00, 0.00, 0.00
3944.0, -173786.02, -173299.48, -179961.13, -179561.30, -173666.55, -173569.58, -173803.83, -173455.03, 0.00, 0.00, 0.00
3948.0, -173597.59, -173130.03, -179934.94, -179371.38, -173282.05, -173171.31, -173241.73, -173269.36, 0.00, 0.00, 0.00
3952.0, -173339.89, -172967.09, -179926.98, -179169.28, -173109.81, -173073.19, -173247.06, -173266.09, 0.00, 0.00, 0.00
3956.0, -173491.47, -173129.28, -179950.45, -179290.63, -173421.75, -173485.39, -173819.72, -173406.38, 0.00, 0.00, 0.00
3960.0, -173686.70, -173307.34, -179960.42, -179459.28, -173584.95, -173612.91, -173888.63, -173509.81, 0.00, 0.00, 0.00
3964.0, -173466.52, -173187.48, -179935.00, -179314.81, -173242.64, -173251.42, -173324.52, -173265.08, 0.00, 0.00, 0.00
