%OpenBCI Raw EEG Data
%
%Sample Rate = 250.0 Hz
%First Column = Time (ms)
%Other Columns = EEG data in microvolts followed by Accel Data (in G) interleaved with Aux Data
0.0, -156652.89, -170996.98, -163807.02, -164048.81, -171171.08, -171096.83, -81233.45, -171101.50, 288.00, 192.00, 3904.00
4.0, -156827.23, -171006.22, -163848.00, -164047.20, -171180.42, -171106.17, -81416.54, -171110.80, 0.00, 0.00, 0.00
8.0, -157012.50, -171022.89, -163869.11, -164080.53, -171197.23, -171122.73, -81612.67, -171127.56, 0.00, 0.00, 0.00
12.0, -157106.11, -171009.81, -163800.97, -164064.41, -171184.19, -171109.64, -81700.36, -171114.27, 0.00, 0.00, 0.00
16.0, -157175.25, -170987.89, -163785.91, -164047.30, -171162.34, -171087.89, -81757.07, -171092.42, 0.00, 0.00, 0.00
20.0, -157336.09, -170993.34, -163820.78, -164028.42, -171167.75, -171093.39, -81921.55, -171097.81, 0.00, 0.00, 0.00
24.0, -157530.73, -171010.36, -163851.27, -164069.48, -171184.83, -171110.44, -82127.23, -171115.14, 0.00, 0.00, 0.00
28.0, -157638.33, -171002.66, -163800.42, -164052.95, -171177.19, -171102.78, -82233.14, -171107.38, 448.00, 320.00, 7776.00
32.0, -157693.66, -170981.36, -163782.77, -164044.13, -171155.95, -171081.61, -82276.03, -171086.11, 0.00, 0.00, 0.00
36.0, -157834.11, -170979.11, -163805.92, -164020.84, -171153.83, -171079.42, -82417.12, -171083.89, 0.00, 0.00, 0.00
40.0, -158033.78, -170997.44, -163842.34, -164061.67, -171172.20, -171097.84, -82625.79, -171102.47, 0.00, 0.00, 0.00
44.0, -158160.52, -170997.88, -163802.83, -164047.41, -171172.83, -171098.38, -82750.76, -171102.69, 0.00, 0.00, 0.00
48.0, -158219.34, -170974.33, -163768.20, -164035.52, -171149.42, -171074.91, -82795.38, -171079.22, 0.00, 0.00, 0.00
52.0, -158344.77, -170969.19, -163789.58, -164001.61, -171144.31, -171069.77, -82913.01, -171073.97, 0.00, 0.00, 0.00
56.0, -158545.83, -170986.84, -163827.53, -164038.42, -171161.94, -171087.48, -83120.21, -171091.89, 0.00, 0.00, 0.00
60.0, -158691.48, -170990.19, -163803.88, -164039.64, -171165.39, -171090.95, -83262.86, -171095.25, 0.00, 0.00, 0.00
64.0, -158753.08, -170968.52, -163763.63, -164029.55, -171143.70, -171069.20, -83304.97, -171073.56, 0.00, 0.00, 0.00
68.0, -158858.00, -170956.69, -163779.73, -163997.89, -171131.98, -171057.38, -83399.18, -171061.73, 496.00, 352.00, 7808.00
72.0, -159054.25, -170973.22, -163814.30, -164022.64, -171148.58, -171073.94, -83600.13, -171078.38, 0.00, 0.00, 0.00
76.0, -159217.22, -170981.27, -163808.73, -164034.00, -171156.73, -171082.19, -83762.73, -171086.39, 0.00, 0.00, 0.00
80.0, -159290.42, -170961.33, -163749.70, -164019.78, -171136.94, -171062.39, -83818.57, -171066.39, 0.00, 0.00, 0.00
84.0, -159378.84, -170944.92, -163766.55, -163996.11, -171120.61, -171045.95, -83890.95, -171050.16, 0.00, 0.00, 0.00
88.0, -159564.31, -170958.94, -163801.17, -164006.72, -171134.72, -171060.05, -84078.25, -171064.22, 0.00, 0.00, 0.00
92.0, -159741.47, -170972.27, -163809.77, -164030.06, -171148.13, -171073.36, -84256.66, -171077.52, 0.00, 0.00, 0.00
96.0, -159823.69, -170954.83, -163741.55, -164009.36, -171130.73, -171055.92, -84322.49, -171060.00, 0.00, 0.00, 0.00
100.0, -159898.41, -170936.50, -163736.88, -163987.20, -171112.44, -171037.75, -84378.75, -171041.72, 0.00, 0.00, 0.00
104.0, -160071.77, -170944.89, -163764.94, -163980.19, -171120.84, -171046.19, -84547.84, -171050.05, 0.00, 0.00, 0.00
108.0, -160263.09, -170960.63, -163787.19, -164014.95, -171136.70, -171062.03, -84739.41, -171066.13, 544.00, 336.00, 7776.00
112.0, -160365.25, -170949.25, -163733.58, -163996.95, -171125.44, -171050.73, -84823.41, -171054.70, 0.00, 0.00, 0.00
116.0, -160431.63, -170926.05, -163724.22, -163988.00, -171102.23, -171027.52, -84865.01, -171031.61, 0.00, 0.00, 0.00
120.0, -160589.34, -170930.36, -163741.92, -163978.00, -171106.48, -171031.77, -85014.63, -171035.77, 0.00, 0.00, 0.00
124.0, -160788.92, -170950.14, -163772.45, -164015.11, -171126.36, -171051.56, -85214.03, -171055.70, 0.00, 0.00, 0.00
128.0, -160903.59, -170941.38, -163727.48, -163986.50, -171117.70, -171042.89, -85316.36, -171046.81, 0.00, 0.00, 0.00
132.0, -160962.75, -170916.86, -163712.48, -163974.11, -171093.25, -171018.38, -85352.63, -171022.33, 0.00, 0.00, 0.00
136.0, -161103.20, -170917.50, -163726.67, -163954.33, -171093.86, -171018.98, -85478.63, -171022.69, 0.00, 0.00, 0.00
140.0, -161307.03, -170936.66, -163762.67, -163991.92, -171113.11, -171038.31, -85680.24, -171042.19, 0.00, 0.00, 0.00
144.0, -161441.70, -170935.67, -163730.56, -163983.33, -171112.23, -171037.44, -85804.41, -171041.11, 0.00, 0.00, 0.00
148.0, -161501.34, -170911.02, -163705.28, -163971.81, -171087.64, -171012.88, -85838.79, -171016.67, 496.00, 368.00, 7728.00
152.0, -161622.42, -170904.94, -163722.72, -163942.80, -171081.56, -171006.75, -85941.54, -171010.47, 0.00, 0.00, 0.00
156.0, -161825.19, -170923.50, -163758.02, -163974.34, -171100.11, -171025.31, -86139.64, -171029.16, 0.00, 0.00, 0.00
160.0, -161976.02, -170928.05, -163738.39, -163977.89, -171104.86, -171029.94, -86279.45, -171033.69, 0.00, 0.00, 0.00
164.0, -162041.52, -170905.48, -163695.77, -163967.27, -171082.34, -171007.52, -86317.98, -171011.09, 0.00, 0.00, 0.00
168.0, -162146.64, -170892.02, -163698.50, -163934.08, -171068.94, -170994.13, -86398.68, -170997.48, 0.00, 0.00, 0.00
172.0, -162344.69, -170906.64, -163728.25, -163954.88, -171083.64, -171008.86, -86588.80, -171012.34, 0.00, 0.00, 0.00
176.0, -162516.20, -170917.08, -163727.42, -163969.53, -171094.11, -171019.31, -86750.00, -171022.78, 0.00, 0.00, 0.00
180.0, -162593.42, -170898.33, -163676.81, -163946.78, -171075.34, -171000.55, -86798.46, -171004.00, 0.00, 0.00, 0.00
184.0, -162679.88, -170881.67, -163685.97, -163937.02, -171058.83, -170983.86, -86857.89, -170987.36, 0.00, 0.00, 0.00
188.0, -162865.84, -170895.27, -163712.59, -163943.27, -171072.52, -170997.55, -87033.33, -171000.94, 528.00, 400.00, 7696.00
192.0, -163050.03, -170908.78, -163724.00, -163966.84, -171085.92, -171010.98, -87208.70, -171014.48, 0.00, 0.00, 0.00
196.0, -163139.88, -170891.39, -163675.92, -163945.69, -171068.64, -170993.66, -87272.00, -170997.03, 0.00, 0.00, 0.00
200.0, -163214.02, -170870.72, -163674.69, -163922.81, -171048.03, -170972.98, -87315.77, -170976.36, 0.00, 0.00, 0.00
204.0, -163388.09, -170880.52, -163691.94, -163910.55, -171057.83, -170982.81, -87474.31, -170986.03, 0.00, 0.00, 0.00
208.0, -163588.67, -170896.56, -163717.27, -163948.05, -171074.25, -170999.20, -87662.80, -171002.63, 0.00, 0.00, 0.00
212.0, -163697.00, -170884.80, -163667.48, -163937.80, -171064.31, -170989.30, -87743.49, -170992.69, 0.00, 0.00, 0.00
216.0, -163762.84, -170859.72, -163668.66, -163927.13, -171039.45, -170964.42, -87775.25, -170967.95, 0.00, 0.00, 0.00
220.0, -163918.64, -170863.72, -163690.47, -163906.00, -171042.72, -170967.61, -87911.93, -170970.92, 0.00, 0.00, 0.00
224.0, -164121.56, -170880.53, -163721.77, -163943.27, -171059.48, -170984.45, -88105.03, -170987.91, 0.00, 0.00, 0.00
228.0, -164246.88, -170874.92, -163675.41, -163927.55, -171054.47, -170979.34, -88207.06, -170982.69, 512.00, 400.00, 7728.00
232.0, -164418.69, -170850.58, -163648.20, -163916.59, -171030.14, -170955.02, -88238.20, -170958.34, 0.00, 0.00, 0.00
236.0, -164685.97, -170849.73, -163675.53, -163893.53, -171027.58, -170952.50, -88365.52, -170955.59, 0.00, 0.00, 0.00
240.0, -164737.80, -170871.41, -163728.58, -163948.09, -171048.95, -170973.86, -88579.00, -170977.25, 0.00, 0.00, 0.00
244.0, -164692.50, -170873.67, -163709.73, -163942.22, -171051.14, -170976.02, -88717.36, -170979.27, 0.00, 0.00, 0.00
248.0, -164574.23, -170851.19, -163639.02, -163909.20, -171028.66, -170953.67, -88768.03, -170956.58, 0.00, 0.00, 0.00
252.0, -164506.95, -170846.64, -163661.34, -163885.22, -171024.28, -170949.20, -88876.88, -170952.14, 0.00, 0.00, 0.00
256.0, -164521.70, -170866.66, -163716.28, -163932.77, -171044.28, -170969.22, -89083.01, -170972.33, 0.00, 0.00, 0.00
260.0, -164495.13, -170871.53, -163715.72, -163944.94, -171049.22, -170974.20, -89242.33, -170977.31, 0.00, 0.00, 0.00
264.0, -164383.70, -170852.91, -163643.69, -163913.52, -171030.72, -170955.56, -89300.29, -170958.41, 0.00, 0.00, 0.00
268.0, -164299.13, -170841.80, -163670.06, -163889.17, -171019.63, -170944.50, -89387.38, -170947.30, 544.00, 384.00, 7760.00
272.0, -164309.52, -170855.08, -163734.39, -163924.42, -171032.92, -170957.73, -89584.83, -170960.83, 0.00, 0.00, 0.00
276.0, -164299.98, -170868.53, -163752.70, -163954.13, -171046.42, -170971.14, -89760.55, -170974.28, 0.00, 0.00, 0.00
280.0, -164198.72, -170852.95, -163668.88, -163909.34, -171031.00, -170955.66, -89829.52, -170958.45, 0.00, 0.00, 0.00
284.0, -164105.31, -170835.45, -163592.30, -163867.45, -171014.52, -170939.23, -89906.31, -170941.69, 0.00, 0.00, 0.00
288.0, -164103.64, -170844.56, -163618.20, -163892.31, -171023.97, -170948.66, -90090.34, -170951.41, 0.00, 0.00, 0.00
292.0, -164104.06, -170858.19, -163649.77, -163937.86, -171039.08, -170963.70, -90280.16, -170966.83, 0.00, 0.00, 0.00
296.0, -163893.25, -170841.78, -163612.69, -163909.53, -171025.27, -170950.05, -90357.80, -170953.17, 0.00, 0.00, 0.00
300.0, -163671.27, -170824.70, -163623.08, -163887.41, -171004.83, -170929.66, -90397.07, -170932.44, 0.00, 0.00, 0.00
304.0, -163820.20, -170832.91, -163645.63, -163874.17, -171012.66, -170937.28, -90543.16, -170940.08, 0.00, 0.00, 0.00
308.0, -164022.80, -170850.27, -163672.14, -163911.59, -171029.80, -170954.42, -90724.74, -170957.28, 0.00, 0.00, 0.00
312.0, -164137.27, -170840.45, -163626.00, -163890.70, -171020.09, -170944.81, -90802.55, -170947.44, 496.00, 432.00, 7712.00
316.0, -164230.63, -170817.66, -163619.80, -163881.80, -170997.72, -170922.28, -90824.39, -170925.17, 0.00, 0.00, 0.00
320.0, -164568.56, -170822.34, -163637.83, -163869.80, -171001.50, -170925.97, -90952.77, -170928.72, 0.00, 0.00, 0.00
324.0, -164726.63, -170841.66, -163686.16, -163921.11, -171019.88, -170944.48, -91155.87, -170947.36, 0.00, 0.00, 0.00
328.0, -164670.19, -170838.42, -163655.13, -163904.42, -171016.64, -170941.27, -91273.77, -170943.94, 0.00, 0.00, 0.00
332.0, -164549.72, -170817.30, -163618.36, -163877.02, -170995.56, -170920.19, -91315.08, -170922.67, 0.00, 0.00, 0.00
336.0, -164498.73, -170814.06, -163660.56, -163859.53, -170992.31, -170916.91, -91434.50, -170919.42, 0.00, 0.00, 0.00
340.0, -164518.59, -170834.28, -163715.48, -163914.75, -171012.63, -170937.16, -91638.75, -170939.88, 0.00, 0.00, 0.00
344.0, -164478.97, -170835.66, -163700.80, -163912.20, -171013.92, -170938.56, -91776.84, -170941.11, 0.00, 0.00, 0.00
348.0, -164364.53, -170814.02, -163604.02, -163866.22, -170992.42, -170916.98, -91825.37, -170919.14, 0.00, 0.00, 0.00
352.0, -164293.91, -170808.16, -163604.45, -163845.59, -170986.64, -170911.25, -91922.30, -170913.14, 512.00, 400.00, 7760.00
356.0, -164306.23, -170826.55, -163691.56, -163892.31, -171005.02, -170929.64, -92117.03, -170931.94, 0.00, 0.00, 0.00
360.0, -164284.00, -170835.41, -163696.92, -163908.72, -171013.84, -170938.38, -92272.27, -170940.91, 0.00, 0.00, 0.00
364.0, -164175.81, -170815.58, -163609.72, -163870.98, -170994.17, -170918.67, -92324.28, -170920.78, 0.00, 0.00, 0.00
368.0, -164090.97, -170802.61, -163605.53, -163842.95, -170981.67, -170906.17, -92401.15, -170908.16, 0.00, 0.00, 0.00
372.0, -164096.53, -170819.83, -163681.59, -163876.44, -170998.86, -170923.42, -92585.30, -170925.77, 0.00, 0.00, 0.00
376.0, -164088.42, -170830.78, -163704.28, -163908.95, -171011.30, -170935.83, -92757.44, -170938.48, 0.00, 0.00, 0.00
380.0, -163869.94, -170809.39, -163627.44, -163877.20, -170992.94, -170917.30, -92819.66, -170920.09, 0.00, 0.00, 0.00
384.0, -163656.36, -170795.69, -163611.52, -163853.39, -170976.69, -170901.05, -92863.59, -170903.42, 0.00, 0.00, 0.00
388.0, -163811.69, -170805.81, -163668.92, -163848.05, -170986.19, -170910.64, -93013.56, -170912.94, 0.00, 0.00, 0.00
392.0, -164006.77, -170821.66, -163688.22, -163881.33, -171001.77, -170926.22, -93181.31, -170928.50, 512.00, 400.00, 7760.00
396.0, -164109.66, -170808.16, -163613.44, -163869.31, -170988.56, -170912.97, -93240.30, -170915.00, 0.00, 0.00, 0.00
400.0, -164232.31, -170784.33, -163588.75, -163850.11, -170965.02, -170889.41, -93265.66, -170891.59, 0.00, 0.00, 0.00
404.0, -164581.50, -170791.03, -163636.27, -163834.53, -170970.44, -170894.92, -93407.11, -170896.98, 0.00, 0.00, 0.00
408.0, -164690.38, -170812.63, -163682.58, -163888.03, -170991.36, -170915.83, -93601.86, -170918.02, 0.00, 0.00, 0.00
412.0, -164619.25, -170806.06, -163633.61, -163865.64, -170984.83, -170909.34, -93699.20, -170911.20, 0.00, 0.00, 0.00
416.0, -164499.94, -170782.67, -163570.17, -163838.73, -170961.58, -170886.03, -93737.54, -170887.73, 0.00, 0.00, 0.00
420.0, -164460.36, -170785.47, -163614.30, -163823.89, -170964.28, -170888.78, -93865.41, -170890.55, 0.00, 0.00, 0.00
424.0, -164479.38, -170805.95, -163668.98, -163881.44, -170984.84, -170909.36, -94062.59, -170911.30, 0.00, 0.00, 0.00
428.0, -164427.55, -170803.89, -163639.84, -163868.36, -170983.00, -170907.42, -94178.78, -170909.17, 0.00, 0.00, 0.00
432.0, -164310.38, -170781.41, -163567.98, -163837.75, -170960.44, -170884.88, -94216.82, -170886.44, 512.00, 416.00, 7792.00
436.0, -164253.27, -170777.92, -163600.03, -163814.47, -170956.89, -170881.36, -94323.02, -170882.97, 0.00, 0.00, 0.00
440.0, -164271.92, -170796.72, -163658.70, -163868.13, -170975.75, -170900.16, -94518.98, -170902.13, 0.00, 0.00, 0.00
444.0, -164237.02, -170801.25, -163648.52, -163872.53, -170980.38, -170904.70, -94654.96, -170906.59, 0.00, 0.00, 0.00
448.0, -164121.17, -170779.34, -163572.67, -163837.97, -170958.63, -170882.91, -94694.21, -170884.44, 0.00, 0.00, 0.00
452.0, -164045.34, -170768.53, -163592.09, -163804.75, -170948.58, -170872.84, -94778.39, -170874.44, 0.00, 0.00, 0.00
456.0, -164058.27, -170786.30, -163649.56, -163845.70, -170966.39, -170890.72, -94967.06, -170892.53, 0.00, 0.00, 0.00
460.0, -164033.45, -170794.72, -163658.22, -163868.09, -170977.30, -170901.55, -95121.47, -170903.64, 0.00, 0.00, 0.00
464.0, -163773.78, -170774.19, -163578.83, -163842.11, -170958.72, -170882.86, -95165.97, -170884.91, 0.00, 0.00, 0.00
468.0, -163635.69, -170761.33, -163566.70, -163813.03, -170942.97, -170867.14, -95213.42, -170868.89, 0.00, 0.00, 0.00
472.0, -163817.63, -170775.41, -163609.48, -163818.36, -170956.22, -170880.44, -95369.95, -170882.14, 544.00, 400.00, 7712.00
476.0, -164001.78, -170789.77, -163617.58, -163844.30, -170970.52, -170894.72, -95520.60, -170896.47, 0.00, 0.00, 0.00
480.0, -164090.50, -170773.48, -163557.45, -163835.13, -170954.61, -170878.77, -95558.45, -170880.41, 0.00, 0.00, 0.00
484.0, -164238.59, -170752.09, -163560.53, -163817.06, -170933.33, -170857.44, -95584.28, -170859.17, 0.00, 0.00, 0.00
488.0, -164583.27, -170761.28, -163592.17, -163816.95, -170941.06, -170865.33, -95734.41, -170866.88, 0.00, 0.00, 0.00
492.0, -164655.33, -170778.63, -163630.20, -163863.19, -170958.08, -170882.39, -95919.65, -170884.05, 0.00, 0.00, 0.00
496.0, -164575.08, -170768.64, -163576.13, -163827.94, -170948.23, -170872.48, -95998.73, -170873.84, 0.00, 0.00, 0.00
500.0, -164460.75, -170747.11, -163551.47, -163801.16, -170926.78, -170850.97, -96035.85, -170852.22, 0.00, 0.00, 0.00
504.0, -164433.47, -170752.72, -163597.98, -163796.58, -170932.36, -170856.55, -96174.28, -170857.95, 0.00, 0.00, 0.00
508.0, -164449.69, -170772.28, -163644.88, -163853.88, -170951.88, -170876.11, -96364.52, -170877.69, 0.00, 0.00, 0.00
512.0, -164383.73, -170767.41, -163599.94, -163831.63, -170947.00, -170871.28, -96460.02, -170872.55, 544.00, 432.00, 7728.00
516.0, -164265.61, -170745.47, -163531.09, -163803.95, -170925.13, -170849.39, -96491.45, -170850.33, 0.00, 0.00, 0.00
520.0, -164220.08, -170744.97, -163574.69, -163790.14, -170924.64, -170848.72, -96606.67, -170849.86, 0.00, 0.00, 0.00
524.0, -164239.09, -170764.61, -163631.69, -163846.55, -170944.33, -170868.34, -96798.56, -170869.78, 0.00, 0.00, 0.00
528.0, -164192.83, -170765.58, -163608.06, -163836.89, -170945.38, -170869.45, -96914.73, -170870.67, 0.00, 0.00, 0.00
532.0, -164076.58, -170745.02, -163530.50, -163805.61, -170924.98, -170849.06, -96944.74, -170850.11, 0.00, 0.00, 0.00
536.0, -164013.83, -170737.45, -163563.63, -163787.16, -170918.16, -170842.16, -97036.98, -170843.34, 0.00, 0.00, 0.00
540.0, -164030.48, -170754.48, -163625.06, -163834.73, -170935.19, -170859.23, -97225.15, -170860.66, 0.00, 0.00, 0.00
544.0, -163986.45, -170757.44, -163618.67, -163839.91, -170940.91, -170864.95, -97360.82, -170866.72, 0.00, 0.00, 0.00
548.0, -163704.27, -170735.34, -163536.47, -163803.61, -170919.72, -170843.77, -97393.30, -170845.23, 0.00, 0.00, 0.00
552.0, -163607.19, -170727.11, -163543.17, -163774.00, -170909.05, -170833.14, -97448.93, -170834.25, 528.00, 432.00, 7712.00
556.0, -163800.70, -170743.66, -163588.55, -163791.41, -170925.03, -170849.11, -97610.80, -170850.27, 0.00, 0.00, 0.00
560.0, -163977.88, -170753.89, -163585.84, -163810.50, -170935.23, -170859.25, -97748.24, -170860.44, 0.00, 0.00, 0.00
564.0, -164060.61, -170735.06, -163526.41, -163806.00, -170916.75, -170840.72, -97771.71, -170841.81, 0.00, 0.00, 0.00
568.0, -164251.36, -170714.33, -163532.38, -163773.17, -170895.95, -170820.00, -97803.14, -170821.13, 0.00, 0.00, 0.00
572.0, -164574.81, -170729.80, -163568.70, -163785.64, -170910.17, -170834.13, -97961.70, -170835.19, 0.00, 0.00, 0.00
576.0, -164610.36, -170745.33, -163595.52, -163824.73, -170925.45, -170849.38, -98128.98, -170850.61, 0.00, 0.00, 0.00
580.0, -164517.33, -170732.16, -163532.38, -163792.13, -170912.27, -170836.28, -98189.58, -170837.14, 0.00, 0.00, 0.00
584.0, -164407.00, -170712.92, -163528.64, -163771.81, -170893.19, -170817.02, -98224.58, -170817.88, 0.00, 0.00, 0.00
588.0, -164391.23, -170721.72, -163584.56, -163777.39, -170901.95, -170825.77, -98371.50, -170826.83, 0.00, 0.00, 0.00
592.0, -164403.56, -170740.59, -163627.53, -163829.16, -170920.86, -170844.59, -98554.11, -170845.89, 528.00, 384.00, 7744.00
596.0, -164327.31, -170730.83, -163570.66, -163793.95, -170911.09, -170834.91, -98631.80, -170835.86, 0.00, 0.00, 0.00
600.0, -164214.95, -170710.13, -163486.84, -163757.80, -170890.34, -170814.19, -98663.15, -170814.80, 0.00, 0.00, 0.00
604.0, -164182.52, -170713.08, -163538.09, -163756.09, -170893.41, -170817.19, -98786.99, -170817.88, 0.00, 0.00, 0.00
608.0, -164197.08, -170729.53, -163598.45, -163809.77, -170909.91, -170833.75, -98968.88, -170834.69, 0.00, 0.00, 0.00
612.0, -164136.83, -170726.69, -163559.64, -163792.38, -170907.06, -170830.98, -99064.11, -170831.73, 0.00, 0.00, 0.00
616.0, -164018.03, -170703.98, -163489.39, -163765.33, -170884.94, -170808.72, -99089.15, -170809.28, 0.00, 0.00, 0.00
620.0, -163967.88, -170701.14, -163529.63, -163745.36, -170882.95, -170806.73, -99193.51, -170807.42, 0.00, 0.00, 0.00
624.0, -163988.70, -170720.81, -163588.33, -163800.53, -170902.55, -170826.31, -99381.58, -170827.27, 0.00, 0.00, 0.00
628.0, -163915.22, -170719.58, -163569.03, -163797.31, -170904.77, -170828.55, -99496.80, -170829.64, 0.00, 0.00, 0.00
632.0, -163609.72, -170698.50, -163498.78, -163772.52, -170882.92, -170806.70, -99514.61, -170807.58, 528.00, 400.00, 7744.00
636.0, -163598.64, -170691.42, -163517.56, -163737.61, -170874.23, -170797.94, -99577.78, -170798.66, 0.00, 0.00, 0.00
640.0, -163801.89, -170711.31, -163555.58, -163761.75, -170893.41, -170817.14, -99738.76, -170817.88, 0.00, 0.00, 0.00
644.0, -163964.91, -170715.94, -163539.38, -163767.63, -170898.13, -170821.75, -99854.42, -170822.44, 0.00, 0.00, 0.00
648.0, -164037.77, -170693.05, -163490.36, -163759.47, -170875.64, -170799.22, -99865.00, -170799.94, 0.00, 0.00, 0.00
652.0, -164249.20, -170680.06, -163495.61, -163734.38, -170862.63, -170786.14, -99906.98, -170786.77, 0.00, 0.00, 0.00
656.0, -164563.73, -170696.72, -163534.31, -163756.83, -170877.97, -170801.44, -100072.38, -170802.02, 0.00, 0.00, 0.00
660.0, -164581.25, -170709.70, -163551.95, -163785.83, -170890.69, -170814.19, -100224.19, -170814.91, 0.00, 0.00, 0.00
664.0, -164479.08, -170693.36, -163486.58, -163753.59, -170874.39, -170797.88, -100268.40, -170798.25, 0.00, 0.00, 0.00
668.0, -164377.94, -170674.22, -163493.50, -163723.81, -170855.30, -170778.83, -100308.86, -170779.19, 0.00, 0.00, 0.00
672.0, -164371.91, -170685.33, -163543.44, -163737.47, -170866.23, -170789.83, -100461.61, -170790.44, 528.00, 432.00, 7776.00
676.0, -164374.61, -170704.00, -163574.63, -163781.80, -170884.94, -170808.63, -100627.26, -170809.34, 0.00, 0.00, 0.00
680.0, -164286.56, -170691.55, -163505.13, -163750.63, -170872.64, -170796.25, -100686.47, -170796.63, 0.00, 0.00, 0.00
684.0, -164177.41, -170671.44, -163457.14, -163724.20, -170852.53, -170776.06, -100716.95, -170776.27, 0.00, 0.00, 0.00
688.0, -164157.16, -170677.25, -163528.23, -163727.02, -170858.38, -170781.88, -100851.31, -170782.30, 0.00, 0.00, 0.00
692.0, -164170.36, -170697.70, -163576.83, -163779.14, -170878.83, -170802.34, -101027.20, -170802.91, 0.00, 0.00, 0.00
696.0, -164098.17, -170692.58, -163524.03, -163754.38, -170873.63, -170797.20, -101104.42, -170797.42, 0.00, 0.00, 0.00
700.0, -163982.83, -170669.89, -163446.03, -163724.47, -170851.23, -170774.81, -101127.02, -170774.83, 0.00, 0.00, 0.00
704.0, -163943.92, -170670.98, -163499.89, -163718.97, -170852.97, -170776.48, -101238.89, -170776.73, 0.00, 0.00, 0.00
708.0, -163961.08, -170689.14, -163560.27, -163772.36, -170871.39, -170794.88, -101420.19, -170795.47, 0.00, 0.00, 0.00
712.0, -163858.42, -170685.58, -163527.06, -163757.14, -170871.34, -170794.86, -101515.20, -170795.66, 512.00, 432.00, 7712.00
716.0, -163555.42, -170661.75, -163460.89, -163731.16, -170846.45, -170769.89, -101524.28, -170770.36, 0.00, 0.00, 0.00
720.0, -163593.17, -170658.63, -163497.50, -163702.06, -170841.84, -170765.28, -101598.20, -170765.52, 0.00, 0.00, 0.00
724.0, -163799.30, -170678.92, -163538.88, -163733.89, -170861.56, -170785.03, -101760.83, -170785.41, 0.00, 0.00, 0.00
728.0, -163949.44, -170679.39, -163508.97, -163734.91, -170862.16, -170785.56, -101857.92, -170785.89, 0.00, 0.00, 0.00
732.0, -164021.98, -170655.05, -163451.13, -163729.34, -170838.38, -170761.73, -101855.58, -170762.09, 0.00, 0.00, 0.00
736.0, -164275.95, -170645.30, -163471.48, -163702.38, -170828.28, -170751.56, -101905.34, -170751.88, 0.00, 0.00, 0.00
740.0, -164545.36, -170664.23, -163518.06, -163735.89, -170845.80, -170769.13, -102072.34, -170769.38, 0.00, 0.00, 0.00
744.0, -164536.23, -170673.53, -163522.66, -163751.16, -170854.94, -170778.39, -102206.84, -170778.52, 0.00, 0.00, 0.00
748.0, -164427.39, -170653.69, -163447.58, -163713.48, -170835.16, -170758.63, -102236.97, -170758.42, 0.00, 0.00, 0.00
752.0, -164337.75, -170638.69, -163469.95, -163690.41, -170820.23, -170743.66, -102286.41, -170743.42, 0.00, 0.00, 0.00
756.0, -164341.47, -170652.86, -163536.23, -163717.27, -170834.36, -170757.73, -102445.33, -170757.84, 528.00, 448.00, 7728.00
760.0, -164335.05, -170667.44, -163558.86, -163751.00, -170848.91, -170772.33, -102595.38, -170772.50, 0.00, 0.00, 0.00
764.0, -164237.50, -170654.42, -163477.56, -163715.30, -170836.03, -170759.44, -102639.45, -170759.28, 0.00, 0.00, 0.00
768.0, -164137.86, -170636.47, -163392.50, -163669.25, -170818.16, -170741.48, -102677.36, -170740.86, 0.00, 0.00, 0.00
772.0, -164131.58, -170649.02, -163412.13, -163685.94, -170830.78, -170754.00, -102822.80, -170753.44, 0.00, 0.00, 0.00
776.0, -164138.48, -170663.09, -163447.38, -163733.78, -170844.91, -170768.13, -102985.81, -170767.83, 0.00, 0.00, 0.00
780.0, -164051.89, -170651.56, -163425.63, -163711.75, -170833.45, -170756.69, -103040.47, -170756.34, 0.00, 0.00, 0.00
784.0, -163935.98, -170630.50, -163439.80, -163686.72, -170812.72, -170735.97, -103059.06, -170735.72, 0.00, 0.00, 0.00
788.0, -163913.22, -170636.94, -163462.59, -163681.66, -170819.52, -170742.83, -103186.40, -170742.59, 0.00, 0.00, 0.00
792.0, -163928.34, -170655.14, -163506.11, -163736.06, -170838.11, -170761.38, -103358.06, -170761.48, 0.00, 0.00, 0.00
796.0, -163802.14, -170644.47, -163461.75, -163712.59, -170831.05, -170754.27, -103432.27, -170754.52, 592.00, 464.00, 7760.00
800.0, -163500.86, -170623.91, -163422.03, -163695.39, -170808.92, -170732.14, -103433.43, -170732.14, 0.00, 0.00, 0.00
804.0, -163567.09, -170625.30, -163447.84, -163667.05, -170809.14, -170732.31, -103517.92, -170732.03, 0.00, 0.00, 0.00
808.0, -163773.42, -170644.75, -163481.45, -163702.69, -170827.92, -170751.19, -103675.68, -170751.03, 0.00, 0.00, 0.00
812.0, -163909.61, -170644.44, -163444.33, -163694.61, -170827.88, -170751.09, -103752.95, -170750.73, 0.00, 0.00, 0.00
816.0, -163981.00, -170619.89, -163416.23, -163687.50, -170803.80, -170727.02, -103744.21, -170726.80, 0.00, 0.00, 0.00
820.0, -164261.84, -170612.64, -163427.77, -163666.59, -170796.17, -170719.28, -103811.27, -170718.89, 0.00, 0.00, 0.00
824.0, -164513.55, -170632.36, -163472.81, -163707.69, -170814.64, -170737.73, -103982.32, -170737.45, 0.00, 0.00, 0.00
828.0, -164488.09, -170637.09, -163464.16, -163711.09, -170819.25, -170742.31, -104096.02, -170742.05, 0.00, 0.00, 0.00
832.0, -164369.98, -170616.05, -163412.77, -163681.19, -170798.39, -170721.45, -104111.02, -170720.88, 0.00, 0.00, 0.00
836.0, -164290.55, -170605.31, -163438.61, -163645.50, -170787.70, -170710.84, -104170.52, -170710.19, 528.00, 432.00, 7760.00
840.0, -164302.33, -170620.83, -163487.72, -163683.45, -170803.11, -170726.23, -104336.82, -170725.84, 0.00, 0.00, 0.00
844.0, -164285.36, -170632.41, -163497.47, -163706.98, -170814.73, -170737.81, -104470.42, -170737.48, 0.00, 0.00, 0.00
848.0, -164180.47, -170616.48, -163414.33, -163674.91, -170798.84, -170722.03, -104500.77, -170721.20, 0.00, 0.00, 0.00
852.0, -164087.55, -170601.72, -163400.34, -163649.94, -170784.13, -170707.17, -104542.77, -170706.34, 0.00, 0.00, 0.00
856.0, -164088.11, -170615.64, -163468.22, -163670.59, -170798.13, -170721.08, -104693.22, -170720.55, 0.00, 0.00, 0.00
860.0, -164085.72, -170628.50, -163494.00, -163707.66, -170811.02, -170734.00, -104842.48, -170733.66, 0.00, 0.00, 0.00
864.0, -163989.92, -170613.75, -163424.03, -163674.27, -170796.47, -170719.36, -104883.14, -170718.73, 0.00, 0.00, 0.00
868.0, -163882.42, -170591.95, -163405.03, -163645.83, -170775.25, -170698.17, -104909.18, -170697.50, 0.00, 0.00, 0.00
872.0, -163869.13, -170602.05, -163452.63, -163651.88, -170785.83, -170708.67, -105044.75, -170708.30, 0.00, 0.00, 0.00
876.0, -163878.20, -170619.27, -163491.22, -163701.38, -170804.02, -170726.89, -105205.79, -170726.78, 544.00, 448.00, 7712.00
880.0, -163705.20, -170607.89, -163435.30, -163675.94, -170796.06, -170719.02, -105262.01, -170718.91, 0.00, 0.00, 0.00
884.0, -163443.84, -170586.55, -163396.61, -163651.67, -170771.75, -170694.70, -105261.89, -170694.13, 0.00, 0.00, 0.00
888.0, -163561.09, -170590.44, -163428.06, -163626.59, -170775.02, -170697.89, -105355.93, -170697.27, 0.00, 0.00, 0.00
892.0, -163766.64, -170610.69, -163457.83, -163664.39, -170794.84, -170717.72, -105505.70, -170717.13, 0.00, 0.00, 0.00
896.0, -163889.16, -170604.06, -163405.95, -163658.80, -170788.38, -170711.27, -105561.77, -170710.48, 0.00, 0.00, 0.00
900.0, -163968.34, -170580.73, -163378.66, -163651.39, -170765.41, -170688.23, -105547.59, -170687.66, 0.00, 0.00, 0.00
904.0, -164283.64, -170577.80, -163402.44, -163624.58, -170761.78, -170684.55, -105626.59, -170683.77, 0.00, 0.00, 0.00
908.0, -164483.55, -170596.53, -163451.27, -163672.05, -170779.44, -170702.33, -105796.62, -170701.58, 0.00, 0.00, 0.00
912.0, -164441.38, -170596.98, -163430.66, -163665.22, -170779.81, -170702.77, -105895.30, -170701.92, 0.00, 0.00, 0.00
916.0, -164322.47, -170574.41, -163369.39, -163638.14, -170757.36, -170680.19, -105906.12, -170679.14, 528.00, 400.00, 7712.00
920.0, -164255.59, -170567.03, -163397.84, -163609.00, -170749.97, -170672.86, -105974.34, -170671.83, 0.00, 0.00, 0.00
924.0, -164270.61, -170585.92, -163449.94, -163654.92, -170768.94, -170691.70, -106139.58, -170690.97, 0.00, 0.00, 0.00
928.0, -164240.92, -170593.47, -163443.89, -163663.83, -170776.52, -170699.33, -106255.97, -170698.50, 0.00, 0.00, 0.00
932.0, -164127.36, -170573.98, -163373.92, -163639.81, -170757.02, -170679.88, -106271.74, -170678.78, 0.00, 0.00, 0.00
936.0, -164043.56, -170561.23, -163390.16, -163609.00, -170744.36, -170667.20, -106320.34, -170665.94, 0.00, 0.00, 0.00
940.0, -164052.13, -170576.84, -163441.58, -163640.45, -170759.97, -170682.83, -106478.07, -170681.80, 0.00, 0.00, 0.00
944.0, -164041.06, -170587.72, -163456.83, -163667.27, -170770.92, -170693.77, -106613.93, -170692.89, 0.00, 0.00, 0.00
948.0, -163938.23, -170572.23, -163381.77, -163635.59, -170755.72, -170678.39, -106640.05, -170677.25, 0.00, 0.00, 0.00
952.0, -163840.38, -170555.03, -163375.53, -163606.09, -170739.09, -170661.80, -106669.83, -170660.61, 0.00, 0.00, 0.00
956.0, -163837.70, -170566.52, -163429.83, -163620.48, -170750.92, -170673.58, -106813.55, -170672.59, 608.00, 416.00, 7728.00
960.0, -163835.08, -170578.72, -163456.53, -163660.88, -170764.45, -170687.17, -106960.58, -170686.39, 0.00, 0.00, 0.00
964.0, -163624.13, -170562.27, -163387.11, -163635.58, -170750.72, -170673.48, -106997.26, -170672.64, 0.00, 0.00, 0.00
968.0, -163404.75, -170545.39, -163351.58, -163612.63, -170731.27, -170654.05, -106999.18, -170652.92, 0.00, 0.00, 0.00
972.0, -163551.59, -170552.28, -163388.30, -163595.66, -170737.58, -170660.30, -107105.84, -170659.16, 0.00, 0.00, 0.00
976.0, -163755.69, -170568.28, -163413.27, -163631.58, -170753.17, -170675.91, -107249.88, -170674.86, 0.00, 0.00, 0.00
980.0, -163869.00, -170560.55, -163357.88, -163620.33, -170745.66, -170668.28, -107288.50, -170667.13, 0.00, 0.00, 0.00
984.0, -163973.28, -170536.34, -163347.34, -163605.98, -170721.77, -170644.44, -107270.82, -170643.36, 0.00, 0.00, 0.00
988.0, -164313.14, -170538.17, -163375.69, -163581.86, -170722.53, -170645.23, -107363.23, -170643.88, 0.00, 0.00, 0.00
992.0, -164439.23, -170561.50, -163419.28, -163631.70, -170745.13, -170667.77, -107526.88, -170666.56, 0.00, 0.00, 0.00
996.0, -164378.72, -170558.75, -163382.22, -163620.00, -170742.48, -170665.06, -107603.04, -170663.63, 544.00, 432.00, 7760.00
1000.0, -164257.42, -170537.36, -163326.63, -163601.48, -170721.23, -170643.77, -107604.98, -170642.23, 0.00, 0.00, 0.00
1004.0, -164204.88, -170535.63, -163364.77, -163580.95, -170719.42, -170642.05, -107684.73, -170640.50, 0.00, 0.00, 0.00
1008.0, -164224.27, -170553.14, -163418.94, -163633.00, -170736.95, -170659.50, -107852.59, -170658.25, 0.00, 0.00, 0.00
1012.0, -164183.14, -170554.56, -163401.11, -163629.09, -170738.52, -170661.11, -107950.74, -170659.67, 0.00, 0.00, 0.00
1016.0, -164065.06, -170534.47, -163330.00, -163598.14, -170718.45, -170640.97, -107956.04, -170639.41, 0.00, 0.00, 0.00
1020.0, -163993.77, -170525.61, -163359.08, -163568.92, -170709.67, -170632.14, -108014.16, -170630.44, 0.00, 0.00, 0.00
1024.0, -164005.77, -170542.91, -163414.17, -163610.00, -170727.06, -170649.55, -108171.60, -170648.09, 0.00, 0.00, 0.00
1028.0, -163981.02, -170550.42, -163414.20, -163624.33, -170734.39, -170656.92, -108285.44, -170655.61, 0.00, 0.00, 0.00
1032.0, -163871.56, -170529.20, -163328.02, -163594.00, -170713.41, -170635.84, -108297.98, -170634.31, 0.00, 0.00, 0.00
1036.0, -163784.50, -170515.28, -163327.28, -163571.05, -170700.89, -170623.38, -108337.18, -170621.83, 592.00, 448.00, 7760.00
1040.0, -163790.58, -170531.20, -163393.45, -163601.31, -170717.05, -170639.58, -108485.41, -170638.28, 0.00, 0.00, 0.00
1044.0, -163773.22, -170540.47, -163412.55, -163630.50, -170728.45, -170650.91, -108619.80, -170649.91, 0.00, 0.00, 0.00
1048.0, -163512.06, -170521.78, -163336.42, -163595.30, -170710.92, -170633.34, -108640.49, -170632.16, 0.00, 0.00, 0.00
1052.0, -163372.38, -170507.75, -163316.13, -163572.78, -170694.28, -170616.56, -108644.77, -170615.08, 0.00, 0.00, 0.00
1056.0, -163545.14, -170518.08, -163350.56, -163570.97, -170703.89, -170626.23, -108755.85, -170624.81, 0.00, 0.00, 0.00
1060.0, -163737.94, -170535.13, -163365.67, -163598.31, -170720.72, -170643.19, -108882.59, -170641.70, 0.00, 0.00, 0.00
1064.0, -163838.27, -170520.83, -163306.31, -163577.91, -170706.84, -170629.28, -108903.15, -170627.48, 0.00, 0.00, 0.00
1068.0, -163956.88, -170495.95, -163312.05, -163562.11, -170682.34, -170604.73, -108889.11, -170603.08, 0.00, 0.00, 0.00
1072.0, -164307.42, -170502.20, -163347.75, -163551.02, -170687.34, -170609.72, -108993.74, -170607.94, 0.00, 0.00, 0.00
1076.0, -164414.59, -170521.81, -163389.95, -163600.77, -170706.33, -170628.66, -109151.97, -170627.16, 576.00, 448.00, 7792.00
1080.0, -164343.81, -170515.23, -163340.19, -163579.09, -170699.73, -170621.97, -109210.64, -170620.27, 0.00, 0.00, 0.00
1084.0, -164224.11, -170492.48, -163289.34, -163556.06, -170677.13, -170599.39, -109210.38, -170597.47, 0.00, 0.00, 0.00
1088.0, -164182.52, -170491.84, -163327.59, -163538.98, -170676.66, -170598.81, -109302.53, -170597.05, 0.00, 0.00, 0.00
1092.0, -164198.56, -170512.27, -163377.03, -163593.58, -170696.98, -170619.16, -109463.91, -170617.61, 0.00, 0.00, 0.00
1096.0, -164143.50, -170510.98, -163344.52, -163580.28, -170695.73, -170617.83, -109541.20, -170616.16, 0.00, 0.00, 0.00
1100.0, -164023.67, -170490.36, -163292.11, -163559.64, -170675.25, -170597.31, -109540.71, -170595.42, 0.00, 0.00, 0.00
1104.0, -163966.69, -170484.89, -163330.45, -163536.98, -170669.84, -170591.97, -109614.34, -170590.11, 0.00, 0.00, 0.00
1108.0, -163983.80, -170504.13, -163383.02, -163585.64, -170688.95, -170611.28, -109777.51, -170609.56, 0.00, 0.00, 0.00
1112.0, -163947.30, -170509.47, -163369.77, -163587.06, -170694.36, -170616.61, -109877.73, -170614.80, 0.00, 0.00, 0.00
1116.0, -163831.89, -170488.47, -163285.45, -163552.94, -170673.63, -170595.80, -109882.11, -170593.67, 560.00, 400.00, 7776.00
1120.0, -163754.33, -170476.95, -163298.64, -163529.52, -170662.98, -170585.13, -109930.66, -170583.14, 0.00, 0.00, 0.00
1124.0, -163765.23, -170493.64, -163357.70, -163568.55, -170679.84, -170601.92, -110084.15, -170600.27, 0.00, 0.00, 0.00
1128.0, -163733.03, -170501.73, -163363.38, -163586.38, -170690.67, -170612.80, -110200.71, -170611.47, 0.00, 0.00, 0.00
1132.0, -163454.50, -170482.69, -163292.05, -163556.67, -170672.64, -170594.81, -110206.57, -170593.27, 0.00, 0.00, 0.00
1136.0, -163348.13, -170468.70, -163284.83, -163522.55, -170655.97, -170578.06, -110219.87, -170576.17, 0.00, 0.00, 0.00
1140.0, -163535.22, -170483.03, -163314.69, -163527.66, -170669.78, -170591.80, -110342.22, -170589.94, 0.00, 0.00, 0.00
1144.0, -163718.86, -170497.45, -163319.91, -163551.22, -170684.11, -170606.03, -110458.41, -170604.09, 0.00, 0.00, 0.00
1148.0, -163806.45, -170479.20, -163267.69, -163537.98, -170666.22, -170588.11, -110462.32, -170586.14, 0.00, 0.00, 0.00
1152.0, -163945.03, -170461.03, -163288.16, -163527.66, -170648.34, -170570.22, -110451.37, -170568.44, 0.00, 0.00, 0.00
1156.0, -164296.25, -170470.45, -163323.78, -163531.39, -170656.41, -170578.27, -110564.80, -170576.38, 0.00, 0.00, 0.00
1160.0, -164372.05, -170487.64, -163357.97, -163572.34, -170673.05, -170595.03, -110712.79, -170593.17, 576.00, 416.00, 7744.00
1164.0, -164288.16, -170478.25, -163296.61, -163543.06, -170663.75, -170585.53, -110757.13, -170583.39, 0.00, 0.00, 0.00
1168.0, -164175.55, -170456.08, -163258.50, -163517.36, -170641.61, -170563.39, -110759.66, -170561.17, 0.00, 0.00, 0.00
1172.0, -164148.23, -170460.50, -163308.64, -163507.00, -170646.00, -170567.92, -110864.18, -170565.73, 0.00, 0.00, 0.00
1176.0, -164161.91, -170477.78, -163353.45, -163561.25, -170663.28, -170585.09, -111020.24, -170583.23, 0.00, 0.00, 0.00
1180.0, -164094.70, -170470.77, -163307.89, -163539.19, -170656.25, -170578.11, -111080.03, -170576.03, 0.00, 0.00, 0.00
1184.0, -163974.00, -170450.11, -163248.58, -163516.13, -170635.80, -170557.58, -111075.00, -170555.27, 0.00, 0.00, 0.00
1188.0, -163929.36, -170450.38, -163280.78, -163501.55, -170636.11, -170557.80, -111158.04, -170555.63, 0.00, 0.00, 0.00
1192.0, -163946.59, -170468.28, -163331.03, -163554.86, -170654.09, -170575.75, -111316.27, -170573.91, 0.00, 0.00, 0.00
1196.0, -163897.42, -170467.92, -163304.88, -163543.08, -170653.64, -170575.39, -111398.43, -170573.33, 0.00, 0.00, 0.00
1200.0, -163780.14, -170446.44, -163240.75, -163512.22, -170632.45, -170554.22, -111397.98, -170551.92, 512.00, 400.00, 7744.00
1204.0, -163717.73, -170440.88, -163282.11, -163489.17, -170627.56, -170549.45, -111457.46, -170547.25, 0.00, 0.00, 0.00
1208.0, -163733.70, -170460.13, -163339.09, -163535.28, -170647.00, -170568.88, -111611.13, -170566.84, 0.00, 0.00, 0.00
1212.0, -163681.84, -170463.42, -163330.38, -163541.83, -170653.38, -170575.19, -111709.90, -170573.42, 0.00, 0.00, 0.00
1216.0, -163384.30, -170441.75, -163248.44, -163518.73, -170631.89, -170553.66, -111705.16, -170551.72, 0.00, 0.00, 0.00
1220.0, -163318.11, -170430.55, -163258.77, -163483.72, -170618.53, -170540.25, -111727.63, -170538.00, 0.00, 0.00, 0.00
1224.0, -163513.48, -170447.84, -163301.09, -163499.56, -170635.25, -170557.02, -111855.21, -170554.72, 0.00, 0.00, 0.00
1228.0, -163687.42, -170457.84, -163294.27, -163516.66, -170645.30, -170566.95, -111956.13, -170564.69, 0.00, 0.00, 0.00
1232.0, -163769.19, -170438.17, -163234.25, -163510.73, -170625.98, -170547.63, -111947.44, -170545.34, 0.00, 0.00, 0.00
1236.0, -163945.41, -170422.23, -163250.08, -163491.09, -170610.19, -170531.83, -111946.27, -170529.55, 0.00, 0.00, 0.00
1240.0, -164282.61, -170434.92, -163288.70, -163500.95, -170621.50, -170543.11, -112069.90, -170540.77, 528.00, 400.00, 7712.00
1244.0, -164325.75, -170450.16, -163313.70, -163535.61, -170636.23, -170557.86, -112203.41, -170555.73, 0.00, 0.00, 0.00
1248.0, -164230.11, -170435.63, -163245.17, -163500.69, -170621.75, -170543.38, -112227.86, -170540.88, 0.00, 0.00, 0.00
1252.0, -164120.63, -170417.30, -163227.66, -163474.55, -170603.59, -170525.23, -112233.29, -170522.69, 0.00, 0.00, 0.00
1256.0, -164104.78, -170425.16, -163276.73, -163475.58, -170611.53, -170533.09, -112349.25, -170530.64, 0.00, 0.00, 0.00
1260.0, -164114.33, -170442.27, -163315.27, -163525.58, -170628.66, -170550.33, -112496.04, -170548.00, 0.00, 0.00, 0.00
1264.0, -164036.78, -170432.16, -163259.53, -163497.80, -170618.55, -170540.20, -112540.90, -170537.66, 0.00, 0.00, 0.00
1268.0, -163920.20, -170411.59, -163223.31, -163477.08, -170598.14, -170519.58, -112535.53, -170517.03, 0.00, 0.00, 0.00
1272.0, -163887.28, -170413.06, -163277.50, -163465.98, -170599.61, -170521.03, -112628.70, -170518.64, 0.00, 0.00, 0.00
1276.0, -163901.72, -170432.52, -163325.13, -163518.47, -170619.06, -170540.55, -112781.58, -170538.39, 0.00, 0.00, 0.00
1280.0, -163837.81, -170427.64, -163281.44, -163497.89, -170614.25, -170535.80, -112842.20, -170533.44, 512.00, 368.00, 7744.00
1284.0, -163719.23, -170406.03, -163204.52, -163474.97, -170593.14, -170514.75, -112835.65, -170512.00, 0.00, 0.00, 0.00
1288.0, -163669.08, -170402.58, -163237.72, -163458.25, -170590.59, -170512.09, -112909.99, -170509.70, 0.00, 0.00, 0.00
1292.0, -163686.00, -170420.95, -163293.50, -163509.28, -170609.03, -170530.55, -113066.32, -170528.47, 0.00, 0.00, 0.00
1296.0, -163607.14, -170418.75, -163272.64, -163501.22, -170610.56, -170532.05, -113149.96, -170530.02, 0.00, 0.00, 0.00
1300.0, -163301.08, -170397.83, -163201.64, -163470.19, -170588.31, -170509.77, -113134.67, -170507.28, 0.00, 0.00, 0.00
1304.0, -163299.66, -170389.91, -163204.20, -163441.03, -170578.89, -170500.38, -113168.31, -170497.64, 0.00, 0.00, 0.00
1308.0, -163501.64, -170407.44, -163237.02, -163465.59, -170595.80, -170517.30, -113299.80, -170514.72, 0.00, 0.00, 0.00
1312.0, -163659.78, -170414.95, -163221.08, -163470.97, -170603.38, -170524.73, -113383.20, -170522.13, 0.00, 0.00, 0.00
1316.0, -163729.23, -170392.89, -163197.28, -163462.28, -170581.63, -170502.97, -113359.91, -170500.44, 0.00, 0.00, 0.00
1320.0, -163936.34, -170379.47, -163206.91, -163433.98, -170568.30, -170489.53, -113371.66, -170486.94, 528.00, 400.00, 7760.00
1324.0, -164260.27, -170396.13, -163241.47, -163455.98, -170583.55, -170504.83, -113506.54, -170502.25, 0.00, 0.00, 0.00
1328.0, -164281.42, -170408.70, -163256.44, -163483.22, -170595.86, -170517.20, -113628.35, -170514.59, 0.00, 0.00, 0.00
1332.0, -164177.61, -170391.23, -163188.03, -163455.86, -170578.47, -170499.81, -113640.04, -170496.80, 0.00, 0.00, 0.00
1336.0, -164076.08, -170370.83, -163192.14, -163426.58, -170558.05, -170479.39, -113650.66, -170476.48, 0.00, 0.00, 0.00
1340.0, -164070.16, -170381.52, -163242.16, -163439.06, -170568.84, -170490.11, -113776.41, -170487.41, 0.00, 0.00, 0.00
1344.0, -164069.48, -170398.86, -163270.08, -163478.44, -170586.30, -170507.50, -113911.44, -170504.84, 0.00, 0.00, 0.00
1348.0, -163978.45, -170388.95, -163204.39, -163454.64, -170576.38, -170497.63, -113937.68, -170494.67, 0.00, 0.00, 0.00
1352.0, -163866.59, -170367.22, -163173.11, -163428.48, -170554.88, -170475.92, -113935.73, -170472.97, 0.00, 0.00, 0.00
1356.0, -163847.89, -170374.73, -163212.48, -163424.38, -170562.41, -170483.48, -114043.27, -170480.64, 0.00, 0.00, 0.00
1360.0, -163860.28, -170394.16, -163254.34, -163476.88, -170581.67, -170502.97, -114188.94, -170500.27, 544.00, 416.00, 7728.00
1364.0, -163785.59, -170385.23, -163205.48, -163450.80, -170572.80, -170494.03, -114233.64, -170491.20, 0.00, 0.00, 0.00
1368.0, -163666.78, -170363.30, -163172.73, -163428.84, -170551.52, -170472.61, -114224.32, -170469.81, 0.00, 0.00, 0.00
1372.0, -163629.84, -170364.31, -163205.97, -163413.22, -170553.61, -170474.63, -114309.21, -170471.88, 0.00, 0.00, 0.00
1376.0, -163644.36, -170383.75, -163251.25, -163465.92, -170573.55, -170494.61, -114455.14, -170492.16, 0.00, 0.00, 0.00
1380.0, -163528.31, -170377.48, -163215.30, -163451.11, -170571.31, -170492.38, -114516.09, -170490.09, 0.00, 0.00, 0.00
1384.0, -163228.09, -170358.28, -163158.16, -163436.03, -170549.23, -170470.25, -114493.84, -170467.61, 0.00, 0.00, 0.00
1388.0, -163283.05, -170354.66, -163186.34, -163406.20, -170544.50, -170465.47, -114538.65, -170462.63, 0.00, 0.00, 0.00
1392.0, -163490.42, -170372.02, -163223.41, -163436.80, -170561.22, -170482.27, -114670.41, -170479.56, 0.00, 0.00, 0.00
1396.0, -163638.92, -170371.47, -163191.69, -163432.16, -170560.88, -170481.83, -114735.55, -170478.97, 0.00, 0.00, 0.00
1400.0, -163708.08, -170348.67, -163146.41, -163420.28, -170538.69, -170459.47, -114705.10, -170456.67, 592.00, 416.00, 7744.00
1404.0, -163958.17, -170337.56, -163176.69, -163389.38, -170527.28, -170448.16, -114728.93, -170445.17, 0.00, 0.00, 0.00
1408.0, -164237.02, -170358.78, -163220.56, -163420.06, -170547.22, -170468.03, -114867.33, -170465.02, 0.00, 0.00, 0.00
1412.0, -164228.13, -170366.20, -163221.31, -163434.91, -170554.36, -170475.30, -114970.89, -170472.23, 0.00, 0.00, 0.00
1416.0, -164116.67, -170344.58, -163146.34, -163411.25, -170532.81, -170453.72, -114970.48, -170450.34, 0.00, 0.00, 0.00
1420.0, -164025.91, -170331.50, -163162.97, -163386.91, -170519.78, -170440.78, -114991.54, -170437.50, 0.00, 0.00, 0.00
1424.0, -164030.22, -170347.48, -163222.30, -163412.17, -170535.69, -170456.67, -115124.34, -170453.64, 0.00, 0.00, 0.00
1428.0, -164021.81, -170360.52, -163240.66, -163443.55, -170548.66, -170469.70, -115241.92, -170466.67, 0.00, 0.00, 0.00
1432.0, -163922.45, -170346.64, -163160.55, -163412.80, -170535.05, -170455.89, -115251.83, -170452.61, 0.00, 0.00, 0.00
1436.0, -163820.00, -170327.55, -163131.31, -163380.20, -170516.11, -170436.94, -115256.09, -170433.55, 0.00, 0.00, 0.00
1440.0, -163809.20, -170339.38, -163191.95, -163390.78, -170527.94, -170448.72, -115369.38, -170445.55, 528.00, 400.00, 7744.00
1444.0, -163813.53, -170356.47, -163225.27, -163434.31, -170545.02, -170465.80, -115503.24, -170462.75, 0.00, 0.00, 0.00
1448.0, -163727.84, -170342.06, -163161.56, -163406.80, -170530.73, -170451.53, -115532.19, -170448.23, 0.00, 0.00, 0.00
1452.0, -163613.69, -170320.48, -163126.73, -163384.50, -170510.03, -170430.84, -115525.39, -170427.47, 0.00, 0.00, 0.00
1456.0, -163590.78, -170327.08, -163174.50, -163379.20, -170517.47, -170438.30, -115623.80, -170435.11, 0.00, 0.00, 0.00
1460.0, -163604.13, -170345.36, -163217.03, -163431.41, -170536.41, -170457.17, -115766.63, -170454.39, 0.00, 0.00, 0.00
1464.0, -163432.98, -170335.19, -163168.05, -163409.28, -170529.28, -170450.06, -115811.47, -170447.36, 0.00, 0.00, 0.00
1468.0, -163176.17, -170315.45, -163115.27, -163390.27, -170506.91, -170427.70, -115785.81, -170424.53, 0.00, 0.00, 0.00
1472.0, -163285.77, -170315.92, -163135.59, -163357.55, -170506.72, -170427.52, -115843.30, -170424.06, 0.00, 0.00, 0.00
1476.0, -163492.44, -170333.31, -163166.67, -163392.36, -170523.55, -170444.41, -115970.99, -170441.05, 0.00, 0.00, 0.00
1480.0, -163626.14, -170329.00, -163128.09, -163386.91, -170519.38, -170440.20, -116016.52, -170436.78, 528.00, 368.00, 7744.00
1484.0, -163702.52, -170304.70, -163114.16, -163380.30, -170495.64, -170416.31, -115976.65, -170413.03, 0.00, 0.00, 0.00
1488.0, -164002.92, -170300.44, -163146.14, -163358.84, -170490.73, -170411.34, -116016.19, -170408.02, 0.00, 0.00, 0.00
1492.0, -164211.84, -170319.66, -163192.36, -163398.53, -170508.80, -170429.30, -116159.51, -170426.14, 0.00, 0.00, 0.00
1496.0, -164179.86, -170323.58, -163179.73, -163400.67, -170512.67, -170433.20, -116245.48, -170429.86, 0.00, 0.00, 0.00
1500.0, -164062.17, -170303.41, -163107.95, -163376.27, -170492.64, -170413.14, -116234.45, -170409.63, 0.00, 0.00, 0.00
1504.0, -163980.86, -170291.28, -163128.23, -163344.06, -170480.73, -170401.06, -116267.36, -170397.64, 0.00, 0.00, 0.00
1508.0, -163990.50, -170308.38, -163180.52, -163379.02, -170497.89, -170418.28, -116406.14, -170415.02, 0.00, 0.00, 0.00
1512.0, -163971.09, -170320.11, -163185.81, -163398.38, -170509.61, -170430.02, -116512.30, -170426.77, 0.00, 0.00, 0.00
1516.0, -163863.19, -170302.16, -163111.77, -163374.28, -170491.70, -170412.08, -116512.69, -170408.63, 0.00, 0.00, 0.00
1520.0, -163769.86, -170287.42, -163119.45, -163349.05, -170476.91, -170397.44, -116526.59, -170393.83, 544.00, 368.00, 7728.00
1524.0, -163770.69, -170300.19, -163172.63, -163369.75, -170489.84, -170410.30, -116652.21, -170406.86, 0.00, 0.00, 0.00
1528.0, -163765.59, -170312.59, -163196.05, -163403.94, -170502.31, -170422.81, -116774.70, -170419.44, 0.00, 0.00, 0.00
1532.0, -163669.25, -170297.78, -163121.38, -163366.61, -170487.61, -170408.16, -116788.46, -170404.42, 0.00, 0.00, 0.00
1536.0, -163561.98, -170279.11, -163094.02, -163341.27, -170469.89, -170390.53, -116784.89, -170386.88, 0.00, 0.00, 0.00
1540.0, -163548.47, -170288.56, -163150.88, -163345.77, -170480.23, -170400.78, -116891.95, -170397.38, 0.00, 0.00, 0.00
1544.0, -163551.67, -170304.22, -163186.77, -163392.52, -170497.41, -170417.88, -117027.00, -170414.91, 0.00, 0.00, 0.00
1548.0, -163342.97, -170291.16, -163124.34, -163368.63, -170487.02, -170407.44, -117055.34, -170404.44, 0.00, 0.00, 0.00
1552.0, -163126.72, -170273.33, -163083.73, -163353.20, -170465.69, -170385.98, -117029.91, -170382.58, 0.00, 0.00, 0.00
1556.0, -163263.59, -170275.92, -163126.63, -163327.52, -170467.67, -170388.02, -117099.49, -170384.50, 0.00, 0.00, 0.00
1560.0, -163468.45, -170294.30, -163155.86, -163362.88, -170485.73, -170406.08, -117224.55, -170402.70, 528.00, 368.00, 7776.00
1564.0, -163590.92, -170287.11, -163103.25, -163350.09, -170478.81, -170399.13, -117253.96, -170395.64, 0.00, 0.00, 0.00
1568.0, -163678.53, -170261.66, -163076.67, -163336.89, -170453.75, -170373.94, -117211.90, -170370.64, 0.00, 0.00, 0.00
1572.0, -164005.00, -170261.41, -163099.59, -163308.80, -170452.55, -170372.66, -117266.68, -170369.11, 0.00, 0.00, 0.00
1576.0, -164172.42, -170281.58, -163145.83, -163355.97, -170471.92, -170392.06, -117408.28, -170388.55, 0.00, 0.00, 0.00
1580.0, -164124.08, -170282.31, -163120.83, -163349.73, -170472.72, -170392.86, -117478.10, -170389.16, 0.00, 0.00, 0.00
1584.0, -164004.88, -170261.39, -163061.61, -163333.47, -170451.98, -170372.14, -117462.46, -170368.28, 0.00, 0.00, 0.00
1588.0, -163940.11, -170256.45, -163081.42, -163306.59, -170446.95, -170367.14, -117509.13, -170363.34, 0.00, 0.00, 0.00
1592.0, -163955.34, -170275.42, -163130.30, -163351.30, -170465.89, -170386.06, -117651.30, -170382.45, 0.00, 0.00, 0.00
1596.0, -163923.42, -170281.03, -163122.05, -163358.14, -170471.52, -170391.72, -117740.80, -170388.08, 0.00, 0.00, 0.00
1600.0, -163806.25, -170259.13, -163062.47, -163330.58, -170449.72, -170369.91, -117727.51, -170366.13, 0.00, 0.00, 0.00
1604.0, -163721.92, -170248.73, -163094.13, -163298.78, -170439.44, -170359.53, -117748.80, -170355.69, 528.00, 368.00, 7792.00
1608.0, -163730.08, -170264.00, -163145.27, -163329.53, -170454.67, -170374.72, -117880.39, -170371.03, 0.00, 0.00, 0.00
1612.0, -163714.61, -170273.80, -163155.50, -163353.83, -170464.44, -170384.53, -117987.23, -170381.00, 0.00, 0.00, 0.00
1616.0, -163611.30, -170256.70, -163074.98, -163326.42, -170447.69, -170367.73, -117988.24, -170363.89, 0.00, 0.00, 0.00
1620.0, -163515.44, -170237.97, -163055.34, -163293.45, -170430.09, -170350.23, -117993.89, -170346.38, 0.00, 0.00, 0.00
1624.0, -163513.05, -170248.72, -163108.39, -163310.48, -170441.34, -170361.44, -118111.09, -170357.86, 0.00, 0.00, 0.00
1628.0, -163506.78, -170263.11, -163134.17, -163348.13, -170457.73, -170377.75, -118229.99, -170374.38, 0.00, 0.00, 0.00
1632.0, -163267.80, -170246.02, -163065.30, -163319.09, -170442.48, -170362.59, -118238.20, -170359.14, 0.00, 0.00, 0.00
1636.0, -163086.19, -170228.88, -163053.22, -163303.19, -170422.19, -170342.22, -118213.41, -170338.50, 0.00, 0.00, 0.00
1640.0, -163242.97, -170235.86, -163097.25, -163291.84, -170428.77, -170348.77, -118294.03, -170345.08, 0.00, 0.00, 0.00
1644.0, -163442.03, -170252.38, -163118.83, -163322.38, -170444.81, -170364.88, -118410.59, -170361.28, 544.00, 416.00, 7760.00
1648.0, -163554.48, -170242.50, -163057.63, -163309.27, -170435.23, -170355.22, -118424.03, -170351.47, 0.00, 0.00, 0.00
1652.0, -163661.81, -170218.25, -163035.81, -163295.41, -170411.42, -170331.34, -118383.73, -170327.64, 0.00, 0.00, 0.00
1656.0, -164003.02, -170221.17, -163062.86, -163276.09, -170413.31, -170333.25, -118451.92, -170329.27, 0.00, 0.00, 0.00
1660.0, -164128.72, -170241.98, -163106.11, -163324.95, -170433.44, -170353.39, -118591.42, -170349.61, 0.00, 0.00, 0.00
1664.0, -164065.23, -170238.86, -163066.36, -163307.22, -170430.28, -170350.27, -118642.02, -170346.33, 0.00, 0.00, 0.00
1668.0, -163943.14, -170216.55, -163019.61, -163289.97, -170408.13, -170328.02, -118619.85, -170324.02, 0.00, 0.00, 0.00
1672.0, -163890.81, -170214.86, -163048.86, -163266.81, -170406.44, -170326.36, -118678.05, -170322.30, 0.00, 0.00, 0.00
1676.0, -163908.27, -170233.73, -163097.91, -163317.86, -170425.39, -170345.34, -118818.52, -170341.45, 0.00, 0.00, 0.00
1680.0, -163865.03, -170236.00, -163077.52, -163312.41, -170427.73, -170347.59, -118890.31, -170343.64, 0.00, 0.00, 0.00
1684.0, -163746.11, -170212.94, -163015.78, -163284.66, -170404.75, -170324.64, -118870.46, -170320.47, 544.00, 416.00, 7744.00
1688.0, -163674.70, -170206.52, -163048.23, -163258.72, -170398.39, -170318.23, -118906.31, -170314.08, 0.00, 0.00, 0.00
1692.0, -163687.56, -170226.19, -163100.47, -163299.33, -170418.23, -170337.97, -119045.05, -170334.02, 0.00, 0.00, 0.00
1696.0, -163658.81, -170231.80, -163096.45, -163309.66, -170423.81, -170343.58, -119136.63, -170339.59, 0.00, 0.00, 0.00
1700.0, -163545.89, -170210.89, -163012.77, -163279.64, -170403.34, -170323.02, -119126.50, -170318.86, 0.00, 0.00, 0.00
1704.0, -163459.67, -170196.66, -163019.41, -163255.64, -170391.00, -170310.75, -119142.53, -170306.73, 0.00, 0.00, 0.00
1708.0, -163465.77, -170211.08, -163079.19, -163283.42, -170405.92, -170325.61, -119267.77, -170321.72, 0.00, 0.00, 0.00
1712.0, -163442.97, -170219.56, -163095.91, -163311.08, -170416.89, -170336.58, -119377.45, -170332.98, 0.00, 0.00, 0.00
1716.0, -163170.05, -170200.17, -163021.80, -163277.63, -170397.75, -170317.41, -119372.30, -170313.52, 0.00, 0.00, 0.00
1720.0, -163050.84, -170185.64, -163017.84, -163257.11, -170380.17, -170299.81, -119352.23, -170295.80, 0.00, 0.00, 0.00
1724.0, -163227.28, -170195.72, -163056.44, -163256.06, -170389.83, -170309.48, -119443.16, -170305.44, 480.00, 416.00, 7776.00
1728.0, -163417.00, -170212.16, -163067.03, -163280.20, -170406.09, -170325.73, -119545.30, -170321.72, 0.00, 0.00, 0.00
1732.0, -163515.03, -170199.25, -163003.94, -163271.70, -170393.52, -170313.06, -119538.66, -170308.89, 0.00, 0.00, 0.00
1736.0, -163639.81, -170175.56, -163000.36, -163253.52, -170370.17, -170289.70, -119501.05, -170285.59, 0.00, 0.00, 0.00
1740.0, -163988.02, -170182.20, -163028.75, -163240.38, -170375.58, -170295.16, -119583.64, -170290.77, 0.00, 0.00, 0.00
1744.0, -164085.58, -170202.98, -163069.14, -163288.47, -170395.81, -170315.34, -119717.50, -170311.28, 0.00, 0.00, 0.00
1748.0, -164011.97, -170195.47, -163018.22, -163264.56, -170388.34, -170307.86, -119751.16, -170303.56, 0.00, 0.00, 0.00
1752.0, -163891.66, -170171.78, -162979.22, -163243.09, -170364.78, -170284.28, -119727.54, -170279.88, 0.00, 0.00, 0.00
1756.0, -163851.41, -170172.14, -163024.55, -163224.48, -170365.14, -170284.61, -119797.70, -170280.33, 0.00, 0.00, 0.00
1760.0, -163865.48, -170193.03, -163070.30, -163275.52, -170386.02, -170305.53, -119935.03, -170301.44, 0.00, 0.00, 0.00
1764.0, -163808.05, -170191.36, -163034.61, -163261.42, -170384.48, -170303.88, -119988.66, -170299.55, 464.00, 416.00, 7744.00
1768.0, -163687.16, -170168.25, -162967.66, -163242.81, -170361.55, -170280.88, -119965.54, -170276.33, 0.00, 0.00, 0.00
1772.0, -163629.66, -170164.77, -163014.00, -163220.34, -170358.16, -170277.44, -120015.50, -170272.98, 0.00, 0.00, 0.00
1776.0, -163647.16, -170185.08, -163072.72, -163267.48, -170378.45, -170297.83, -120154.39, -170293.55, 0.00, 0.00, 0.00
1780.0, -163608.48, -170187.27, -163056.91, -163267.11, -170380.72, -170300.08, -120230.01, -170295.83, 0.00, 0.00, 0.00
1784.0, -163490.84, -170166.47, -162975.22, -163241.84, -170360.66, -170279.92, -120212.55, -170275.45, 0.00, 0.00, 0.00
1788.0, -163415.28, -170155.80, -162996.84, -163213.58, -170351.95, -170271.19, -120240.18, -170266.98, 0.00, 0.00, 0.00
1792.0, -163426.05, -170173.45, -163053.41, -163251.13, -170369.97, -170289.27, -120369.03, -170285.31, 0.00, 0.00, 0.00
1796.0, -163374.86, -170178.70, -163054.77, -163267.33, -170378.38, -170297.72, -120461.39, -170293.98, 0.00, 0.00, 0.00
1800.0, -163077.70, -170161.02, -162978.31, -163242.63, -170359.00, -170278.36, -120441.90, -170274.11, 0.00, 0.00, 0.00
1804.0, -163032.41, -170146.14, -162975.89, -163212.52, -170342.06, -170261.38, -120432.67, -170257.02, 496.00, 416.00, 7728.00
1808.0, -163223.08, -170158.55, -163011.36, -163219.86, -170353.95, -170273.27, -120535.00, -170269.03, 0.00, 0.00, 0.00
1812.0, -163404.50, -170170.44, -163014.48, -163238.14, -170365.80, -170285.06, -120625.66, -170280.72, 0.00, 0.00, 0.00
1816.0, -163490.41, -170154.69, -162957.94, -163223.09, -170350.33, -170269.53, -120604.35, -170265.13, 0.00, 0.00, 0.00
1820.0, -163636.88, -170136.02, -162965.02, -163206.13, -170332.02, -170251.31, -120574.27, -170246.91, 0.00, 0.00, 0.00
1824.0, -163982.06, -170146.64, -162992.94, -163208.66, -170341.31, -170260.58, -120669.64, -170256.09, 0.00, 0.00, 0.00
1828.0, -164049.55, -170161.59, -163024.36, -163248.67, -170355.88, -170275.03, -120793.49, -170270.80, 0.00, 0.00, 0.00
1832.0, -163963.47, -170149.31, -162964.59, -163220.91, -170343.64, -170262.86, -120810.55, -170258.22, 0.00, 0.00, 0.00
1836.0, -163847.72, -170128.59, -162942.83, -163198.33, -170323.06, -170242.25, -120789.96, -170237.50, 0.00, 0.00, 0.00
1840.0, -163822.59, -170133.58, -162991.55, -163188.42, -170328.16, -170247.28, -120874.81, -170242.75, 0.00, 0.00, 0.00
1844.0, -163835.48, -170152.58, -163034.09, -163240.59, -170347.20, -170266.44, -121006.98, -170262.03, 464.00, 432.00, 7760.00
1848.0, -163765.69, -170147.50, -162985.47, -163221.84, -170342.19, -170261.33, -121044.05, -170256.70, 0.00, 0.00, 0.00
1852.0, -163644.80, -170125.61, -162932.91, -163198.80, -170320.47, -170239.55, -121017.55, -170234.83, 0.00, 0.00, 0.00
1856.0, -163599.72, -170125.58, -162969.69, -163173.70, -170320.44, -170239.55, -121079.51, -170234.77, 0.00, 0.00, 0.00
1860.0, -163616.03, -170146.41, -163018.44, -163226.95, -170341.39, -170260.41, -121215.00, -170255.94, 0.00, 0.00, 0.00
1864.0, -163563.94, -170146.44, -162989.19, -163218.58, -170341.56, -170260.47, -121270.75, -170255.98, 0.00, 0.00, 0.00
1868.0, -163444.05, -170122.66, -162928.44, -163204.59, -170318.36, -170237.25, -121243.73, -170232.72, 0.00, 0.00, 0.00
1872.0, -163384.14, -170114.36, -162953.80, -163174.56, -170311.33, -170230.28, -121286.22, -170225.81, 0.00, 0.00, 0.00
1876.0, -163399.67, -170133.63, -163002.92, -163221.27, -170330.72, -170249.70, -121422.02, -170245.52, 0.00, 0.00, 0.00
1880.0, -163332.89, -170135.34, -162990.59, -163224.33, -170336.02, -170255.05, -121498.87, -170251.02, 0.00, 0.00, 0.00
1884.0, -163028.59, -170114.31, -162922.13, -163198.11, -170313.80, -170232.83, -121470.55, -170228.42, 512.00, 368.00, 7728.00
1888.0, -163002.44, -170103.30, -162946.80, -163170.77, -170300.97, -170219.95, -121468.59, -170215.30, 0.00, 0.00, 0.00
1892.0, -163199.56, -170117.80, -162985.55, -163183.42, -170314.92, -170233.94, -121574.30, -170229.30, 0.00, 0.00, 0.00
1896.0, -163370.77, -170126.86, -162975.92, -163196.77, -170323.94, -170242.97, -121649.86, -170238.28, 0.00, 0.00, 0.00
1900.0, -163451.17, -170106.61, -162914.64, -163191.41, -170304.22, -170223.19, -121617.58, -170218.41, 0.00, 0.00, 0.00
1904.0, -163650.34, -170089.81, -162921.25, -163164.63, -170287.34, -170206.22, -121601.35, -170201.53, 0.00, 0.00, 0.00
1908.0, -163966.36, -170105.75, -162955.77, -163176.31, -170302.00, -170220.86, -121710.54, -170216.17, 0.00, 0.00, 0.00
1912.0, -163993.77, -170120.08, -162978.56, -163209.84, -170316.23, -170235.00, -121823.06, -170230.45, 0.00, 0.00, 0.00
1916.0, -163896.48, -170104.39, -162914.47, -163178.70, -170300.64, -170219.41, -121823.84, -170214.61, 0.00, 0.00, 0.00
1920.0, -163785.73, -170086.47, -162905.59, -163152.39, -170282.84, -170201.69, -121806.05, -170196.72, 0.00, 0.00, 0.00
1924.0, -163770.94, -170095.81, -162949.16, -163152.11, -170292.33, -170211.14, -121903.10, -170206.25, 512.00, 368.00, 7664.00
1928.0, -163777.95, -170111.61, -162984.27, -163199.98, -170308.23, -170226.91, -122029.50, -170222.36, 0.00, 0.00, 0.00
1932.0, -163697.00, -170100.88, -162927.47, -163176.83, -170297.52, -170216.19, -122051.45, -170211.39, 0.00, 0.00, 0.00
1936.0, -163580.52, -170081.28, -162894.23, -163153.84, -170278.09, -170196.86, -122026.62, -170191.81, 0.00, 0.00, 0.00
1940.0, -163551.23, -170084.67, -162930.89, -163139.45, -170281.55, -170200.28, -122103.20, -170195.25, 0.00, 0.00, 0.00
1944.0, -163565.72, -170102.20, -162975.14, -163192.47, -170299.17, -170217.83, -122236.55, -170213.11, 0.00, 0.00, 0.00
1948.0, -163500.09, -170097.03, -162933.86, -163173.41, -170294.16, -170212.84, -122276.09, -170207.95, 0.00, 0.00, 0.00
1952.0, -163376.58, -170073.33, -162894.05, -163152.73, -170271.69, -170190.38, -122243.45, -170185.45, 0.00, 0.00, 0.00
1956.0, -163326.84, -170068.03, -162935.11, -163123.73, -170268.08, -170186.72, -122298.59, -170181.95, 0.00, 0.00, 0.00
1960.0, -163343.17, -170088.05, -162985.11, -163176.98, -170288.48, -170207.05, -122431.16, -170202.61, 0.00, 0.00, 0.00
1964.0, -163221.11, -170085.97, -162959.13, -163172.69, -170289.52, -170208.17, -122488.36, -170203.88, 560.00, 336.00, 7712.00
1968.0, -162940.45, -170067.80, -162878.77, -163157.47, -170268.47, -170187.05, -122452.24, -170182.17, 0.00, 0.00, 0.00
1972.0, -163003.58, -170062.70, -162901.20, -163126.80, -170262.66, -170181.19, -122466.45, -170176.23, 0.00, 0.00, 0.00
1976.0, -163205.86, -170076.73, -162940.91, -163153.02, -170276.08, -170194.61, -122576.25, -170189.81, 0.00, 0.00, 0.00
1980.0, -163364.45, -170082.06, -162919.25, -163156.08, -170281.64, -170200.13, -122635.81, -170195.23, 0.00, 0.00, 0.00
1984.0, -163438.56, -170059.53, -162867.86, -163146.19, -170259.73, -170178.11, -122590.69, -170173.25, 0.00, 0.00, 0.00
1988.0, -163678.27, -170045.25, -162886.36, -163118.20, -170245.39, -170163.73, -122583.66, -170158.89, 0.00, 0.00, 0.00
1992.0, -163952.98, -170063.22, -162926.95, -163139.77, -170262.03, -170180.41, -122699.43, -170175.42, 0.00, 0.00, 0.00
1996.0, -163953.66, -170074.33, -162938.88, -163163.45, -170272.86, -170191.34, -122798.22, -170186.38, 0.00, 0.00, 0.00
2000.0, -163849.69, -170056.63, -162871.20, -163134.02, -170255.38, -170173.91, -122790.47, -170168.73, 0.00, 0.00, 0.00
2004.0, -163749.25, -170038.78, -162870.81, -163107.36, -170237.97, -170156.41, -122784.01, -170151.27, 496.00, 336.00, 7696.00
2008.0, -163745.00, -170051.03, -162915.95, -163122.52, -170250.27, -170168.67, -122891.70, -170163.63, 0.00, 0.00, 0.00
2012.0, -163744.56, -170066.50, -162942.06, -163160.27, -170265.66, -170184.09, -123005.73, -170179.06, 0.00, 0.00, 0.00
2016.0, -163650.58, -170053.14, -162873.33, -163128.44, -170252.45, -170170.91, -123009.83, -170165.66, 0.00, 0.00, 0.00
2020.0, -163538.81, -170033.22, -162850.88, -163104.77, -170232.98, -170151.36, -122989.22, -170146.08, 0.00, 0.00, 0.00
2024.0, -163519.61, -170042.72, -162897.97, -163100.98, -170242.55, -170160.88, -123077.33, -170155.69, 0.00, 0.00, 0.00
2028.0, -163529.56, -170060.72, -162937.48, -163150.30, -170260.52, -170178.89, -123199.23, -170173.92, 0.00, 0.00, 0.00
2032.0, -163454.50, -170053.78, -162885.92, -163128.88, -170253.86, -170172.25, -123223.24, -170167.05, 0.00, 0.00, 0.00
2036.0, -163336.70, -170031.06, -162853.13, -163108.75, -170232.27, -170150.66, -123193.31, -170145.42, 0.00, 0.00, 0.00
2040.0, -163301.08, -170031.97, -162897.63, -163096.11, -170234.41, -170152.84, -123260.44, -170147.78, 0.00, 0.00, 0.00
2044.0, -163315.70, -170049.42, -162943.42, -163146.42, -170252.27, -170170.75, -123390.55, -170166.03, 0.00, 0.00, 0.00
2048.0, -163172.98, -170042.61, -162902.59, -163132.13, -170249.19, -170167.72, -123429.32, -170163.09, 480.00, 352.00, 7680.00
2052.0, -162893.78, -170024.22, -162843.70, -163116.47, -170228.11, -170146.50, -123386.19, -170141.45, 0.00, 0.00, 0.00
2056.0, -162975.42, -170017.84, -162874.88, -163080.67, -170221.06, -170139.42, -123413.01, -170134.25, 0.00, 0.00, 0.00
2060.0, -163180.83, -170036.94, -162910.06, -163111.11, -170239.78, -170158.08, -123525.55, -170153.08, 0.00, 0.00, 0.00
2064.0, -163326.63, -170038.05, -162877.02, -163112.44, -170241.41, -170159.59, -123570.32, -170154.48, 0.00, 0.00, 0.00
2068.0, -163397.08, -170014.38, -162829.97, -163106.13, -170218.61, -170136.72, -123519.73, -170131.61, 0.00, 0.00, 0.00
2072.0, -163660.83, -170004.13, -162848.17, -163073.88, -170208.23, -170126.41, -123528.90, -170121.22, 0.00, 0.00, 0.00
2076.0, -163918.97, -170021.27, -162891.22, -163108.14, -170224.16, -170142.25, -123651.16, -170137.19, 0.00, 0.00, 0.00
2080.0, -163902.25, -170030.03, -162887.80, -163120.19, -170232.91, -170151.02, -123732.66, -170145.89, 0.00, 0.00, 0.00
2084.0, -163788.70, -170009.42, -162821.50, -163095.98, -170212.95, -170130.98, -123710.89, -170125.64, 0.00, 0.00, 0.00
2088.0, -163698.69, -169996.77, -162838.31, -163068.75, -170200.89, -170119.02, -123713.02, -170113.56, 496.00, 384.00, 7696.00
2092.0, -163703.66, -170011.77, -162886.67, -163092.45, -170215.88, -170134.03, -123829.71, -170128.83, 0.00, 0.00, 0.00
2096.0, -163694.50, -170025.58, -162904.38, -163121.66, -170229.89, -170147.98, -123932.77, -170142.95, 0.00, 0.00, 0.00
2100.0, -163593.16, -170008.38, -162829.45, -163089.78, -170213.58, -170131.58, -123923.23, -170126.11, 0.00, 0.00, 0.00
2104.0, -163489.58, -169990.69, -162824.42, -163064.89, -170196.81, -170114.78, -123907.25, -170109.31, 0.00, 0.00, 0.00
2108.0, -163480.41, -170000.83, -162885.92, -163072.58, -170207.17, -170125.14, -124004.77, -170119.81, 0.00, 0.00, 0.00
2112.0, -163481.34, -170014.89, -162914.63, -163113.86, -170221.38, -170139.33, -124118.80, -170134.23, 0.00, 0.00, 0.00
2116.0, -163392.08, -170004.39, -162846.75, -163089.25, -170212.03, -170129.94, -124125.85, -170124.64, 0.00, 0.00, 0.00
2120.0, -163278.28, -169979.64, -162813.98, -163062.41, -170190.28, -170108.27, -124100.63, -170102.83, 0.00, 0.00, 0.00
2124.0, -163254.55, -169983.02, -162869.83, -163054.06, -170195.27, -170113.20, -124181.75, -170107.98, 0.00, 0.00, 0.00
2128.0, -163266.88, -170002.80, -162913.61, -163105.81, -170215.92, -170133.92, -124307.75, -170129.00, 464.00, 384.00, 7712.00
2132.0, -163081.92, -169991.63, -162861.20, -163086.64, -170209.13, -170127.09, -124332.83, -170122.34, 0.00, 0.00, 0.00
2136.0, -162845.13, -169966.69, -162801.58, -163076.27, -170186.84, -170104.69, -124288.08, -170099.58, 0.00, 0.00, 0.00
2140.0, -162965.25, -169963.53, -162826.69, -163048.61, -170188.02, -170105.86, -124328.73, -170100.64, 0.00, 0.00, 0.00
2144.0, -163170.25, -169980.34, -162856.03, -163080.61, -170205.73, -170123.64, -124437.43, -170118.34, 0.00, 0.00, 0.00
2148.0, -163303.27, -169948.11, -162814.11, -163069.92, -170201.36, -170119.33, -124463.20, -170113.89, 0.00, 0.00, 0.00
2152.0, -163383.00, -169821.70, -162793.00, -163058.92, -170177.06, -170095.03, -124405.88, -170090.00, 0.00, 0.00, 0.00
2156.0, -163688.34, -169740.03, -162814.89, -163036.05, -170173.30, -170091.06, -124429.23, -170086.06, 0.00, 0.00, 0.00
2160.0, -163886.98, -169758.77, -162861.27, -163076.25, -170190.78, -170108.53, -124556.27, -170103.61, 0.00, 0.00, 0.00
2164.0, -163851.58, -169735.45, -162847.34, -163077.45, -170193.19, -170110.98, -124622.57, -170105.98, 0.00, 0.00, 0.00
2168.0, -163733.31, -169609.08, -162782.86, -163054.14, -170172.39, -170090.27, -124593.45, -170084.94, 464.00, 384.00, 7712.00
2172.0, -163654.27, -169514.28, -162815.88, -163029.34, -170162.50, -170080.25, -124607.84, -170075.05, 0.00, 0.00, 0.00
2176.0, -163662.89, -169529.17, -162868.31, -163064.59, -170178.48, -170096.23, -124726.06, -170091.31, 0.00, 0.00, 0.00
2180.0, -163640.72, -169517.20, -162871.34, -163080.72, -170188.45, -170106.16, -124810.75, -170101.31, 0.00, 0.00, 0.00
2184.0, -163531.25, -169393.72, -162792.94, -163054.09, -170170.34, -170088.05, -124791.28, -170082.94, 0.00, 0.00, 0.00
2188.0, -163438.66, -169278.78, -162794.95, -163026.06, -170158.02, -170075.67, -124790.19, -170070.42, 0.00, 0.00, 0.00
2192.0, -163441.19, -169284.34, -162849.02, -163048.02, -170168.42, -170086.22, -124900.07, -170081.06, 0.00, 0.00, 0.00
2196.0, -163435.38, -169288.53, -162869.64, -163080.64, -170181.95, -170099.72, -125000.80, -170094.78, 0.00, 0.00, 0.00
2200.0, -163337.53, -169174.69, -162792.95, -163047.13, -170167.80, -170085.33, -124993.05, -170080.20, 0.00, 0.00, 0.00
2204.0, -163231.28, -169042.86, -162771.70, -163024.23, -170149.44, -170067.02, -124974.39, -170061.94, 0.00, 0.00, 0.00
2208.0, -163217.02, -169028.05, -162833.17, -163027.97, -170160.16, -170077.75, -125064.13, -170072.88, 544.00, 400.00, 7728.00
2212.0, -163219.97, -169044.69, -162866.94, -163071.53, -170176.72, -170094.25, -125177.07, -170089.75, 0.00, 0.00, 0.00
2216.0, -163016.23, -168946.80, -162804.56, -163045.55, -170162.73, -170080.28, -125184.43, -170075.78, 0.00, 0.00, 0.00
2220.0, -162791.53, -168790.42, -162756.34, -163025.08, -170142.59, -170060.05, -125141.76, -170055.16, 0.00, 0.00, 0.00
2224.0, -162928.03, -168740.39, -162780.31, -163001.55, -170145.09, -170062.50, -125198.24, -170057.61, 0.00, 0.00, 0.00
2228.0, -163130.80, -168747.81, -162806.95, -163036.97, -170161.55, -170078.98, -125305.59, -170074.17, 0.00, 0.00, 0.00
2232.0, -163249.56, -168652.73, -162762.11, -163024.98, -170155.20, -170072.58, -125314.11, -170067.53, 0.00, 0.00, 0.00
2236.0, -163333.89, -168484.14, -162755.19, -163017.50, -170130.55, -170047.97, -125252.71, -170043.08, 0.00, 0.00, 0.00
2240.0, -163656.97, -168417.30, -162769.39, -163001.03, -170128.23, -170045.52, -125289.62, -170040.52, 0.00, 0.00, 0.00
2244.0, -163832.89, -168442.67, -162812.41, -163044.39, -170147.80, -170065.14, -125414.41, -170060.27, 0.00, 0.00, 0.00
2248.0, -163782.78, -168390.50, -162784.84, -163030.41, -170147.98, -170065.41, -125463.96, -170060.38, 528.00, 432.00, 7696.00
2252.0, -163661.02, -168250.31, -162735.98, -163004.72, -170125.58, -170042.86, -125428.33, -170037.77, 0.00, 0.00, 0.00
2256.0, -163596.86, -168177.05, -162781.30, -162982.28, -170121.38, -170038.61, -125458.41, -170033.53, 0.00, 0.00, 0.00
2260.0, -163612.47, -168202.66, -162834.00, -163025.55, -170138.88, -170056.25, -125582.35, -170051.31, 0.00, 0.00, 0.00
2264.0, -163578.75, -168172.34, -162824.00, -163030.05, -170144.36, -170061.83, -125650.35, -170056.80, 0.00, 0.00, 0.00
2268.0, -163462.33, -168041.03, -162742.22, -163003.67, -170125.14, -170042.41, -125622.19, -170037.17, 0.00, 0.00, 0.00
2272.0, -163378.73, -167946.33, -162761.17, -162973.31, -170113.33, -170030.52, -125630.45, -170025.25, 0.00, 0.00, 0.00
2276.0, -163386.11, -167961.44, -162820.61, -163006.63, -170130.36, -170047.47, -125745.26, -170042.52, 0.00, 0.00, 0.00
2280.0, -163368.53, -167951.16, -162828.86, -163027.42, -170139.48, -170056.67, -125834.08, -170051.78, 0.00, 0.00, 0.00
2284.0, -163262.86, -167832.36, -162747.98, -163003.42, -170120.44, -170037.56, -125816.45, -170032.34, 0.00, 0.00, 0.00
2288.0, -163168.72, -167724.06, -162733.23, -162973.48, -170105.44, -170022.50, -125807.55, -170017.52, 528.00, 416.00, 7680.00
2292.0, -163166.88, -167728.42, -162782.19, -162990.86, -170118.09, -170035.19, -125910.52, -170030.55, 0.00, 0.00, 0.00
2296.0, -163152.42, -167734.66, -162806.13, -163027.78, -170133.89, -170050.97, -126013.61, -170046.64, 0.00, 0.00, 0.00
2300.0, -162892.20, -167626.14, -162736.39, -162999.80, -170118.89, -170035.92, -126003.89, -170031.38, 0.00, 0.00, 0.00
2304.0, -162753.78, -167485.53, -162725.17, -162980.17, -170098.48, -170015.50, -125961.27, -170010.64, 0.00, 0.00, 0.00
2308.0, -162920.31, -167453.59, -162767.98, -162967.25, -170105.33, -170022.27, -126026.04, -170017.44, 0.00, 0.00, 0.00
2312.0, -163119.50, -167455.17, -162786.75, -162996.78, -170120.81, -170037.81, -126123.60, -170032.98, 0.00, 0.00, 0.00
2316.0, -163229.63, -167352.36, -162726.94, -162983.59, -170111.14, -170028.17, -126116.96, -170023.09, 0.00, 0.00, 0.00
2320.0, -163345.05, -167202.53, -162711.28, -162972.52, -170089.28, -170006.17, -126063.63, -170001.31, 0.00, 0.00, 0.00
2324.0, -163687.05, -167160.64, -162732.70, -162957.22, -170091.81, -170008.64, -126120.77, -170003.70, 0.00, 0.00, 0.00
2328.0, -163802.66, -167184.66, -162775.34, -163004.30, -170109.08, -170026.00, -126243.50, -170021.20, 512.00, 384.00, 7728.00
2332.0, -163737.50, -167119.27, -162737.28, -162985.31, -170106.63, -170023.48, -126273.98, -170018.52, 0.00, 0.00, 0.00
2336.0, -163612.47, -166982.44, -162703.39, -162965.98, -170084.55, -170001.44, -126234.53, -169996.33, 0.00, 0.00, 0.00
2340.0, -163561.50, -166929.73, -162726.19, -162944.80, -170081.84, -169998.75, -126281.38, -169993.53, 0.00, 0.00, 0.00
2344.0, -163577.97, -166956.64, -162772.91, -162994.25, -170100.45, -170017.28, -126406.55, -170012.33, 0.00, 0.00, 0.00
2348.0, -163532.59, -166912.36, -162749.84, -162986.33, -170102.52, -170019.25, -126460.42, -170014.11, 0.00, 0.00, 0.00
2352.0, -163414.52, -166781.38, -162688.95, -162961.56, -170080.55, -169997.34, -126426.80, -169992.05, 0.00, 0.00, 0.00
2356.0, -163346.67, -166707.06, -162715.69, -162936.30, -170074.34, -169991.06, -126449.94, -169985.84, 0.00, 0.00, 0.00
2360.0, -163359.73, -166730.53, -162765.98, -162979.33, -170092.92, -170009.83, -126572.02, -170004.77, 0.00, 0.00, 0.00
2364.0, -163330.42, -166705.81, -162761.44, -162988.84, -170101.22, -170018.06, -126643.77, -170012.97, 0.00, 0.00, 0.00
2368.0, -163214.59, -166579.67, -162695.45, -162963.45, -170080.61, -169997.39, -126612.99, -169992.08, 480.00, 384.00, 7792.00
2372.0, -163126.84, -166484.53, -162719.58, -162934.42, -170066.75, -169983.47, -126613.11, -169978.44, 0.00, 0.00, 0.00
2376.0, -163132.84, -166498.39, -162770.58, -162963.34, -170082.06, -169998.78, -126721.24, -169994.00, 0.00, 0.00, 0.00
2380.0, -163100.61, -166493.27, -162783.08, -162987.59, -170094.42, -170011.14, -126811.74, -170006.69, 0.00, 0.00, 0.00
2384.0, -162818.33, -166376.17, -162705.58, -162960.58, -170076.55, -169993.14, -126790.78, -169988.44, 0.00, 0.00, 0.00
2388.0, -162734.03, -166249.91, -162693.47, -162930.44, -170058.91, -169975.53, -126757.68, -169970.34, 0.00, 0.00, 0.00
2392.0, -162914.63, -166232.58, -162730.48, -162922.89, -170067.84, -169984.58, -126835.51, -169979.31, 0.00, 0.00, 0.00
2396.0, -163103.63, -166224.98, -162740.61, -162952.06, -170081.55, -169998.28, -126923.95, -169993.08, 0.00, 0.00, 0.00
2400.0, -163199.95, -166108.03, -162677.31, -162945.95, -170066.95, -169983.58, -126899.25, -169978.28, 0.00, 0.00, 0.00
2404.0, -163348.27, -165964.17, -162683.03, -162926.91, -170044.67, -169961.19, -126846.91, -169956.11, 0.00, 0.00, 0.00
2408.0, -163680.45, -165938.73, -162716.83, -162916.56, -170051.55, -169967.98, -126917.38, -169963.00, 512.00, 400.00, 7760.00
2412.0, -163747.13, -165958.08, -162755.47, -162962.73, -170069.59, -169986.03, -127034.86, -169981.17, 0.00, 0.00, 0.00
2416.0, -163671.33, -165880.36, -162703.22, -162940.03, -170060.09, -169976.55, -127052.30, -169971.27, 0.00, 0.00, 0.00
2420.0, -163552.36, -165750.09, -162655.63, -162917.97, -170039.48, -169955.95, -127015.73, -169950.52, 0.00, 0.00, 0.00
2424.0, -163514.83, -165713.53, -162695.59, -162900.02, -170040.64, -169957.11, -127072.32, -169951.84, 0.00, 0.00, 0.00
2428.0, -163529.73, -165739.47, -162742.80, -162953.13, -170060.69, -169977.13, -127193.34, -169972.09, 0.00, 0.00, 0.00
2432.0, -163469.14, -165679.55, -162704.80, -162936.08, -170056.80, -169973.25, -127226.35, -169968.00, 0.00, 0.00, 0.00
2436.0, -163347.30, -165545.13, -162648.14, -162914.34, -170035.80, -169952.25, -127186.25, -169946.88, 0.00, 0.00, 0.00
2440.0, -163291.31, -165485.89, -162681.69, -162887.06, -170032.27, -169948.75, -127221.84, -169943.34, 0.00, 0.00, 0.00
2444.0, -163307.78, -165512.45, -162732.72, -162936.59, -170052.89, -169969.31, -127343.80, -169964.14, 0.00, 0.00, 0.00
2448.0, -163267.73, -165474.52, -162715.42, -162936.98, -170056.88, -169973.25, -127401.81, -169967.86, 496.00, 384.00, 7696.00
2452.0, -163148.78, -165344.47, -162651.53, -162917.03, -170034.41, -169950.83, -127366.45, -169945.45, 0.00, 0.00, 0.00
2456.0, -163074.88, -165264.03, -162687.55, -162886.55, -170023.56, -169940.06, -127379.48, -169934.92, 0.00, 0.00, 0.00
2460.0, -163086.88, -165284.38, -162740.81, -162925.30, -170040.47, -169956.94, -127494.84, -169952.05, 0.00, 0.00, 0.00
2464.0, -163025.38, -165263.61, -162738.33, -162938.44, -170050.97, -169967.38, -127570.05, -169962.75, 0.00, 0.00, 0.00
2468.0, -162727.20, -165135.55, -162655.34, -162918.31, -170030.66, -169946.91, -127534.27, -169941.80, 0.00, 0.00, 0.00
2472.0, -162706.98, -165021.38, -162643.47, -162885.58, -170013.27, -169929.56, -127511.76, -169924.19, 0.00, 0.00, 0.00
2476.0, -162903.52, -165014.27, -162675.75, -162892.52, -170027.64, -169944.05, -127598.95, -169938.70, 0.00, 0.00, 0.00
2480.0, -163087.73, -164997.31, -162678.16, -162911.94, -170040.16, -169956.58, -127675.30, -169951.17, 0.00, 0.00, 0.00
2484.0, -163174.17, -164869.39, -162628.11, -162902.66, -170022.47, -169938.78, -127637.82, -169933.42, 0.00, 0.00, 0.00
2488.0, -163354.77, -164735.92, -162640.88, -162879.59, -170001.47, -169917.63, -127595.91, -169912.39, 0.00, 0.00, 0.00
2492.0, -163668.78, -164726.36, -162671.05, -162881.94, -170012.34, -169928.48, -127680.05, -169923.09, 560.00, 384.00, 7728.00
2496.0, -163706.50, -164737.64, -162700.69, -162921.34, -170027.95, -169944.00, -127785.73, -169938.78, 0.00, 0.00, 0.00
2500.0, -163617.47, -164644.84, -162639.41, -162894.08, -170018.11, -169934.20, -127785.05, -169928.64, 0.00, 0.00, 0.00
2504.0, -163500.80, -164517.55, -162627.80, -162875.92, -169998.42, -169914.47, -127749.40, -169908.95, 0.00, 0.00, 0.00
2508.0, -163475.31, -164494.55, -162683.81, -162866.47, -170006.06, -169922.09, -127820.59, -169916.70, 0.00, 0.00, 0.00
2512.0, -163488.34, -164518.53, -162727.02, -162917.84, -170024.17, -169940.13, -127938.36, -169934.98, 0.00, 0.00, 0.00
2516.0, -163418.09, -164444.97, -162676.06, -162898.66, -170017.69, -169933.80, -127959.75, -169928.39, 0.00, 0.00, 0.00
2520.0, -163299.47, -164313.17, -162615.13, -162876.50, -169997.61, -169913.66, -127921.47, -169908.05, 0.00, 0.00, 0.00
2524.0, -163256.17, -164269.42, -162663.27, -162850.67, -169994.83, -169910.84, -127970.62, -169905.23, 0.00, 0.00, 0.00
2528.0, -163270.69, -164295.39, -162712.61, -162902.84, -170014.69, -169930.77, -128090.13, -169925.38, 0.00, 0.00, 0.00
2532.0, -163216.72, -164242.20, -162679.36, -162892.16, -170015.09, -169931.02, -128129.94, -169925.56, 560.00, 400.00, 7744.00
2536.0, -163097.55, -164110.39, -162591.55, -162869.72, -169991.00, -169906.83, -128091.14, -169901.33, 0.00, 0.00, 0.00
2540.0, -163036.66, -164044.63, -162629.36, -162853.38, -169986.28, -169902.16, -128118.54, -169896.86, 0.00, 0.00, 0.00
2544.0, -163050.98, -164069.22, -162697.41, -162897.36, -170005.19, -169921.06, -128237.19, -169916.02, 0.00, 0.00, 0.00
2548.0, -162970.78, -164036.14, -162683.34, -162899.19, -170008.13, -169924.02, -128295.70, -169919.25, 0.00, 0.00, 0.00
2552.0, -162667.67, -163900.64, -162602.28, -162872.42, -169985.66, -169901.42, -128248.63, -169896.23, 0.00, 0.00, 0.00
2556.0, -162673.91, -163798.52, -162614.20, -162839.56, -169974.64, -169890.38, -128235.13, -169885.08, 0.00, 0.00, 0.00
2560.0, -162871.69, -163797.73, -162651.45, -162854.63, -169991.06, -169906.89, -128326.93, -169901.53, 0.00, 0.00, 0.00
2564.0, -163041.73, -163766.48, -162640.25, -162869.59, -169999.89, -169915.75, -128388.75, -169910.36, 0.00, 0.00, 0.00
2568.0, -163119.09, -163627.27, -162589.16, -162866.30, -169979.73, -169895.48, -128340.65, -169890.08, 0.00, 0.00, 0.00
2572.0, -163311.34, -163507.19, -162586.72, -162831.61, -169960.41, -169876.11, -128310.36, -169870.59, 496.00, 384.00, 7760.00
2576.0, -163636.05, -163510.06, -162617.78, -162844.70, -169973.23, -169888.92, -128405.67, -169883.41, 0.00, 0.00, 0.00
2580.0, -163666.52, -163513.33, -162639.41, -162878.39, -169989.02, -169904.80, -128502.79, -169899.38, 0.00, 0.00, 0.00
2584.0, -163567.72, -163408.80, -162585.02, -162852.53, -169973.03, -169888.81, -128490.90, -169883.00, 0.00, 0.00, 0.00
2588.0, -163457.67, -163289.14, -162592.22, -162827.94, -169954.64, -169870.28, -128461.93, -169864.58, 0.00, 0.00, 0.00
2592.0, -163442.75, -163279.48, -162630.30, -162829.59, -169964.09, -169879.59, -128544.30, -169874.13, 0.00, 0.00, 0.00
2596.0, -163448.52, -163295.30, -162664.05, -162875.06, -169981.36, -169896.94, -128653.89, -169891.63, 0.00, 0.00, 0.00
2600.0, -163365.66, -163208.20, -162605.84, -162848.70, -169970.69, -169886.38, -128659.19, -169880.73, 0.00, 0.00, 0.00
2604.0, -163248.28, -163079.59, -162578.66, -162824.58, -169949.72, -169865.36, -128621.08, -169859.66, 0.00, 0.00, 0.00
2608.0, -163220.05, -163052.66, -162619.80, -162811.27, -169952.98, -169868.63, -128685.41, -169862.95, 0.00, 0.00, 0.00
2612.0, -163234.09, -163077.05, -162663.86, -162864.17, -169971.69, -169887.33, -128801.72, -169881.86, 512.00, 368.00, 7808.00
2616.0, -163167.80, -163009.05, -162617.72, -162846.58, -169967.95, -169883.47, -128825.88, -169877.81, 0.00, 0.00, 0.00
2620.0, -163047.39, -162875.97, -162553.69, -162828.16, -169945.69, -169861.25, -128783.95, -169855.58, 0.00, 0.00, 0.00
2624.0, -162997.55, -162825.86, -162592.48, -162806.80, -169944.47, -169860.02, -128824.03, -169854.63, 0.00, 0.00, 0.00
2628.0, -163013.19, -162852.38, -162643.41, -162856.66, -169964.42, -169880.11, -128941.71, -169875.02, 0.00, 0.00, 0.00
2632.0, -162919.89, -162805.86, -162616.84, -162847.08, -169962.50, -169878.19, -128983.84, -169873.55, 0.00, 0.00, 0.00
2636.0, -162600.20, -162731.47, -162555.02, -162827.67, -169939.28, -169854.83, -128928.55, -169849.77, 0.00, 0.00, 0.00
2640.0, -162603.03, -162758.45, -162570.64, -162792.59, -169931.92, -169847.34, -128926.73, -169842.42, 0.00, 0.00, 0.00
2644.0, -162803.64, -162786.00, -162603.33, -162814.89, -169949.84, -169865.34, -129025.30, -169860.44, 0.00, 0.00, 0.00
2648.0, -162953.89, -162762.06, -162579.83, -162823.83, -169954.67, -169870.14, -129069.45, -169865.23, 0.00, 0.00, 0.00
2652.0, -162996.42, -162741.89, -162537.23, -162815.33, -169931.41, -169846.91, -129001.66, -169842.19, 496.00, 384.00, 7792.00
2656.0, -163114.55, -162735.05, -162552.52, -162792.98, -169919.66, -169834.98, -128972.00, -169830.50, 0.00, 0.00, 0.00
2660.0, -163495.39, -162750.88, -162585.28, -162810.13, -169935.55, -169850.81, -129065.31, -169846.25, 0.00, 0.00, 0.00
2664.0, -163598.20, -162755.25, -162592.53, -162829.86, -169944.52, -169859.75, -129145.60, -169855.03, 0.00, 0.00, 0.00
2668.0, -163483.02, -162725.92, -162533.14, -162808.11, -169926.98, -169842.39, -129112.03, -169837.25, 0.00, 0.00, 0.00
2672.0, -163375.33, -162728.94, -162555.02, -162788.00, -169911.05, -169826.27, -129083.02, -169821.33, 0.00, 0.00, 0.00
2676.0, -163370.38, -162760.61, -162600.52, -162799.19, -169922.31, -169837.53, -129176.07, -169832.61, 0.00, 0.00, 0.00
2680.0, -163367.31, -162768.77, -162625.14, -162835.25, -169934.70, -169849.94, -129274.64, -169845.06, 0.00, 0.00, 0.00
2684.0, -163267.55, -162729.09, -162552.63, -162806.33, -169921.78, -169836.91, -129257.98, -169831.88, 0.00, 0.00, 0.00
2688.0, -163147.44, -162718.33, -162520.42, -162775.66, -169899.83, -169814.98, -129214.91, -169810.02, 0.00, 0.00, 0.00
2692.0, -163125.39, -162763.31, -162556.63, -162768.69, -169906.91, -169822.05, -129288.27, -169816.72, 528.00, 416.00, 7776.00
2696.0, -163132.81, -162797.67, -162592.66, -162815.23, -169925.73, -169840.81, -129397.13, -169835.55, 0.00, 0.00, 0.00
2700.0, -163052.19, -162731.64, -162538.91, -162790.61, -169916.56, -169831.61, -129403.09, -169826.38, 0.00, 0.00, 0.00
2704.0, -162925.45, -162705.77, -162517.89, -162776.63, -169893.64, -169808.59, -129350.93, -169803.94, 0.00, 0.00, 0.00
2708.0, -162887.45, -162727.94, -162567.63, -162759.97, -169895.52, -169810.58, -129401.60, -169806.33, 0.00, 0.00, 0.00
2712.0, -162874.08, -162754.80, -162613.23, -162809.25, -169914.98, -169830.06, -129515.34, -169825.83, 0.00, 0.00, 0.00
2716.0, -162615.89, -162718.84, -162566.00, -162793.98, -169911.78, -169826.89, -129530.30, -169822.09, 0.00, 0.00, 0.00
2720.0, -162514.97, -162694.05, -162501.88, -162776.64, -169886.34, -169801.44, -129456.65, -169796.50, 0.00, 0.00, 0.00
2724.0, -162634.69, -162704.36, -162528.73, -162743.36, -169881.97, -169796.97, -129466.33, -169791.94, 0.00, 0.00, 0.00
2728.0, -162835.38, -162754.58, -162559.84, -162773.98, -169899.42, -169814.41, -129564.03, -169809.06, 0.00, 0.00, 0.00
2732.0, -162976.36, -162713.59, -162524.95, -162769.89, -169899.20, -169814.06, -129592.80, -169808.77, 560.00, 400.00, 7744.00
2736.0, -163021.33, -162678.38, -162490.25, -162760.02, -169878.22, -169792.97, -129523.02, -169787.78, 0.00, 0.00, 0.00
2740.0, -163245.77, -162695.23, -162522.50, -162729.98, -169868.84, -169783.63, -129513.80, -169778.61, 0.00, 0.00, 0.00
2744.0, -163544.28, -162725.36, -162565.95, -162759.45, -169886.17, -169800.97, -129622.14, -169795.84, 0.00, 0.00, 0.00
2748.0, -163535.58, -162713.11, -162561.23, -162772.97, -169892.52, -169807.34, -129686.74, -169802.31, 0.00, 0.00, 0.00
2752.0, -163412.08, -162682.39, -162487.31, -162756.02, -169873.50, -169788.36, -129639.64, -169783.06, 0.00, 0.00, 0.00
2756.0, -163315.25, -162689.22, -162495.33, -162727.20, -169858.33, -169773.09, -129621.85, -169767.63, 0.00, 0.00, 0.00
2760.0, -163317.58, -162733.28, -162540.89, -162748.91, -169872.00, -169786.80, -129722.05, -169781.30, 0.00, 0.00, 0.00
2764.0, -163305.89, -162730.50, -162554.73, -162775.41, -169883.58, -169798.31, -129807.38, -169793.05, 0.00, 0.00, 0.00
2768.0, -163199.45, -162672.73, -162484.86, -162746.02, -169865.34, -169780.06, -129780.95, -169774.70, 0.00, 0.00, 0.00
2772.0, -163089.19, -162660.14, -162487.77, -162725.59, -169847.41, -169762.08, -129749.55, -169757.16, 528.00, 384.00, 7744.00
2776.0, -163081.34, -162673.11, -162536.67, -162733.86, -169857.92, -169772.45, -129837.30, -169767.75, 0.00, 0.00, 0.00
2780.0, -163081.66, -162690.72, -162564.23, -162773.25, -169875.67, -169790.23, -129936.66, -169785.36, 0.00, 0.00, 0.00
2784.0, -162984.22, -162667.41, -162493.72, -162743.38, -169863.16, -169777.66, -129922.39, -169772.45, 0.00, 0.00, 0.00
2788.0, -162862.11, -162654.69, -162464.72, -162719.98, -169840.23, -169754.70, -129877.42, -169749.89, 0.00, 0.00, 0.00
2792.0, -162837.38, -162675.97, -162501.36, -162715.16, -169846.81, -169761.42, -129945.13, -169757.00, 0.00, 0.00, 0.00
2796.0, -162812.14, -162696.89, -162541.08, -162763.70, -169864.64, -169779.23, -130057.22, -169774.92, 0.00, 0.00, 0.00
2800.0, -162539.56, -162661.38, -162487.31, -162737.14, -169857.84, -169772.42, -130059.86, -169767.34, 0.00, 0.00, 0.00
2804.0, -162463.36, -162636.20, -162453.20, -162718.38, -169832.34, -169746.78, -129990.27, -169741.69, 0.00, 0.00, 0.00
2808.0, -162598.27, -162666.64, -162473.06, -162689.94, -169832.95, -169747.30, -130017.88, -169741.94, 0.00, 0.00, 0.00
2812.0, -162801.31, -162692.17, -162501.41, -162721.23, -169852.13, -169766.44, -130115.94, -169761.25, 512.00, 384.00, 7760.00
2816.0, -162922.39, -162649.19, -162456.92, -162710.97, -169844.91, -169759.23, -130124.68, -169753.94, 0.00, 0.00, 0.00
2820.0, -162962.36, -162630.75, -162438.70, -162700.84, -169819.78, -169734.20, -130047.38, -169729.17, 0.00, 0.00, 0.00
2824.0, -163218.92, -162635.11, -162455.67, -162690.00, -169816.59, -169731.03, -130055.41, -169726.11, 0.00, 0.00, 0.00
2828.0, -163501.80, -162661.63, -162499.28, -162725.52, -169836.58, -169750.89, -130166.48, -169745.94, 0.00, 0.00, 0.00
2832.0, -163475.20, -162651.98, -162482.89, -162724.03, -169840.81, -169755.22, -130216.37, -169749.92, 0.00, 0.00, 0.00
2836.0, -163347.23, -162625.78, -162429.47, -162703.08, -169817.86, -169732.30, -130163.86, -169726.64, 0.00, 0.00, 0.00
2840.0, -163263.75, -162641.92, -162458.78, -162676.28, -169808.56, -169722.89, -130160.40, -169717.28, 0.00, 0.00, 0.00
2844.0, -163273.31, -162678.92, -162506.70, -162709.77, -169826.78, -169741.13, -130267.23, -169735.59, 0.00, 0.00, 0.00
2848.0, -163247.33, -162666.14, -162505.98, -162724.41, -169836.44, -169750.63, -130337.13, -169745.41, 0.00, 0.00, 0.00
2852.0, -163128.59, -162622.44, -162434.50, -162698.97, -169814.31, -169728.50, -130297.10, -169723.16, 512.00, 384.00, 7728.00
2856.0, -163028.59, -162625.78, -162439.52, -162670.98, -169798.64, -169712.86, -130275.95, -169707.33, 0.00, 0.00, 0.00
2860.0, -163028.86, -162671.08, -162484.34, -162688.70, -169812.88, -169727.05, -130373.92, -169721.50, 0.00, 0.00, 0.00
2864.0, -163022.42, -162673.53, -162503.88, -162720.11, -169827.45, -169741.58, -130464.13, -169736.13, 0.00, 0.00, 0.00
2868.0, -162917.77, -162622.19, -162432.53, -162692.89, -169812.08, -169726.22, -130439.16, -169720.91, 0.00, 0.00, 0.00
2872.0, -162803.73, -162607.39, -162432.83, -162674.84, -169792.27, -169706.33, -130399.27, -169701.64, 0.00, 0.00, 0.00
2876.0, -162789.97, -162639.42, -162483.03, -162678.36, -169800.34, -169714.38, -130477.86, -169709.89, 0.00, 0.00, 0.00
2880.0, -162716.14, -162654.27, -162512.17, -162719.70, -169820.08, -169734.11, -130578.35, -169729.64, 0.00, 0.00, 0.00
2884.0, -162452.34, -162610.13, -162440.56, -162691.30, -169810.16, -169724.20, -130560.20, -169718.89, 0.00, 0.00, 0.00
2888.0, -162443.17, -162589.52, -162410.31, -162675.66, -169785.08, -169699.13, -130492.56, -169693.72, 0.00, 0.00, 0.00
2892.0, -162594.08, -162626.84, -162444.38, -162652.47, -169790.19, -169704.23, -130533.94, -169698.75, 512.00, 384.00, 7728.00
2896.0, -162797.66, -162639.47, -162470.89, -162685.05, -169807.20, -169721.13, -130628.82, -169715.78, 0.00, 0.00, 0.00
2900.0, -162904.22, -162601.16, -162414.67, -162671.34, -169798.19, -169712.14, -130620.73, -169706.70, 0.00, 0.00, 0.00
2904.0, -162964.70, -162584.38, -162392.03, -162658.28, -169771.53, -169685.41, -130544.38, -169680.41, 0.00, 0.00, 0.00
2908.0, -163284.00, -162582.03, -162413.30, -162637.45, -169769.83, -169683.69, -130570.70, -169678.70, 0.00, 0.00, 0.00
2912.0, -163457.50, -162636.56, -162454.64, -162678.31, -169790.22, -169704.09, -130680.72, -169698.50, 0.00, 0.00, 0.00
2916.0, -163402.13, -162613.34, -162425.22, -162669.78, -169790.89, -169704.78, -130713.71, -169699.20, 0.00, 0.00, 0.00
2920.0, -163269.81, -162580.86, -162389.48, -162652.77, -169768.41, -169682.28, -130656.54, -169676.80, 0.00, 0.00, 0.00
2924.0, -163201.33, -162603.61, -162415.56, -162619.64, -169762.14, -169676.06, -130671.11, -169670.25, 0.00, 0.00, 0.00
2928.0, -163216.09, -162653.14, -162462.78, -162664.02, -169781.14, -169695.02, -130784.66, -169689.16, 0.00, 0.00, 0.00
2932.0, -163179.38, -162625.56, -162450.59, -162669.69, -169785.31, -169699.09, -130840.76, -169693.45, 0.00, 0.00, 0.00
2936.0, -163056.02, -162575.34, -162379.88, -162653.73, -169764.00, -169677.67, -130792.37, -169672.16, 528.00, 384.00, 7696.00
2940.0, -162969.94, -162569.28, -162405.89, -162622.53, -169752.84, -169666.50, -130784.32, -169661.27, 0.00, 0.00, 0.00
2944.0, -162976.64, -162591.33, -162456.27, -162652.98, -169771.03, -169684.78, -130888.30, -169679.66, 0.00, 0.00, 0.00
2948.0, -162954.89, -162592.66, -162460.50, -162671.36, -169779.98, -169693.75, -130962.13, -169688.41, 0.00, 0.00, 0.00
2952.0, -162839.67, -162564.36, -162377.86, -162643.78, -169761.53, -169675.17, -130923.70, -169669.72, 0.00, 0.00, 0.00
2956.0, -162736.25, -162564.59, -162384.39, -162623.48, -169744.89, -169658.55, -130894.91, -169653.95, 0.00, 0.00, 0.00
2960.0, -162730.63, -162597.89, -162444.47, -162637.91, -169757.56, -169671.27, -130985.13, -169666.86, 0.00, 0.00, 0.00
2964.0, -162587.48, -162601.20, -162464.63, -162670.64, -169772.94, -169686.53, -131072.17, -169681.72, 0.00, 0.00, 0.00
2968.0, -162398.77, -162551.05, -162381.63, -162643.06, -169759.48, -169673.06, -131038.23, -169667.44, 0.00, 0.00, 0.00
2972.0, -162439.16, -162544.55, -162359.42, -162620.98, -169736.09, -169649.64, -130977.91, -169644.30, 0.00, 0.00, 0.00
2976.0, -162601.61, -162580.34, -162392.23, -162608.17, -169742.16, -169655.66, -131030.33, -169649.91, 560.00, 432.00, 7712.00
2980.0, -162794.83, -162607.03, -162408.84, -162635.27, -169757.16, -169670.66, -131114.03, -169664.84, 0.00, 0.00, 0.00
2984.0, -162889.47, -162543.44, -162350.58, -162616.13, -169746.34, -169659.77, -131091.13, -169653.89, 0.00, 0.00, 0.00
2988.0, -162967.50, -162533.86, -162353.20, -162605.45, -169723.98, -169637.33, -131016.47, -169631.72, 0.00, 0.00, 0.00
2992.0, -163300.94, -162564.25, -162386.73, -162599.38, -169725.97, -169639.28, -131060.43, -169633.64, 0.00, 0.00, 0.00
2996.0, -163426.81, -162590.20, -162429.39, -162643.30, -169742.45, -169655.80, -131171.34, -169650.11, 0.00, 0.00, 0.00
3000.0, -163358.20, -162552.66, -162383.42, -162622.53, -169737.70, -169651.02, -131187.30, -169645.38, 0.00, 0.00, 0.00
3004.0, -163227.28, -162526.92, -162326.44, -162601.22, -169714.73, -169628.03, -131128.11, -169622.23, 0.00, 0.00, 0.00
3008.0, -163171.59, -162551.53, -162363.16, -162577.89, -169715.16, -169628.48, -131156.28, -169622.44, 0.00, 0.00, 0.00
3012.0, -163187.27, -162584.02, -162412.47, -162626.80, -169734.69, -169648.02, -131271.03, -169642.17, 0.00, 0.00, 0.00
3016.0, -163136.58, -162553.25, -162385.55, -162618.45, -169735.39, -169648.70, -131309.34, -169642.97, 544.00, 432.00, 7712.00
3020.0, -163007.56, -162520.48, -162323.55, -162600.28, -169713.27, -169626.41, -131253.48, -169620.47, 0.00, 0.00, 0.00
3024.0, -162934.02, -162544.73, -162368.25, -162574.20, -169707.45, -169620.61, -131259.98, -169614.67, 0.00, 0.00, 0.00
3028.0, -162947.14, -162582.20, -162423.66, -162612.83, -169724.75, -169637.89, -131369.89, -169632.05, 0.00, 0.00, 0.00
3032.0, -162915.84, -162559.92, -162416.28, -162619.75, -169729.34, -169642.45, -131429.53, -169636.80, 0.00, 0.00, 0.00
3036.0, -162793.50, -162514.19, -162332.88, -162592.16, -169707.48, -169620.59, -131381.81, -169614.89, 0.00, 0.00, 0.00
3040.0, -162700.00, -162510.41, -162348.36, -162567.19, -169693.88, -169606.94, -131365.98, -169602.11, 0.00, 0.00, 0.00
3044.0, -162705.89, -162531.23, -162404.78, -162595.80, -169710.02, -169623.11, -131466.45, -169618.64, 0.00, 0.00, 0.00
3048.0, -162595.34, -162530.30, -162413.84, -162619.27, -169722.28, -169635.39, -131543.13, -169630.52, 0.00, 0.00, 0.00
3052.0, -162326.09, -162504.63, -162331.69, -162595.50, -169705.53, -169618.58, -131496.77, -169612.72, 0.00, 0.00, 0.00
3056.0, -162354.44, -162501.00, -162327.28, -162563.92, -169686.14, -169599.05, -131447.52, -169593.63, 560.00, 400.00, 7680.00
3060.0, -162537.75, -162505.22, -162361.66, -162559.67, -169695.75, -169608.78, -131514.69, -169603.48, 0.00, 0.00, 0.00
3064.0, -162722.58, -162514.52, -162370.08, -162585.44, -169709.55, -169622.44, -131590.84, -169616.97, 0.00, 0.00, 0.00
3068.0, -162799.03, -162486.81, -162301.36, -162573.31, -169694.91, -169607.80, -131553.44, -169601.86, 0.00, 0.00, 0.00
3072.0, -162872.48, -162474.67, -162301.64, -162555.58, -169672.13, -169584.95, -131485.27, -169578.97, 0.00, 0.00, 0.00
3076.0, -163215.22, -162523.27, -162331.23, -162547.25, -169678.91, -169591.69, -131539.83, -169585.66, 0.00, 0.00, 0.00
3080.0, -163374.11, -162544.25, -162367.33, -162588.91, -169696.45, -169609.23, -131643.77, -169603.25, 0.00, 0.00, 0.00
3084.0, -163294.11, -162495.52, -162313.56, -162565.66, -169687.58, -169600.25, -131644.48, -169594.44, 0.00, 0.00, 0.00
3088.0, -163166.48, -162476.13, -162291.89, -162551.17, -169663.95, -169576.63, -131587.44, -169570.94, 0.00, 0.00, 0.00
3092.0, -163127.88, -162474.73, -162341.66, -162533.81, -169666.70, -169579.42, -131636.33, -169573.97, 0.00, 0.00, 0.00
3096.0, -163142.72, -162502.50, -162388.08, -162584.34, -169687.20, -169599.98, -131749.25, -169594.61, 560.00, 400.00, 7728.00
3100.0, -163076.88, -162491.61, -162343.75, -162568.02, -169683.28, -169596.09, -131768.16, -169590.33, 0.00, 0.00, 0.00
3104.0, -162945.03, -162469.81, -162277.41, -162547.52, -169659.77, -169572.47, -131706.58, -169566.36, 0.00, 0.00, 0.00
3108.0, -162885.67, -162487.44, -162317.47, -162516.89, -169655.77, -169568.33, -131728.50, -169562.36, 0.00, 0.00, 0.00
3112.0, -162901.78, -162518.28, -162369.13, -162565.73, -169675.48, -169588.09, -131840.22, -169582.14, 0.00, 0.00, 0.00
3116.0, -162857.39, -162493.64, -162346.91, -162563.58, -169678.36, -169590.88, -131883.58, -169584.98, 0.00, 0.00, 0.00
3120.0, -162732.31, -162464.97, -162262.17, -162543.05, -169656.23, -169568.70, -131830.58, -169562.81, 0.00, 0.00, 0.00
3124.0, -162654.41, -162474.67, -162286.64, -162514.48, -169647.67, -169560.13, -131829.41, -169554.67, 0.00, 0.00, 0.00
3128.0, -162664.13, -162519.08, -162344.02, -162551.52, -169664.22, -169576.75, -131933.31, -169571.44, 0.00, 0.00, 0.00
3132.0, -162522.70, -162499.95, -162340.36, -162562.41, -169671.73, -169584.25, -131993.78, -169578.92, 0.00, 0.00, 0.00
3136.0, -162272.47, -162446.75, -162262.48, -162534.09, -169651.39, -169563.80, -131934.97, -169557.80, 560.00, 400.00, 7728.00
3140.0, -162323.41, -162445.45, -162271.73, -162508.59, -169635.83, -169548.22, -131896.13, -169542.58, 0.00, 0.00, 0.00
3144.0, -162515.30, -162457.44, -162306.27, -162512.20, -169649.94, -169562.36, -131975.73, -169556.89, 0.00, 0.00, 0.00
3148.0, -162688.66, -162461.06, -162304.69, -162532.36, -169661.89, -169574.28, -132037.34, -169568.47, 0.00, 0.00, 0.00
3152.0, -162754.42, -162431.84, -162249.25, -162523.70, -169642.89, -169555.25, -131984.75, -169549.11, 0.00, 0.00, 0.00
3156.0, -162853.13, -162430.30, -162255.89, -162500.42, -169625.13, -169537.44, -131926.89, -169531.36, 0.00, 0.00, 0.00
3160.0, -163214.53, -162475.70, -162281.45, -162497.16, -169636.23, -169548.61, -131996.20, -169542.52, 0.00, 0.00, 0.00
3164.0, -163327.67, -162488.27, -162310.03, -162535.63, -169653.00, -169565.41, -132089.69, -169559.36, 0.00, 0.00, 0.00
3168.0, -163230.66, -162444.45, -162250.91, -162517.38, -169639.98, -169552.33, -132072.52, -169546.22, 0.00, 0.00, 0.00
3172.0, -163103.31, -162432.36, -162255.38, -162499.39, -169617.44, -169529.69, -132017.05, -169523.80, 0.00, 0.00, 0.00
3176.0, -163074.64, -162471.36, -162303.09, -162485.70, -169621.28, -169533.48, -132077.23, -169527.19, 560.00, 416.00, 7744.00
3180.0, -163085.86, -162507.95, -162343.16, -162534.55, -169641.38, -169553.53, -132184.48, -169547.30, 0.00, 0.00, 0.00
3184.0, -163012.77, -162455.06, -162290.69, -162517.25, -169635.66, -169547.78, -132192.30, -169541.64, 0.00, 0.00, 0.00
3188.0, -162886.30, -162423.70, -162232.28, -162497.88, -169612.39, -169524.36, -132134.25, -169518.33, 0.00, 0.00, 0.00
3192.0, -162840.30, -162447.27, -162277.17, -162475.08, -169613.72, -169525.75, -132172.31, -169519.58, 0.00, 0.00, 0.00
3196.0, -162855.50, -162492.80, -162326.09, -162524.83, -169633.69, -169545.67, -132284.08, -169539.47, 0.00, 0.00, 0.00
3200.0, -162797.19, -162451.48, -162289.34, -162512.42, -169630.20, -169542.16, -132311.89, -169536.13, 0.00, 0.00, 0.00
3204.0, -162668.08, -162413.52, -162217.80, -162493.83, -169606.28, -169518.22, -132253.44, -169512.39, 0.00, 0.00, 0.00
3208.0, -162603.89, -162431.81, -162241.52, -162464.52, -169600.73, -169512.58, -132268.34, -169507.11, 0.00, 0.00, 0.00
3212.0, -162614.44, -162469.66, -162291.89, -162509.84, -169619.58, -169531.47, -132378.92, -169526.08, 0.00, 0.00, 0.00
3216.0, -162431.03, -162440.41, -162275.97, -162510.52, -169623.77, -169535.55, -132425.16, -169530.02, 576.00, 384.00, 7760.00
3220.0, -162223.75, -162395.95, -162214.00, -162489.11, -169601.77, -169513.55, -132356.61, -169507.39, 0.00, 0.00, 0.00
3224.0, -162302.27, -162405.28, -162241.70, -162463.30, -169590.14, -169501.92, -132328.69, -169496.22, 0.00, 0.00, 0.00
3228.0, -162499.41, -162422.25, -162276.61, -162478.72, -169604.36, -169516.05, -132412.72, -169510.42, 0.00, 0.00, 0.00
3232.0, -162657.75, -162418.92, -162261.48, -162488.06, -169612.97, -169524.70, -132458.47, -169518.75, 0.00, 0.00, 0.00
3236.0, -162711.19, -162389.48, -162198.69, -162481.70, -169594.13, -169505.92, -132392.53, -169499.67, 0.00, 0.00, 0.00
3240.0, -162828.67, -162393.02, -162215.23, -162455.30, -169577.69, -169489.47, -132345.55, -169483.23, 0.00, 0.00, 0.00
3244.0, -163197.28, -162434.13, -162251.02, -162464.56, -169591.06, -169502.86, -132426.45, -169496.53, 0.00, 0.00, 0.00
3248.0, -163285.91, -162437.36, -162272.25, -162495.44, -169604.97, -169516.66, -132511.66, -169510.45, 0.00, 0.00, 0.00
3252.0, -163180.95, -162394.11, -162207.00, -162470.48, -169588.63, -169500.17, -132481.89, -169493.86, 0.00, 0.00, 0.00
3256.0, -163063.84, -162384.80, -162212.45, -162448.94, -169569.06, -169480.63, -132437.44, -169474.61, 528.00, 416.00, 7744.00
3260.0, -163049.89, -162392.92, -162261.80, -162450.11, -169577.47, -169488.95, -132513.94, -169483.13, 0.00, 0.00, 0.00
3264.0, -163053.13, -162411.39, -162292.92, -162492.77, -169595.36, -169506.95, -132611.31, -169501.08, 0.00, 0.00, 0.00
3268.0, -162962.66, -162390.33, -162225.63, -162465.23, -169586.36, -169498.03, -132599.16, -169491.69, 0.00, 0.00, 0.00
3272.0, -162837.45, -162380.61, -162189.19, -162450.89, -169565.06, -169476.53, -132543.06, -169470.00, 0.00, 0.00, 0.00
3276.0, -162806.50, -162420.78, -162236.38, -162438.80, -169568.63, -169480.17, -132594.48, -169473.53, 0.00, 0.00, 0.00
3280.0, -162821.44, -162447.67, -162281.06, -162489.42, -169586.80, -169498.33, -132705.00, -169491.91, 0.00, 0.00, 0.00
3284.0, -162751.81, -162397.31, -162233.81, -162467.30, -169580.73, -169492.09, -132715.84, -169485.92, 0.00, 0.00, 0.00
3288.0, -162623.17, -162373.13, -162183.72, -162442.45, -169558.14, -169469.56, -132655.56, -169463.36, 0.00, 0.00, 0.00
3292.0, -162574.31, -162376.16, -162223.86, -162420.42, -169556.95, -169468.44, -132687.14, -169462.78, 0.00, 0.00, 0.00
3296.0, -162585.41, -162402.14, -162271.25, -162470.58, -169577.53, -169488.95, -132796.31, -169483.33, 544.00, 416.00, 7728.00
3300.0, -162389.86, -162370.08, -162238.70, -162463.11, -169578.34, -169489.61, -132823.58, -169483.70, 0.00, 0.00, 0.00
3304.0, -162164.47, -162350.19, -162168.73, -162447.25, -169553.94, -169465.20, -132750.58, -169458.66, 0.00, 0.00, 0.00
3308.0, -162254.97, -162366.44, -162198.44, -162407.56, -169545.27, -169456.50, -132739.66, -169450.38, 0.00, 0.00, 0.00
3312.0, -162459.27, -162385.06, -162237.22, -162431.63, -169562.98, -169474.23, -132829.30, -169468.34, 0.00, 0.00, 0.00
3316.0, -162608.75, -162368.39, -162211.13, -162438.34, -169568.17, -169479.45, -132862.11, -169473.30, 0.00, 0.00, 0.00
3320.0, -162655.94, -162335.55, -162153.14, -162427.48, -169544.61, -169455.83, -132787.55, -169449.42, 0.00, 0.00, 0.00
3324.0, -162809.92, -162347.95, -162162.42, -162405.22, -169531.34, -169442.47, -132756.84, -169436.19, 0.00, 0.00, 0.00
3328.0, -163171.78, -162385.19, -162197.28, -162423.66, -169548.30, -169459.55, -132849.64, -169453.20, 0.00, 0.00, 0.00
3332.0, -163217.33, -162378.83, -162204.56, -162443.00, -169557.52, -169468.70, -132922.22, -169462.36, 0.00, 0.00, 0.00
3336.0, -163101.59, -162341.31, -162148.78, -162418.55, -169538.27, -169449.33, -132879.58, -169442.88, 560.00, 368.00, 7712.00
3340.0, -162994.91, -162347.94, -162163.89, -162393.69, -169520.23, -169431.25, -132843.23, -169424.70, 0.00, 0.00, 0.00
3344.0, -162992.25, -162394.36, -162206.02, -162406.78, -169534.05, -169444.97, -132928.59, -169438.31, 0.00, 0.00, 0.00
3348.0, -162989.23, -162399.70, -162231.02, -162442.02, -169548.58, -169459.50, -133017.17, -169453.08, 0.00, 0.00, 0.00
3352.0, -162890.33, -162335.13, -162162.97, -162417.78, -169534.72, -169445.64, -132992.47, -169439.05, 0.00, 0.00, 0.00
3356.0, -162770.50, -162335.44, -162151.50, -162399.97, -169517.53, -169428.34, -132940.44, -169421.81, 0.00, 0.00, 0.00
3360.0, -162750.41, -162359.47, -162197.08, -162397.88, -169525.53, -169436.34, -133008.23, -169429.95, 0.00, 0.00, 0.00
3364.0, -162758.09, -162377.17, -162233.34, -162444.19, -169542.64, -169453.48, -133109.48, -169447.30, 0.00, 0.00, 0.00
3368.0, -162674.69, -162338.70, -162173.28, -162416.08, -169532.45, -169443.31, -133103.66, -169436.88, 0.00, 0.00, 0.00
3372.0, -162549.34, -162321.41, -162136.67, -162392.66, -169509.77, -169420.61, -133047.77, -169414.39, 0.00, 0.00, 0.00
3376.0, -162513.88, -162356.78, -162180.36, -162373.81, -169512.22, -169423.11, -133095.89, -169417.02, 0.00, 0.00, 0.00
3380.0, -162506.47, -162390.06, -162225.42, -162426.03, -169532.75, -169443.67, -133204.45, -169437.69, 528.00, 400.00, 7696.00
3384.0, -162255.08, -162340.69, -162178.13, -162410.27, -169528.95, -169439.73, -133213.55, -169433.53, 0.00, 0.00, 0.00
3388.0, -162138.70, -162307.05, -162121.53, -162396.34, -169503.94, -169414.61, -133135.14, -169408.31, 0.00, 0.00, 0.00
3392.0, -162259.27, -162317.47, -162153.08, -162364.66, -169500.84, -169411.44, -133138.56, -169405.14, 0.00, 0.00, 0.00
3396.0, -162458.19, -162371.45, -162186.47, -162391.47, -169519.42, -169430.16, -133228.17, -169423.44, 0.00, 0.00, 0.00
3400.0, -162595.80, -162333.09, -162148.36, -162390.11, -169519.25, -169429.81, -133246.44, -169423.13, 0.00, 0.00, 0.00
3404.0, -162639.31, -162300.45, -162100.95, -162381.53, -169494.30, -169404.80, -133167.16, -169398.25, 0.00, 0.00, 0.00
3408.0, -162861.53, -162312.23, -162136.42, -162357.61, -169486.25, -169396.84, -133150.50, -169390.39, 0.00, 0.00, 0.00
3412.0, -163171.66, -162339.39, -162182.83, -162387.11, -169503.08, -169413.64, -133249.08, -169407.16, 0.00, 0.00, 0.00
3416.0, -163165.67, -162324.02, -162177.64, -162395.39, -169507.17, -169417.61, -133303.47, -169411.23, 0.00, 0.00, 0.00
3420.0, -163043.98, -162289.84, -162099.45, -162370.89, -169486.48, -169396.91, -133251.16, -169390.14, 512.00, 400.00, 7760.00
3424.0, -162946.36, -162301.05, -162122.83, -162348.84, -169474.86, -169385.33, -133227.66, -169378.45, 0.00, 0.00, 0.00
3428.0, -162949.59, -162346.81, -162179.02, -162371.02, -169490.75, -169401.11, -133321.00, -169394.28, 0.00, 0.00, 0.00
3432.0, -162936.55, -162342.44, -162192.25, -162396.89, -169503.94, -169414.39, -133396.41, -169407.75, 0.00, 0.00, 0.00
3436.0, -162827.22, -162292.19, -162116.09, -162371.94, -169487.81, -169398.20, -133358.38, -169391.34, 0.00, 0.00, 0.00
3440.0, -162721.56, -162285.08, -162108.45, -162348.14, -169469.28, -169379.55, -133320.27, -169372.95, 0.00, 0.00, 0.00
3444.0, -162715.70, -162298.73, -162156.22, -162358.69, -169479.34, -169389.53, -133401.80, -169383.33, 0.00, 0.00, 0.00
3448.0, -162715.13, -162311.91, -162184.16, -162397.80, -169494.81, -169405.05, -133492.48, -169398.75, 0.00, 0.00, 0.00
3452.0, -162618.38, -162285.19, -162112.59, -162362.70, -169481.72, -169391.92, -133471.06, -169385.09, 0.00, 0.00, 0.00
3456.0, -162496.33, -162270.73, -162089.03, -162342.92, -169459.81, -169370.05, -133416.19, -169363.45, 0.00, 0.00, 0.00
3460.0, -162472.39, -162298.78, -162144.52, -162339.63, -169466.83, -169377.02, -133475.61, -169370.88, 528.00, 400.00, 7776.00
3464.0, -162472.48, -162319.50, -162185.22, -162386.78, -169486.19, -169396.31, -133579.47, -169390.44, 0.00, 0.00, 0.00
3468.0, -162225.92, -162264.25, -162126.66, -162362.34, -169475.75, -169385.89, -133575.61, -169379.39, 0.00, 0.00, 0.00
3472.0, -162055.70, -162251.75, -162074.75, -162348.69, -169454.42, -169364.44, -133500.95, -169357.31, 0.00, 0.00, 0.00
3476.0, -162187.34, -162285.44, -162113.42, -162318.56, -169452.66, -169362.78, -133519.45, -169356.02, 0.00, 0.00, 0.00
3480.0, -162393.08, -162300.73, -162145.36, -162349.52, -169470.88, -169381.05, -133608.70, -169374.34, 0.00, 0.00, 0.00
3484.0, -162514.14, -162266.44, -162097.75, -162341.86, -169469.95, -169380.06, -133609.66, -169373.05, 0.00, 0.00, 0.00
3488.0, -162550.86, -162256.31, -162063.98, -162331.28, -169446.48, -169356.39, -133525.05, -169349.59, 0.00, 0.00, 0.00
3492.0, -162785.78, -162259.94, -162078.73, -162310.06, -169442.06, -169351.98, -133526.44, -169345.39, 0.00, 0.00, 0.00
3496.0, -163109.30, -162284.52, -162120.86, -162347.83, -169460.23, -169370.22, -133629.81, -169363.55, 0.00, 0.00, 0.00
3500.0, -163094.13, -162274.38, -162101.47, -162343.13, -169462.73, -169372.70, -133672.08, -169365.83, 544.00, 368.00, 7728.00
3504.0, -162966.11, -162245.00, -162048.59, -162323.22, -169440.45, -169350.31, -133615.69, -169343.16, 0.00, 0.00, 0.00
3508.0, -162884.75, -162257.77, -162082.17, -162299.61, -169431.33, -169341.09, -133608.55, -169334.08, 0.00, 0.00, 0.00
3512.0, -162896.92, -162292.09, -162131.53, -162335.11, -169447.61, -169357.58, -133711.17, -169350.58, 0.00, 0.00, 0.00
3516.0, -162872.02, -162279.02, -162131.23, -162349.56, -169454.83, -169364.73, -133773.89, -169357.84, 0.00, 0.00, 0.00
3520.0, -162751.22, -162242.14, -162048.84, -162321.61, -169435.53, -169345.28, -133723.69, -169338.17, 0.00, 0.00, 0.00
3524.0, -162654.17, -162234.50, -162046.97, -162285.06, -169421.70, -169331.38, -133699.17, -169324.50, 0.00, 0.00, 0.00
3528.0, -162655.31, -162286.27, -162092.36, -162306.05, -169436.92, -169346.64, -133791.59, -169339.41, 0.00, 0.00, 0.00
3532.0, -162646.42, -162297.03, -162110.02, -162336.44, -169448.97, -169358.64, -133873.63, -169351.55, 0.00, 0.00, 0.00
3536.0, -162542.39, -162236.67, -162046.88, -162314.05, -169431.17, -169340.83, -133840.77, -169333.72, 0.00, 0.00, 0.00
3540.0, -162429.58, -162221.73, -162058.14, -162292.19, -169411.64, -169321.41, -133794.34, -169315.06, 528.00, 400.00, 7744.00
3544.0, -162419.45, -162233.97, -162108.17, -162298.45, -169423.44, -169333.09, -133869.11, -169327.27, 0.00, 0.00, 0.00
3548.0, -162379.14, -162247.98, -162138.47, -162339.95, -169440.44, -169350.02, -133963.13, -169344.14, 0.00, 0.00, 0.00
3552.0, -162089.77, -162211.23, -162068.17, -162311.30, -169428.44, -169338.05, -133936.86, -169330.91, 0.00, 0.00, 0.00
3556.0, -162032.81, -162213.59, -162036.48, -162295.47, -169408.41, -169317.91, -133863.52, -169310.86, 0.00, 0.00, 0.00
3560.0, -162188.61, -162225.14, -162066.77, -162277.53, -169411.67, -169321.14, -133899.78, -169314.48, 0.00, 0.00, 0.00
3564.0, -162390.67, -162238.17, -162091.88, -162308.64, -169429.41, -169338.94, -133984.67, -169332.20, 0.00, 0.00, 0.00
3568.0, -162494.41, -162221.84, -162035.30, -162300.25, -169421.55, -169331.05, -133968.44, -169323.88, 0.00, 0.00, 0.00
3572.0, -162541.72, -162195.83, -162015.58, -162288.77, -169395.81, -169305.19, -133885.97, -169297.89, 0.00, 0.00, 0.00
3576.0, -162824.67, -162227.59, -162032.75, -162260.72, -169393.72, -169303.02, -133904.52, -169295.73, 0.00, 0.00, 0.00
3580.0, -163087.13, -162258.23, -162075.72, -162305.64, -169414.28, -169323.59, -134010.44, -169316.41, 496.00, 384.00, 7712.00
3584.0, -163040.50, -162221.88, -162044.23, -162293.80, -169412.83, -169322.08, -134035.05, -169314.81, 0.00, 0.00, 0.00
3588.0, -162907.75, -162197.64, -162006.94, -162276.66, -169390.31, -169299.53, -133968.73, -169292.31, 0.00, 0.00, 0.00
3592.0, -162839.97, -162216.64, -162044.02, -162248.53, -169383.70, -169292.91, -133977.84, -169285.58, 0.00, 0.00, 0.00
3596.0, -162854.92, -162262.73, -162093.64, -162292.17, -169404.06, -169313.36, -134084.06, -169305.88, 0.00, 0.00, 0.00
3600.0, -162819.78, -162236.27, -162082.27, -162296.38, -169408.47, -169317.75, -134133.50, -169310.48, 0.00, 0.00, 0.00
3604.0, -162696.13, -162193.28, -162006.48, -162272.61, -169386.30, -169295.44, -134077.81, -169288.06, 0.00, 0.00, 0.00
3608.0, -162612.95, -162189.44, -162007.70, -162238.83, -169375.91, -169284.95, -134067.48, -169277.78, 0.00, 0.00, 0.00
3612.0, -162622.61, -162212.89, -162053.53, -162274.31, -169392.41, -169301.47, -134168.08, -169294.50, 0.00, 0.00, 0.00
3616.0, -162599.97, -162211.61, -162055.97, -162291.70, -169403.17, -169312.38, -134231.83, -169305.25, 0.00, 0.00, 0.00
3620.0, -162482.45, -162182.22, -161989.86, -162267.56, -169382.59, -169291.70, -134182.92, -169284.22, 544.00, 416.00, 7696.00
3624.0, -162378.73, -162186.11, -162011.47, -162241.86, -169365.23, -169274.22, -134147.81, -169267.34, 0.00, 0.00, 0.00
3628.0, -162378.69, -162220.73, -162061.73, -162259.89, -169379.22, -169288.22, -134232.66, -169281.53, 0.00, 0.00, 0.00
3632.0, -162310.88, -162225.25, -162084.16, -162293.64, -169392.83, -169301.81, -134316.34, -169295.17, 0.00, 0.00, 0.00
3636.0, -162022.66, -162177.38, -162007.31, -162265.30, -169380.06, -169288.89, -134277.98, -169281.52, 0.00, 0.00, 0.00
3640.0, -162007.88, -162166.22, -161995.09, -162241.45, -169359.97, -169268.70, -134211.97, -169261.58, 0.00, 0.00, 0.00
3644.0, -162171.80, -162201.73, -162032.33, -162229.45, -169368.33, -169277.20, -134259.89, -169269.53, 0.00, 0.00, 0.00
3648.0, -162362.94, -162225.20, -162048.39, -162257.52, -169384.06, -169292.94, -134337.06, -169285.27, 0.00, 0.00, 0.00
3652.0, -162457.09, -162165.81, -161984.70, -162248.98, -169371.64, -169280.33, -134305.45, -169272.53, 0.00, 0.00, 0.00
3656.0, -162514.25, -162156.41, -161972.73, -162233.16, -169346.31, -169254.89, -134225.38, -169247.42, 0.00, 0.00, 0.00
3660.0, -162838.38, -162174.69, -161996.61, -162220.16, -169350.31, -169259.05, -134261.67, -169251.58, 544.00, 448.00, 7696.00
3664.0, -163045.83, -162200.14, -162038.58, -162266.42, -169371.61, -169280.34, -134364.84, -169272.80, 0.00, 0.00, 0.00
3668.0, -162980.08, -162172.94, -161992.08, -162243.27, -169366.92, -169275.59, -134372.94, -169267.72, 0.00, 0.00, 0.00
3672.0, -162850.27, -162143.91, -161953.30, -162222.39, -169340.39, -169248.91, -134308.95, -169241.02, 0.00, 0.00, 0.00
3676.0, -162796.67, -162172.42, -162002.67, -162200.48, -169339.05, -169247.61, -134330.98, -169239.78, 0.00, 0.00, 0.00
3680.0, -162811.47, -162205.73, -162051.42, -162248.02, -169359.55, -169268.09, -134437.33, -169260.45, 0.00, 0.00, 0.00
3684.0, -162760.19, -162175.47, -162022.89, -162242.88, -169360.45, -169268.95, -134467.44, -169261.39, 0.00, 0.00, 0.00
3688.0, -162632.47, -162144.72, -161947.56, -162222.39, -169337.02, -169245.41, -134404.52, -169237.70, 0.00, 0.00, 0.00
3692.0, -162562.36, -162158.17, -161974.70, -162191.98, -169329.81, -169238.28, -134406.67, -169230.34, 0.00, 0.00, 0.00
3696.0, -162576.64, -162199.61, -162029.22, -162236.02, -169348.80, -169257.14, -134511.31, -169249.30, 0.00, 0.00, 0.00
3700.0, -162544.70, -162177.92, -162021.05, -162242.48, -169353.95, -169262.42, -134562.89, -169254.63, 544.00, 400.00, 7776.00
3704.0, -162423.89, -162138.25, -161945.25, -162214.06, -169331.80, -169240.20, -134508.69, -169232.42, 0.00, 0.00, 0.00
3708.0, -162335.03, -162133.33, -161956.72, -162183.33, -169319.58, -169227.88, -134489.53, -169220.52, 0.00, 0.00, 0.00
3712.0, -162337.78, -162190.78, -162002.58, -162210.61, -169335.78, -169244.13, -134581.23, -169236.67, 0.00, 0.00, 0.00
3716.0, -162227.33, -162188.66, -162010.84, -162234.14, -169348.05, -169256.44, -134649.20, -169249.03, 0.00, 0.00, 0.00
3720.0, -161963.34, -162122.53, -161942.70, -162214.09, -169330.59, -169238.91, -134595.66, -169230.80, 0.00, 0.00, 0.00
3724.0, -161988.70, -162128.19, -161943.17, -162187.19, -169311.44, -169219.67, -134538.98, -169211.69, 0.00, 0.00, 0.00
3728.0, -162173.45, -162152.00, -161972.67, -162184.00, -169321.31, -169229.50, -134602.14, -169221.66, 0.00, 0.00, 0.00
3732.0, -162362.08, -162148.75, -161981.66, -162207.55, -169334.31, -169242.47, -134669.97, -169234.64, 0.00, 0.00, 0.00
3736.0, -162436.41, -162120.92, -161920.50, -162198.38, -169319.23, -169227.36, -134621.11, -169219.27, 0.00, 0.00, 0.00
3740.0, -162519.33, -162109.78, -161918.64, -162176.23, -169296.55, -169204.47, -134548.09, -169196.78, 480.00, 416.00, 7696.00
3744.0, -162867.34, -162145.52, -161938.78, -162163.33, -169304.89, -169212.89, -134596.20, -169204.47, 0.00, 0.00, 0.00
3748.0, -163003.64, -162183.98, -161973.47, -162206.94, -169322.53, -169230.61, -134692.02, -169222.17, 0.00, 0.00, 0.00
3752.0, -162922.50, -162127.66, -161924.23, -162187.41, -169312.20, -169220.16, -134686.16, -169211.89, 0.00, 0.00, 0.00
3756.0, -162793.47, -162105.00, -161910.72, -162172.20, -169289.69, -169197.48, -134623.64, -169189.48, 0.00, 0.00, 0.00
3760.0, -162758.27, -162111.20, -161951.06, -162155.17, -169293.98, -169201.73, -134667.73, -169193.95, 0.00, 0.00, 0.00
3764.0, -162773.13, -162136.91, -161996.41, -162207.66, -169313.66, -169221.50, -134774.28, -169213.81, 0.00, 0.00, 0.00
3768.0, -162707.84, -162112.30, -161953.52, -162189.17, -169308.58, -169216.42, -134788.22, -169208.44, 0.00, 0.00, 0.00
3772.0, -162579.39, -162084.16, -161891.47, -162167.06, -169284.80, -169192.58, -134723.86, -169184.30, 0.00, 0.00, 0.00
3776.0, -162520.89, -162112.13, -161920.55, -162145.63, -169284.84, -169192.55, -134740.53, -169184.34, 0.00, 0.00, 0.00
3780.0, -162537.14, -162145.97, -161970.33, -162191.42, -169302.70, -169210.50, -134846.02, -169202.34, 0.00, 0.00, 0.00
3784.0, -162490.89, -162121.05, -161948.27, -162186.95, -169303.50, -169211.14, -134879.72, -169203.11, 512.00, 336.00, 7760.00
3788.0, -162363.27, -162085.95, -161895.53, -162168.81, -169281.48, -169188.97, -134817.31, -169181.00, 0.00, 0.00, 0.00
3792.0, -162287.89, -162105.70, -161923.98, -162133.84, -169272.34, -169179.88, -134813.63, -169172.17, 0.00, 0.00, 0.00
3796.0, -162300.95, -162144.08, -161972.41, -162173.34, -169289.80, -169197.38, -134913.41, -169189.83, 0.00, 0.00, 0.00
3800.0, -162178.00, -162125.53, -161967.81, -162185.42, -169298.70, -169206.23, -134968.52, -169198.70, 0.00, 0.00, 0.00
3804.0, -161901.59, -162076.83, -161895.11, -162165.28, -169277.63, -169185.13, -134904.95, -169176.91, 0.00, 0.00, 0.00
3808.0, -161939.70, -162074.22, -161906.08, -162134.11, -169262.95, -169170.33, -134861.34, -169162.52, 0.00, 0.00, 0.00
3812.0, -162132.03, -162085.09, -161939.97, -162139.55, -169276.48, -169183.97, -134933.19, -169176.19, 0.00, 0.00, 0.00
3816.0, -162304.89, -162090.63, -161936.19, -162160.05, -169288.22, -169195.61, -134987.13, -169187.50, 0.00, 0.00, 0.00
3820.0, -162370.22, -162061.81, -161871.70, -162150.48, -169267.92, -169175.30, -134929.25, -169166.69, 0.00, 0.00, 0.00
3824.0, -162467.50, -162058.72, -161880.22, -162124.28, -169248.55, -169155.78, -134868.39, -169147.14, 528.00, 400.00, 7776.00
3828.0, -162828.31, -162107.70, -161910.20, -162121.89, -169258.44, -169165.59, -134932.20, -169156.97, 0.00, 0.00, 0.00
3832.0, -162949.52, -162118.50, -161938.27, -162160.41, -169274.16, -169181.39, -135021.94, -169172.80, 0.00, 0.00, 0.00
3836.0, -162854.89, -162068.89, -161878.44, -162138.20, -169261.34, -169168.41, -134999.55, -169159.83, 0.00, 0.00, 0.00
3840.0, -162731.02, -162051.39, -161874.75, -162119.16, -169241.86, -169148.77, -134940.30, -169140.56, 0.00, 0.00, 0.00
3844.0, -162705.58, -162070.89, -161920.38, -162108.50, -169248.61, -169155.61, -134996.23, -169147.20, 0.00, 0.00, 0.00
3848.0, -162714.84, -162126.39, -161958.48, -162155.08, -169266.73, -169173.80, -135095.14, -169165.13, 0.00, 0.00, 0.00
3852.0, -162639.09, -162076.34, -161904.66, -162140.95, -169260.72, -169167.63, -135093.20, -169158.94, 0.00, 0.00, 0.00
3856.0, -162513.47, -162047.73, -161853.42, -162121.84, -169238.19, -169145.08, -135029.81, -169136.50, 0.00, 0.00, 0.00
3860.0, -162471.83, -162056.44, -161887.89, -162100.03, -169238.75, -169145.64, -135064.70, -169137.09, 0.00, 0.00, 0.00
3864.0, -162486.42, -162113.64, -161933.94, -162151.50, -169258.84, -169165.86, -135168.66, -169156.98, 512.00, 400.00, 7712.00
3868.0, -162428.02, -162074.61, -161898.23, -162138.91, -169257.63, -169164.55, -135186.83, -169155.83, 0.00, 0.00, 0.00
3872.0, -162296.34, -162036.66, -161848.27, -162120.59, -169232.42, -169139.25, -135119.73, -169130.59, 0.00, 0.00, 0.00
3876.0, -162234.80, -162030.73, -161897.81, -162086.73, -169227.11, -169133.78, -135131.95, -169126.02, 0.00, 0.00, 0.00
3880.0, -162248.61, -162057.77, -161950.45, -162134.67, -169248.16, -169154.89, -135234.52, -169147.25, 0.00, 0.00, 0.00
3884.0, -162072.69, -162046.55, -161929.70, -162135.19, -169251.14, -169157.86, -135270.19, -169149.75, 0.00, 0.00, 0.00
3888.0, -161847.45, -162019.97, -161840.22, -162117.31, -169226.95, -169133.56, -135200.42, -169124.58, 0.00, 0.00, 0.00
3892.0, -161924.91, -162031.56, -161844.78, -162084.34, -169216.22, -169122.88, -135173.20, -169113.89, 0.00, 0.00, 0.00
3896.0, -162124.08, -162056.75, -161880.77, -162101.34, -169233.19, -169139.88, -135253.17, -169131.11, 0.00, 0.00, 0.00
3900.0, -162286.44, -162045.16, -161866.95, -162109.78, -169239.53, -169146.17, -135294.48, -169137.19, 0.00, 0.00, 0.00
3904.0, -162338.45, -162008.08, -161820.39, -162096.66, -169218.59, -169125.08, -135222.03, -169115.89, 480.00, 384.00, 7792.00
3908.0, -162473.64, -162018.22, -161826.95, -162071.44, -169201.27, -169107.64, -135171.92, -169098.50, 0.00, 0.00, 0.00
3912.0, -162833.33, -162060.88, -161857.84, -162082.38, -169213.86, -169120.16, -135249.97, -169110.83, 0.00, 0.00, 0.00
3916.0, -162895.86, -162063.22, -161877.52, -162112.91, -169227.94, -169134.27, -135329.23, -169125.03, 0.00, 0.00, 0.00
3920.0, -162791.39, -162019.23, -161824.59, -162090.39, -169212.84, -169119.17, -135292.73, -169109.83, 0.00, 0.00, 0.00
3924.0, -162677.02, -162014.58, -161833.39, -162066.70, -169193.30, -169099.64, -135240.95, -169090.16, 0.00, 0.00, 0.00
3928.0, -162664.56, -162054.48, -161870.50, -162067.95, -169203.58, -169109.77, -135310.73, -169100.23, 0.00, 0.00, 0.00
3932.0, -162667.20, -162070.34, -161901.88, -162111.61, -169222.17, -169128.41, -135403.64, -169118.92, 0.00, 0.00, 0.00
3936.0, -162576.34, -162020.39, -161837.13, -162089.84, -169210.77, -169117.06, -135384.75, -169107.45, 0.00, 0.00, 0.00
3940.0, -162452.67, -162001.92, -161815.31, -162069.97, -169188.03, -169094.11, -135323.31, -169084.44, 0.00, 0.00, 0.00
3944.0, -162422.05, -162041.00, -161868.52, -162059.73, -169194.31, -169100.34, -135371.59, -169090.47, 496.00, 368.00, 7776.00
3948.0, -162435.64, -162070.70, -161911.94, -162109.53, -169213.30, -169119.39, -135471.69, -169109.73, 0.00, 0.00, 0.00
