%OpenBCI Raw EEG Data
%
%Sample Rate = 250.0 Hz
%First Column = Time (ms)
%Other Columns = EEG data in microvolts followed by Accel Data (in G) interleaved with Aux Data
0.0, 0.00, 0.00, 0.00, 0.00, 0.00, 0.00, 0.00, 0.00, -8517.33, 4544.85, -1491.93, -93750.01, 33743.42, 25092.83, -93750.01, -4759.56, 0.00, 0.00, 0.00
4.0, 3572.14, -187500.02, 12068.58, -187500.02, -187500.02, -187500.02, 4986.83, 22471.44, -8517.33, 4544.85, -1491.93, -93750.01, 33743.42, 25092.83, -93750.01, -4759.56, 0.00, 0.00, 0.00
8.0, 3572.14, -187500.02, 12068.58, -187500.02, -187500.02, -187500.02, 4986.83, 22471.44, -17050.07, 9077.58, -2999.76, -187500.02, 67506.31, 50176.91, -187500.02, -9536.82, 0.00, 0.00, 0.00
12.0, 3544.96, -187500.02, 12037.11, -187500.02, -187500.02, -187500.02, 4960.25, 22454.70, -17050.07, 9077.58, -2999.76, -187500.02, 67506.31, 50176.91, -187500.02, -9536.82, 0.00, 0.00, 0.00
16.0, 3544.96, -187500.02, 12037.11, -187500.02, -187500.02, -187500.02, 4960.25, 22454.70, -17052.97, 9070.70, -3000.48, -187500.02, 67562.15, 50245.40, -187500.02, -9536.89, 0.00, 0.00, 0.00
20.0, 3572.03, -187500.02, 12048.42, -187500.02, -187500.02, -187500.02, 4990.63, 22478.86, -17052.97, 9070.70, -3000.48, -187500.02, 67562.15, 50245.40, -187500.02, -9536.89, 0.00, 0.00, 0.00
24.0, 3572.03, -187500.02, 12048.42, -187500.02, -187500.02, -187500.02, 4990.63, 22478.86, -17056.46, 9073.38, -3004.92, -187500.02, 67476.43, 50158.88, -187500.02, -9539.17, 0.00, 0.00, 0.00
28.0, 3531.62, -187500.02, 12031.12, -187500.02, -187500.02, -187500.02, 4950.24, 22467.84, -17056.46, 9073.38, -3004.92, -187500.02, 67476.43, 50158.88, -187500.02, -9539.17, 0.00, 0.00, 0.00
32.0, 3531.62, -187500.02, 12031.12, -187500.02, -187500.02, -187500.02, 4950.24, 22467.84, -17068.89, 9055.27, -3014.33, -187500.02, 67576.38, 50252.89, -187500.02, -9546.38, 0.00, 0.00, 0.00
36.0, 3549.52, -187500.02, 12023.29, -187500.02, -187500.02, -187500.02, 4980.62, 22491.98, -17068.89, 9055.27, -3014.33, -187500.02, 67576.38, 50252.89, -187500.02, -9546.38, 0.00, 0.00, 0.00
40.0, 3549.52, -187500.02, 12023.29, -187500.02, -187500.02, -187500.02, 4980.62, 22491.98, -17057.04, 9063.61, -3007.09, -187500.02, 67453.36, 50141.87, -187500.02, -9538.56, 0.00, 0.00, 0.00
44.0, 3544.83, -187500.02, 12016.12, -187500.02, -187500.02, -187500.02, 4953.66, 22482.81, -17057.04, 9063.61, -3007.09, -187500.02, 67453.36, 50141.87, -187500.02, -9538.56, 0.00, 0.00, 0.00
48.0, 3544.83, -187500.02, 12016.12, -187500.02, -187500.02, -187500.02, 4953.66, 22482.81, -17063.81, 9058.13, -3014.87, -187500.02, 67552.18, 50225.35, -187500.02, -9546.85, 0.00, 0.00, 0.00
52.0, 3561.50, -187500.02, 12009.19, -187500.02, -187500.02, -187500.02, 4978.87, 22483.82, -17063.81, 9058.13, -3014.87, -187500.02, 67552.18, 50225.35, -187500.02, -9546.85, 0.00, 0.00, 0.00
56.0, 3561.50, -187500.02, 12009.19, -187500.02, -187500.02, -187500.02, 4978.87, 22483.82, -17049.40, 9075.63, -2999.89, -187500.02, 67427.90, 50123.38, -187500.02, -9528.48, 0.00, 0.00, 0.00
60.0, 3547.00, -187500.02, 12016.39, -187500.02, -187500.02, -187500.02, 4961.60, 22492.54, -17049.40, 9075.63, -2999.89, -187500.02, 67427.90, 50123.38, -187500.02, -9528.48, 0.00, 0.00, 0.00
64.0, 3547.00, -187500.02, 12016.39, -187500.02, -187500.02, -187500.02, 4961.60, 22492.54, -17071.75, 9051.92, -3020.39, -187500.02, 67576.01, 50247.10, -187500.02, -9549.36, 0.00, 0.00, 0.00
68.0, 3545.17, -187500.02, 12000.41, -187500.02, -187500.02, -187500.02, 4968.44, 22482.97, -17071.75, 9051.92, -3020.39, -187500.02, 67576.01, 50247.10, -187500.02, -9549.36, 0.00, 0.00, 0.00
72.0, 3545.17, -187500.02, 12000.41, -187500.02, -187500.02, -187500.02, 4968.44, 22482.97, -17057.89, 9063.68, -3003.05, -187500.02, 67431.81, 50133.13, -187500.02, -9538.81, 0.00, 0.00, 0.00
76.0, 3543.89, -187500.02, 12005.46, -187500.02, -187500.02, -187500.02, 4966.78, 22493.72, -17057.89, 9063.68, -3003.05, -187500.02, 67431.81, 50133.13, -187500.02, -9538.81, 0.00, 0.00, 0.00
80.0, 3543.89, -187500.02, 12005.46, -187500.02, -187500.02, -187500.02, 4966.78, 22493.72, -17068.75, 9049.35, -3013.53, -187500.02, 67554.23, 50227.00, -187500.02, -9550.12, 0.00, 0.00, 0.00
84.0, 3547.02, -187500.02, 11988.74, -187500.02, -187500.02, -187500.02, 4986.67, 22505.77, -17068.75, 9049.35, -3013.53, -187500.02, 67554.23, 50227.00, -187500.02, -9550.12, 0.00, 0.00, 0.00
88.0, 3547.02, -187500.02, 11988.74, -187500.02, -187500.02, -187500.02, 4986.67, 22505.77, -17040.10, 9077.00, -2980.74, -187500.02, 67407.18, 50123.45, -187500.02, -9518.22, 0.00, 0.00, 0.00
92.0, 3558.04, -187500.02, 12002.51, -187500.02, -187500.02, -187500.02, 4993.51, 22511.54, -17040.10, 9077.00, -2980.74, -187500.02, 67407.18, 50123.45, -187500.02, -9518.22, 0.00, 0.00, 0.00
96.0, 3558.04, -187500.02, 12002.51, -187500.02, -187500.02, -187500.02, 4993.51, 22511.54, -17054.22, 9062.67, -2996.09, -187500.02, 67496.56, 50179.93, -187500.02, -9537.31, 0.00, 0.00, 0.00
100.0, 3548.23, -187500.02, 11965.09, -187500.02, -187500.02, -187500.02, 4994.45, 22505.81, -17054.22, 9062.67, -2996.09, -187500.02, 67496.56, 50179.93, -187500.02, -9537.31, 0.00, 0.00, 0.00
104.0, 3548.23, -187500.02, 11965.09, -187500.02, -187500.02, -187500.02, 4994.45, 22505.81, -17038.67, 9072.10, -2980.31, -187500.02, 67345.16, 50066.30, -187500.02, -9521.37, 0.00, 0.00, 0.00
108.0, 3549.23, -187500.02, 11969.43, -187500.02, -187500.02, -187500.02, 4987.05, 22526.62, -17038.67, 9072.10, -2980.31, -187500.02, 67345.16, 50066.30, -187500.02, -9521.37, 0.00, 0.00, 0.00
112.0, 3549.23, -187500.02, 11969.43, -187500.02, -187500.02, -187500.02, 4987.05, 22526.62, -17067.21, 9044.25, -3009.30, -187500.02, 67501.64, 50180.87, -187500.02, -9547.23, 0.00, 0.00, 0.00
116.0, 3541.37, -187500.02, 11937.60, -187500.02, -187500.02, -187500.02, 4987.95, 22505.35, -17067.21, 9044.25, -3009.30, -187500.02, 67501.64, 50180.87, -187500.02, -9547.23, 0.00, 0.00, 0.00
120.0, 3541.37, -187500.02, 11937.60, -187500.02, -187500.02, -187500.02, 4987.95, 22505.35, -17030.87, 9077.49, -2973.07, -187500.02, 67346.85, 50073.52, -187500.02, -9509.97, 0.00, 0.00, 0.00
124.0, 3560.23, -187500.02, 11963.77, -187500.02, -187500.02, -187500.02, 5000.55, 22521.97, -17030.87, 9077.49, -2973.07, -187500.02, 67346.85, 50073.52, -187500.02, -9509.97, 0.00, 0.00, 0.00
128.0, 3560.23, -187500.02, 11963.77, -187500.02, -187500.02, -187500.02, 5000.55, 22521.97, -17055.23, 9052.37, -3001.48, -187500.02, 67456.09, 50144.91, -187500.02, -9546.47, 0.00, 0.00, 0.00
132.0, 3539.31, -187500.02, 11925.37, -187500.02, -187500.02, -187500.02, 4981.24, 22494.21, -17055.23, 9052.37, -3001.48, -187500.02, 67456.09, 50144.91, -187500.02, -9546.47, 0.00, 0.00, 0.00
136.0, 3539.31, -187500.02, 11925.37, -187500.02, -187500.02, -187500.02, 4981.24, 22494.21, -17032.25, 9064.03, -2981.90, -187500.02, 67360.82, 50094.77, -187500.02, -9531.81, 0.00, 0.00, 0.00
140.0, 3554.64, -187500.02, 11943.77, -187500.02, -187500.02, -187500.02, 4992.82, 22499.67, -17032.25, 9064.03, -2981.90, -187500.02, 67360.82, 50094.77, -187500.02, -9531.81, 0.00, 0.00, 0.00
144.0, 3554.64, -187500.02, 11943.77, -187500.02, -187500.02, -187500.02, 4992.82, 22499.67, -17060.55, 9041.24, -3014.85, -187500.02, 67489.44, 50177.90, -187500.02, -9560.51, 0.00, 0.00, 0.00
148.0, 3541.88, -187500.02, 11914.62, -187500.02, -187500.02, -187500.02, 4972.39, 22483.82, -17060.55, 9041.24, -3014.85, -187500.02, 67489.44, 50177.90, -187500.02, -9560.51, 0.00, 0.00, 0.00
152.0, 3541.88, -187500.02, 11914.62, -187500.02, -187500.02, -187500.02, 4972.39, 22483.82, -17035.56, 9067.34, -2991.33, -187500.02, 67418.70, 50143.54, -187500.02, -9538.12, 0.00, 0.00, 0.00
156.0, 3563.31, -187500.02, 11936.12, -187500.02, -187500.02, -187500.02, 4986.72, 22495.53, -17035.56, 9067.34, -2991.33, -187500.02, 67418.70, 50143.54, -187500.02, -9538.12, 0.00, 0.00, 0.00
160.0, 3563.31, -187500.02, 11936.12, -187500.02, -187500.02, -187500.02, 4986.72, 22495.53, -17049.78, 9062.54, -3007.90, -187500.02, 67467.17, 50154.83, -187500.02, -9554.92, 0.00, 0.00, 0.00
164.0, 3541.34, -187500.02, 11913.03, -187500.02, -187500.02, -187500.02, 4972.73, 22497.59, -17049.78, 9062.54, -3007.90, -187500.02, 67467.17, 50154.83, -187500.02, -9554.92, 0.00, 0.00, 0.00
168.0, 3541.34, -187500.02, 11913.03, -187500.02, -187500.02, -187500.02, 4972.73, 22497.59, -17036.81, 9071.68, -2992.56, -187500.02, 67416.46, 50137.40, -187500.02, -9531.74, 0.00, 0.00, 0.00
172.0, 3556.05, -187500.02, 11933.24, -187500.02, -187500.02, -187500.02, 4995.01, 22516.30, -17036.81, 9071.68, -2992.56, -187500.02, 67416.46, 50137.40, -187500.02, -9531.74, 0.00, 0.00, 0.00
176.0, 3556.05, -187500.02, 11933.24, -187500.02, -187500.02, -187500.02, 4995.01, 22516.30, -17056.37, 9061.06, -3011.94, -187500.02, 67436.30, 50131.00, -187500.02, -9545.78, 0.00, 0.00, 0.00
180.0, 3533.12, -187500.02, 11908.65, -187500.02, -187500.02, -187500.02, 4971.43, 22480.33, -17056.37, 9061.06, -3011.94, -187500.02, 67436.30, 50131.00, -187500.02, -9545.78, 0.00, 0.00, 0.00
184.0, 3533.12, -187500.02, 11908.65, -187500.02, -187500.02, -187500.02, 4971.43, 22480.33, -17048.95, 9065.06, -3000.57, -187500.02, 67439.08, 50161.49, -187500.02, -9532.64, 0.00, 0.00, 0.00
188.0, 3555.11, -187500.02, 11924.92, -187500.02, -187500.02, -187500.02, 5004.00, 22492.40, -17048.95, 9065.06, -3000.57, -187500.02, 67439.08, 50161.49, -187500.02, -9532.64, 0.00, 0.00, 0.00
192.0, 3555.11, -187500.02, 11924.92, -187500.02, -187500.02, -187500.02, 5004.00, 22492.40, -17053.91, 9065.46, -3002.84, -187500.02, 67404.73, 50110.33, -187500.02, -9535.28, 0.00, 0.00, 0.00
196.0, 3534.06, -187500.02, 11905.12, -187500.02, -187500.02, -187500.02, 4985.58, 22484.65, -17053.91, 9065.46, -3002.84, -187500.02, 67404.73, 50110.33, -187500.02, -9535.28, 0.00, 0.00, 0.00
200.0, 3534.06, -187500.02, 11905.12, -187500.02, -187500.02, -187500.02, 4985.58, 22484.65, -17050.36, 9054.92, -3000.88, -187500.02, 67458.86, 50180.52, -187500.02, -9531.74, 0.00, 0.00, 0.00
204.0, 3548.38, -187500.02, 11903.94, -187500.02, -187500.02, -187500.02, 5008.13, 22501.01, -17050.36, 9054.92, -3000.88, -187500.02, 67458.86, 50180.52, -187500.02, -9531.74, 0.00, 0.00, 0.00
208.0, 3548.38, -187500.02, 11903.94, -187500.02, -187500.02, -187500.02, 5008.13, 22501.01, -17045.98, 9059.47, -2995.76, -187500.02, 67383.98, 50098.55, -187500.02, -9532.55, 0.00, 0.00, 0.00
212.0, 3526.39, -187500.02, 11882.37, -187500.02, -187500.02, -187500.02, 4978.29, 22482.61, -17045.98, 9059.47, -2995.76, -187500.02, 67383.98, 50098.55, -187500.02, -9532.55, 0.00, 0.00, 0.00
216.0, 3526.39, -187500.02, 11882.37, -187500.02, -187500.02, -187500.02, 4978.29, 22482.61, -17056.53, 9037.28, -3007.29, -187500.02, 67418.67, 50138.74, -187500.02, -9549.20, 0.00, 0.00, 0.00
220.0, 3534.19, -187500.02, 11871.93, -187500.02, -187500.02, -187500.02, 4998.79, 22488.27, -17056.53, 9037.28, -3007.29, -187500.02, 67418.67, 50138.74, -187500.02, -9549.20, 0.00, 0.00, 0.00
224.0, 3534.19, -187500.02, 11871.93, -187500.02, -187500.02, -187500.02, 4998.79, 22488.27, -17047.81, 9043.90, -2993.81, -187500.02, 67334.41, 50056.98, -187500.02, -9542.65, 0.00, 0.00, 0.00
228.0, 3509.13, -187500.02, 11859.34, -187500.02, -187500.02, -187500.02, 4975.43, 22481.16, -17047.81, 9043.90, -2993.81, -187500.02, 67334.41, 50056.98, -187500.02, -9542.65, 0.00, 0.00, 0.00
232.0, 3509.13, -187500.02, 11859.34, -187500.02, -187500.02, -187500.02, 4975.43, 22481.16, -17064.21, 9020.14, -3008.68, -187500.02, 67431.95, 50146.79, -187500.02, -9561.96, 0.00, 0.00, 0.00
236.0, 3527.71, -187500.02, 11853.08, -187500.02, -187500.02, -187500.02, 5008.09, 22472.78, -17064.21, 9020.14, -3008.68, -187500.02, 67431.95, 50146.79, -187500.02, -9561.96, 0.00, 0.00, 0.00
240.0, 3527.71, -187500.02, 11853.08, -187500.02, -187500.02, -187500.02, 5008.09, 22472.78, -17049.29, 9038.58, -2989.70, -187500.02, 67303.56, 50035.96, -187500.02, -9542.34, 0.00, 0.00, 0.00
244.0, 3509.42, -187500.02, 11836.59, -187500.02, -187500.02, -187500.02, 4968.12, 22454.99, -17049.29, 9038.58, -2989.70, -187500.02, 67303.56, 50035.96, -187500.02, -9542.34, 0.00, 0.00, 0.00
248.0, 3509.42, -187500.02, 11836.59, -187500.02, -187500.02, -187500.02, 4968.12, 22454.99, -17070.12, 9006.50, -3027.63, -187500.02, 67450.43, 50164.71, -187500.02, -9583.96, 0.00, 0.00, 0.00
252.0, 3532.22, -187500.02, 11828.34, -187500.02, -187500.02, -187500.02, 4973.40, 22446.69, -17070.12, 9006.50, -3027.63, -187500.02, 67450.43, 50164.71, -187500.02, -9583.96, 0.00, 0.00, 0.00
256.0, 3532.22, -187500.02, 11828.34, -187500.02, -187500.02, -187500.02, 4973.40, 22446.69, -17039.29, 9046.18, -3002.80, -187500.02, 67296.49, 50033.11, -187500.02, -9553.09, 0.00, 0.00, 0.00
260.0, 3538.91, -187500.02, 11832.37, -187500.02, -187500.02, -187500.02, 4970.80, 22475.17, -17039.29, 9046.18, -3002.80, -187500.02, 67296.49, 50033.11, -187500.02, -9553.09, 0.00, 0.00, 0.00
264.0, 3538.91, -187500.02, 11832.37, -187500.02, -187500.02, -187500.02, 4970.80, 22475.17, -17061.98, 9035.00, -3026.47, -187500.02, 67463.87, 50169.45, -187500.02, -9575.73, 0.00, 0.00, 0.00
268.0, 3554.75, -187500.02, 11818.60, -187500.02, -187500.02, -187500.02, 4981.76, 22469.02, -17061.98, 9035.00, -3026.47, -187500.02, 67463.87, 50169.45, -187500.02, -9575.73, 0.00, 0.00, 0.00
272.0, 3554.75, -187500.02, 11818.60, -187500.02, -187500.02, -187500.02, 4981.76, 22469.02, -17035.40, 9077.60, -3000.03, -187500.02, 67319.27, 50057.04, -187500.02, -9545.09, 0.00, 0.00, 0.00
276.0, 3571.38, -187500.02, 11843.76, -187500.02, -187500.02, -187500.02, 4989.51, 22502.42, -17035.40, 9077.60, -3000.03, -187500.02, 67319.27, 50057.04, -187500.02, -9545.09, 0.00, 0.00, 0.00
280.0, 3571.38, -187500.02, 11843.76, -187500.02, -187500.02, -187500.02, 4989.51, 22502.42, -17053.60, 9071.39, -3015.09, -187500.02, 67452.31, 50159.39, -187500.02, -9553.87, 0.00, 0.00, 0.00
284.0, 3586.29, -187500.02, 11833.86, -187500.02, -187500.02, -187500.02, 5010.70, 22514.08, -17053.60, 9071.39, -3015.09, -187500.02, 67452.31, 50159.39, -187500.02, -9553.87, 0.00, 0.00, 0.00
288.0, 3586.29, -187500.02, 11833.86, -187500.02, -187500.02, -187500.02, 5010.70, 22514.08, -17030.75, 9102.21, -2987.24, -187500.02, 67297.39, 50045.04, -187500.02, -9526.22, 0.00, 0.00, 0.00
292.0, 3580.12, -187500.02, 11834.98, -187500.02, -187500.02, -187500.02, 5004.26, 22525.48, -17030.75, 9102.21, -2987.24, -187500.02, 67297.39, 50045.04, -187500.02, -9526.22, 0.00, 0.00, 0.00
296.0, 3580.12, -187500.02, 11834.98, -187500.02, -187500.02, -187500.02, 5004.26, 22525.48, -17064.08, 9075.37, -3017.11, -187500.02, 67441.60, 50144.04, -187500.02, -9561.32, 0.00, 0.00, 0.00
300.0, 3583.30, -187500.02, 11818.55, -187500.02, -187500.02, -187500.02, 5005.32, 22517.33, -17064.08, 9075.37, -3017.11, -187500.02, 67441.60, 50144.04, -187500.02, -9561.32, 0.00, 0.00, 0.00
304.0, 3583.30, -187500.02, 11818.55, -187500.02, -187500.02, -187500.02, 5005.32, 22517.33, -17039.14, 9103.24, -2987.53, -187500.02, 67289.90, 50035.23, -187500.02, -9523.16, 0.00, 0.00, 0.00
308.0, 3604.55, -187500.02, 11845.62, -187500.02, -187500.02, -187500.02, 5018.01, 22550.47, -17039.14, 9103.24, -2987.53, -187500.02, 67289.90, 50035.23, -187500.02, -9523.16, 0.00, 0.00, 0.00
312.0, 3604.55, -187500.02, 11845.62, -187500.02, -187500.02, -187500.02, 5018.01, 22550.47, -17050.85, 9089.47, -2999.58, -187500.02, 67432.71, 50133.11, -187500.02, -9541.58, 0.00, 0.00, 0.00
316.0, 3604.82, -187500.02, 11815.65, -187500.02, -187500.02, -187500.02, 5015.51, 22551.03, -17050.85, 9089.47, -2999.58, -187500.02, 67432.71, 50133.11, -187500.02, -9541.58, 0.00, 0.00, 0.00
320.0, 3604.82, -187500.02, 11815.65, -187500.02, -187500.02, -187500.02, 5015.51, 22551.03, -17018.64, 9113.19, -2970.99, -187500.02, 67308.63, 50048.28, -187500.02, -9516.39, 0.00, 0.00, 0.00
324.0, 3610.95, -187500.02, 11812.32, -187500.02, -187500.02, -187500.02, 5020.76, 22546.58, -17018.64, 9113.19, -2970.99, -187500.02, 67308.63, 50048.28, -187500.02, -9516.39, 0.00, 0.00, 0.00
328.0, 3610.95, -187500.02, 11812.32, -187500.02, -187500.02, -187500.02, 5020.76, 22546.58, -17060.24, 9075.77, -3005.95, -187500.02, 67434.05, 50127.50, -187500.02, -9563.53, 0.00, 0.00, 0.00
332.0, 3592.69, -187500.02, 11778.85, -187500.02, -187500.02, -187500.02, 5007.28, 22519.65, -17060.24, 9075.77, -3005.95, -187500.02, 67434.05, 50127.50, -187500.02, -9563.53, 0.00, 0.00, 0.00
336.0, 3592.69, -187500.02, 11778.85, -187500.02, -187500.02, -187500.02, 5007.28, 22519.65, -17015.76, 9103.13, -2968.69, -187500.02, 67297.48, 50035.07, -187500.02, -9537.80, 0.00, 0.00, 0.00
340.0, 3610.72, -187500.02, 11791.24, -187500.02, -187500.02, -187500.02, 5020.96, 22524.32, -17015.76, 9103.13, -2968.69, -187500.02, 67297.48, 50035.07, -187500.02, -9537.80, 0.00, 0.00, 0.00
344.0, 3610.72, -187500.02, 11791.24, -187500.02, -187500.02, -187500.02, 5020.96, 22524.32, -17046.63, 9072.82, -2993.41, -187500.02, 67380.36, 50079.21, -187500.02, -9567.35, 0.00, 0.00, 0.00
348.0, 3588.08, -187500.02, 11755.27, -187500.02, -187500.02, -187500.02, 4996.06, 22490.73, -17046.63, 9072.82, -2993.41, -187500.02, 67380.36, 50079.21, -187500.02, -9567.35, 0.00, 0.00, 0.00
352.0, 3588.08, -187500.02, 11755.27, -187500.02, -187500.02, -187500.02, 4996.06, 22490.73, -17039.99, 9078.34, -2982.10, -187500.02, 67308.34, 50044.21, -187500.02, -9559.82, 0.00, 0.00, 0.00
356.0, 3603.06, -187500.02, 11769.78, -187500.02, -187500.02, -187500.02, 5000.08, 22501.57, -17039.99, 9078.34, -2982.10, -187500.02, 67308.34, 50044.21, -187500.02, -9559.82, 0.00, 0.00, 0.00
360.0, 3603.06, -187500.02, 11769.78, -187500.02, -187500.02, -187500.02, 5000.08, 22501.57, -17074.70, 9051.29, -3024.24, -187500.02, 67365.74, 50069.00, -187500.02, -9588.09, 0.00, 0.00, 0.00
364.0, 3563.27, -187500.02, 11718.28, -187500.02, -187500.02, -187500.02, 4957.57, 22464.17, -17074.70, 9051.29, -3024.24, -187500.02, 67365.74, 50069.00, -187500.02, -9588.09, 0.00, 0.00, 0.00
368.0, 3563.27, -187500.02, 11718.28, -187500.02, -187500.02, -187500.02, 4957.57, 22464.17, -17043.54, 9059.68, -3007.25, -187500.02, 67389.16, 50124.57, -187500.02, -9583.33, 0.00, 0.00, 0.00
372.0, 3613.25, -187500.02, 11747.25, -187500.02, -187500.02, -187500.02, 4992.62, 22490.46, -17043.54, 9059.68, -3007.25, -187500.02, 67389.16, 50124.57, -187500.02, -9583.33, 0.00, 0.00, 0.00
376.0, 3613.25, -187500.02, 11747.25, -187500.02, -187500.02, -187500.02, 4992.62, 22490.46, -17039.29, 9073.80, -3002.17, -187500.02, 67346.07, 50061.42, -187500.02, -9573.94, 0.00, 0.00, 0.00
380.0, 3588.57, -187500.02, 11727.94, -187500.02, -187500.02, -187500.02, 4970.22, 22483.48, -17039.29, 9073.80, -3002.17, -187500.02, 67346.07, 50061.42, -187500.02, -9573.94, 0.00, 0.00, 0.00
384.0, 3588.57, -187500.02, 11727.94, -187500.02, -187500.02, -187500.02, 4970.22, 22483.48, -17051.65, 9063.68, -3017.08, -187500.02, 67375.73, 50121.86, -187500.02, -9581.57, 0.00, 0.00, 0.00
388.0, 3609.02, -187500.02, 11732.83, -187500.02, -187500.02, -187500.02, 4983.48, 22485.16, -17051.65, 9063.68, -3017.08, -187500.02, 67375.73, 50121.86, -187500.02, -9581.57, 0.00, 0.00, 0.00
392.0, 3609.02, -187500.02, 11732.83, -187500.02, -187500.02, -187500.02, 4983.48, 22485.16, -17051.23, 9069.04, -3020.50, -187500.02, 67326.83, 50060.91, -187500.02, -9581.54, 0.00, 0.00, 0.00
396.0, 3590.16, -187500.02, 11726.53, -187500.02, -187500.02, -187500.02, 4966.51, 22481.00, -17051.23, 9069.04, -3020.50, -187500.02, 67326.83, 50060.91, -187500.02, -9581.54, 0.00, 0.00, 0.00
400.0, 3590.16, -187500.02, 11726.53, -187500.02, -187500.02, -187500.02, 4966.51, 22481.00, -17048.23, 9073.96, -3017.42, -187500.02, 67350.66, 50097.66, -187500.02, -9573.59, 0.00, 0.00, 0.00
404.0, 3614.79, -187500.02, 11730.80, -187500.02, -187500.02, -187500.02, 4996.53, 22506.80, -17048.23, 9073.96, -3017.42, -187500.02, 67350.66, 50097.66, -187500.02, -9573.59, 0.00, 0.00, 0.00
408.0, 3614.79, -187500.02, 11730.80, -187500.02, -187500.02, -187500.02, 4996.53, 22506.80, -17050.00, 9082.43, -3004.39, -187500.02, 67295.16, 50034.54, -187500.02, -9561.88, 0.00, 0.00, 0.00
412.0, 3597.65, -187500.02, 11721.77, -187500.02, -187500.02, -187500.02, 4988.55, 22518.94, -17050.00, 9082.43, -3004.39, -187500.02, 67295.16, 50034.54, -187500.02, -9561.88, 0.00, 0.00, 0.00
416.0, 3597.65, -187500.02, 11721.77, -187500.02, -187500.02, -187500.02, 4988.55, 22518.94, -17046.69, 9083.95, -2997.59, -187500.02, 67362.63, 50102.33, -187500.02, -9561.96, 0.00, 0.00, 0.00
420.0, 3617.38, -187500.02, 11730.93, -187500.02, -187500.02, -187500.02, 5024.09, 22546.38, -17046.69, 9083.95, -2997.59, -187500.02, 67362.63, 50102.33, -187500.02, -9561.96, 0.00, 0.00, 0.00
424.0, 3617.38, -187500.02, 11730.93, -187500.02, -187500.02, -187500.02, 5024.09, 22546.38, -17041.35, 9096.62, -2991.04, -187500.02, 67268.38, 50012.43, -187500.02, -9556.38, 0.00, 0.00, 0.00
428.0, 3591.97, -187500.02, 11714.06, -187500.02, -187500.02, -187500.02, 4990.81, 22535.61, -17041.35, 9096.62, -2991.04, -187500.02, 67268.38, 50012.43, -187500.02, -9556.38, 0.00, 0.00, 0.00
432.0, 3591.97, -187500.02, 11714.06, -187500.02, -187500.02, -187500.02, 4990.81, 22535.61, -17070.85, 9072.06, -3013.04, -187500.02, 67402.22, 50137.38, -187500.02, -9585.41, 0.00, 0.00, 0.00
436.0, 3599.32, -187500.02, 11697.29, -187500.02, -187500.02, -187500.02, 5000.80, 22511.67, -17070.85, 9072.06, -3013.04, -187500.02, 67402.22, 50137.38, -187500.02, -9585.41, 0.00, 0.00, 0.00
440.0, 3599.32, -187500.02, 11697.29, -187500.02, -187500.02, -187500.02, 5000.80, 22511.67, -17055.99, 9083.06, -3003.38, -187500.02, 67308.77, 50062.43, -187500.02, -9575.91, 0.00, 0.00, 0.00
444.0, 3593.96, -187500.02, 11695.35, -187500.02, -187500.02, -187500.02, 4987.66, 22509.23, -17055.99, 9083.06, -3003.38, -187500.02, 67308.77, 50062.43, -187500.02, -9575.91, 0.00, 0.00, 0.00
448.0, 3593.96, -187500.02, 11695.35, -187500.02, -187500.02, -187500.02, 4987.66, 22509.23, -17057.71, 9072.93, -3010.31, -187500.02, 67421.87, 50156.64, -187500.02, -9595.58, 0.00, 0.00, 0.00
452.0, 3607.01, -187500.02, 11687.97, -187500.02, -187500.02, -187500.02, 4999.17, 22512.12, -17057.71, 9072.93, -3010.31, -187500.02, 67421.87, 50156.64, -187500.02, -9595.58, 0.00, 0.00, 0.00
456.0, 3607.01, -187500.02, 11687.97, -187500.02, -187500.02, -187500.02, 4999.17, 22512.12, -17041.84, 9102.17, -2982.26, -187500.02, 67295.89, 50057.11, -187500.02, -9565.76, 0.00, 0.00, 0.00
460.0, 3599.17, -187500.02, 11701.47, -187500.02, -187500.02, -187500.02, 5000.73, 22537.40, -17041.84, 9102.17, -2982.26, -187500.02, 67295.89, 50057.11, -187500.02, -9565.76, 0.00, 0.00, 0.00
464.0, 3599.17, -187500.02, 11701.47, -187500.02, -187500.02, -187500.02, 5000.73, 22537.40, -17079.46, 9066.02, -3016.99, -187500.02, 67439.03, 50170.05, -187500.02, -9602.87, 0.00, 0.00, 0.00
468.0, 3569.80, -187500.02, 11660.12, -187500.02, -187500.02, -187500.02, 4973.42, 22497.57, -17079.46, 9066.02, -3016.99, -187500.02, 67439.03, 50170.05, -187500.02, -9602.87, 0.00, 0.00, 0.00
472.0, 3569.80, -187500.02, 11660.12, -187500.02, -187500.02, -187500.02, 4973.42, 22497.57, -17062.90, 9084.24, -3003.76, -187500.02, 67316.16, 50081.14, -187500.02, -9593.08, 0.00, 0.00, 0.00
476.0, 3597.74, -187500.02, 11688.00, -187500.02, -187500.02, -187500.02, 4990.61, 22520.97, -17062.90, 9084.24, -3003.76, -187500.02, 67316.16, 50081.14, -187500.02, -9593.08, 0.00, 0.00, 0.00
480.0, 3597.74, -187500.02, 11688.00, -187500.02, -187500.02, -187500.02, 4990.61, 22520.97, -17067.52, 9076.42, -3014.83, -187500.02, 67441.02, 50170.37, -187500.02, -9599.45, 0.00, 0.00, 0.00
484.0, 3598.85, -187500.02, 11660.12, -187500.02, -187500.02, -187500.02, 4986.27, 22520.01, -17067.52, 9076.42, -3014.83, -187500.02, 67441.02, 50170.37, -187500.02, -9599.45, 0.00, 0.00, 0.00
488.0, 3598.85, -187500.02, 11660.12, -187500.02, -187500.02, -187500.02, 4986.27, 22520.01, -17040.75, 9100.38, -2980.27, -187500.02, 67270.01, 50044.86, -187500.02, -9581.46, 0.00, 0.00, 0.00
492.0, 3612.13, -187500.02, 11675.01, -187500.02, -187500.02, -187500.02, 4988.84, 22530.85, -17040.75, 9100.38, -2980.27, -187500.02, 67270.01, 50044.86, -187500.02, -9581.46, 0.00, 0.00, 0.00
496.0, 3612.13, -187500.02, 11675.01, -187500.02, -187500.02, -187500.02, 4988.84, 22530.85, -17064.35, 9080.75, -3011.76, -187500.02, 67391.85, 50127.88, -187500.02, -9605.93, 0.00, 0.00, 0.00
500.0, 3594.88, -187500.02, 11648.21, -187500.02, -187500.02, -187500.02, 4982.67, 22515.98, -17064.35, 9080.75, -3011.76, -187500.02, 67391.85, 50127.88, -187500.02, -9605.93, 0.00, 0.00, 0.00
504.0, 3594.88, -187500.02, 11648.21, -187500.02, -187500.02, -187500.02, 4982.67, 22515.98, -17058.02, 9086.45, -3000.77, -187500.02, 67278.34, 50058.70, -187500.02, -9588.54, 0.00, 0.00, 0.00
508.0, 3588.04, -187500.02, 11652.46, -187500.02, -187500.02, -187500.02, 4982.40, 22520.95, -17058.02, 9086.45, -3000.77, -187500.02, 67278.34, 50058.70, -187500.02, -9588.54, 0.00, 0.00, 0.00
512.0, 3588.04, -187500.02, 11652.46, -187500.02, -187500.02, -187500.02, 4982.40, 22520.95, -17086.72, 9072.15, -3026.02, -187500.02, 67397.55, 50132.91, -187500.02, -9606.96, 0.00, 0.00, 0.00
516.0, 3576.37, -187500.02, 11632.09, -187500.02, -187500.02, -187500.02, 4984.28, 22525.10, -17086.72, 9072.15, -3026.02, -187500.02, 67397.55, 50132.91, -187500.02, -9606.96, 0.00, 0.00, 0.00
520.0, 3576.37, -187500.02, 11632.09, -187500.02, -187500.02, -187500.02, 4984.28, 22525.10, -17064.64, 9097.83, -2995.54, -187500.02, 67294.44, 50076.09, -187500.02, -9579.29, 0.00, 0.00, 0.00
524.0, 3591.57, -187500.02, 11656.66, -187500.02, -187500.02, -187500.02, 5003.17, 22552.28, -17064.64, 9097.83, -2995.54, -187500.02, 67294.44, 50076.09, -187500.02, -9579.29, 0.00, 0.00, 0.00
528.0, 3591.57, -187500.02, 11656.66, -187500.02, -187500.02, -187500.02, 5003.17, 22552.28, -17083.84, 9079.57, -3021.35, -187500.02, 67377.61, 50117.62, -187500.02, -9602.13, 0.00, 0.00, 0.00
532.0, 3584.75, -187500.02, 11627.09, -187500.02, -187500.02, -187500.02, 4989.76, 22542.70, -17083.84, 9079.57, -3021.35, -187500.02, 67377.61, 50117.62, -187500.02, -9602.13, 0.00, 0.00, 0.00
536.0, 3584.75, -187500.02, 11627.09, -187500.02, -187500.02, -187500.02, 4989.76, 22542.70, -17058.85, 9099.71, -2992.61, -187500.02, 67296.63, 50077.92, -187500.02, -9578.26, 0.00, 0.00, 0.00
540.0, 3600.11, -187500.02, 11643.20, -187500.02, -187500.02, -187500.02, 5014.08, 22558.88, -17058.85, 9099.71, -2992.61, -187500.02, 67296.63, 50077.92, -187500.02, -9578.26, 0.00, 0.00, 0.00
544.0, 3600.11, -187500.02, 11643.20, -187500.02, -187500.02, -187500.02, 5014.08, 22558.88, -17084.42, 9079.48, -3012.12, -187500.02, 67379.48, 50120.10, -187500.02, -9595.22, 0.00, 0.00, 0.00
548.0, 3590.63, -187500.02, 11624.05, -187500.02, -187500.02, -187500.02, 5002.03, 22545.69, -17084.42, 9079.48, -3012.12, -187500.02, 67379.48, 50120.10, -187500.02, -9595.22, 0.00, 0.00, 0.00
552.0, 3590.63, -187500.02, 11624.05, -187500.02, -187500.02, -187500.02, 5002.03, 22545.69, -17050.56, 9102.61, -2987.60, -187500.02, 67279.30, 50061.16, -187500.02, -9574.35, 0.00, 0.00, 0.00
556.0, 3600.73, -187500.02, 11635.00, -187500.02, -187500.02, -187500.02, 5015.66, 22571.69, -17050.56, 9102.61, -2987.60, -187500.02, 67279.30, 50061.16, -187500.02, -9574.35, 0.00, 0.00, 0.00
560.0, 3600.73, -187500.02, 11635.00, -187500.02, -187500.02, -187500.02, 5015.66, 22571.69, -17074.97, 9090.81, -2999.40, -187500.02, 67278.95, 50032.72, -187500.02, -9591.67, 0.00, 0.00, 0.00
564.0, 3584.42, -187500.02, 11608.22, -187500.02, -187500.02, -187500.02, 4994.23, 22560.91, -17074.97, 9090.81, -2999.40, -187500.02, 67278.95, 50032.72, -187500.02, -9591.67, 0.00, 0.00, 0.00
568.0, 3584.42, -187500.02, 11608.22, -187500.02, -187500.02, -187500.02, 4994.23, 22560.91, -17056.71, 9097.74, -2990.93, -187500.02, 67253.94, 50034.63, -187500.02, -9587.62, 0.00, 0.00, 0.00
572.0, 3614.97, -187500.02, 11616.65, -187500.02, -187500.02, -187500.02, 5014.64, 22570.61, -17056.71, 9097.74, -2990.93, -187500.02, 67253.94, 50034.63, -187500.02, -9587.62, 0.00, 0.00, 0.00
576.0, 3614.97, -187500.02, 11616.65, -187500.02, -187500.02, -187500.02, 5014.64, 22570.61, -17071.50, 9096.00, -3004.30, -187500.02, 67251.45, 50012.23, -187500.02, -9592.83, 0.00, 0.00, 0.00
580.0, 3581.82, -187500.02, 11586.54, -187500.02, -187500.02, -187500.02, 4988.71, 22571.71, -17071.50, 9096.00, -3004.30, -187500.02, 67251.45, 50012.23, -187500.02, -9592.83, 0.00, 0.00, 0.00
584.0, 3581.82, -187500.02, 11586.54, -187500.02, -187500.02, -187500.02, 4988.71, 22571.71, -17081.00, 9089.18, -3007.74, -187500.02, 67285.88, 50069.79, -187500.02, -9590.69, 0.00, 0.00, 0.00
588.0, 3587.86, -187500.02, 11588.44, -187500.02, -187500.02, -187500.02, 4999.35, 22566.23, -17081.00, 9089.18, -3007.74, -187500.02, 67285.88, 50069.79, -187500.02, -9590.69, 0.00, 0.00, 0.00
592.0, 3587.86, -187500.02, 11588.44, -187500.02, -187500.02, -187500.02, 4999.35, 22566.23, -17090.77, 9078.03, -3031.23, -187500.02, 67246.43, 50019.74, -187500.02, -9605.73, 0.00, 0.00, 0.00
596.0, 3569.51, -187500.02, 11565.53, -187500.02, -187500.02, -187500.02, 4974.74, 22544.33, -17090.77, 9078.03, -3031.23, -187500.02, 67246.43, 50019.74, -187500.02, -9605.73, 0.00, 0.00, 0.00
600.0, 3569.51, -187500.02, 11565.53, -187500.02, -187500.02, -187500.02, 4974.74, 22544.33, -17071.32, 9087.88, -3005.39, -187500.02, 67328.77, 50109.64, -187500.02, -9603.96, 0.00, 0.00, 0.00
604.0, 3595.05, -187500.02, 11581.62, -187500.02, -187500.02, -187500.02, 5013.65, 22555.90, -17071.32, 9087.88, -3005.39, -187500.02, 67328.77, 50109.64, -187500.02, -9603.96, 0.00, 0.00, 0.00
608.0, 3595.05, -187500.02, 11581.62, -187500.02, -187500.02, -187500.02, 5013.65, 22555.90, -17073.18, 9101.27, -3000.25, -187500.02, 67271.77, 50051.93, -187500.02, -9594.08, 0.00, 0.00, 0.00
612.0, 3578.34, -187500.02, 11571.41, -187500.02, -187500.02, -187500.02, 4993.04, 22546.07, -17073.18, 9101.27, -3000.25, -187500.02, 67271.77, 50051.93, -187500.02, -9594.08, 0.00, 0.00, 0.00
616.0, 3578.34, -187500.02, 11571.41, -187500.02, -187500.02, -187500.02, 4993.04, 22546.07, -17075.55, 9093.11, -3002.26, -187500.02, 67330.88, 50111.45, -187500.02, -9598.93, 0.00, 0.00, 0.00
620.0, 3583.97, -187500.02, 11564.12, -187500.02, -187500.02, -187500.02, 5007.19, 22557.31, -17075.55, 9093.11, -3002.26, -187500.02, 67330.88, 50111.45, -187500.02, -9598.93, 0.00, 0.00, 0.00
624.0, 3583.97, -187500.02, 11564.12, -187500.02, -187500.02, -187500.02, 5007.19, 22557.31, -17080.17, 9092.82, -3011.29, -187500.02, 67214.38, 50001.07, -187500.02, -9606.91, 0.00, 0.00, 0.00
628.0, 3564.03, -187500.02, 11554.89, -187500.02, -187500.02, -187500.02, 4979.83, 22554.29, -17080.17, 9092.82, -3011.29, -187500.02, 67214.38, 50001.07, -187500.02, -9606.91, 0.00, 0.00, 0.00
632.0, 3564.03, -187500.02, 11554.89, -187500.02, -187500.02, -187500.02, 4979.83, 22554.29, -17098.84, 9079.99, -3019.09, -187500.02, 67328.33, 50099.49, -187500.02, -9614.09, 0.00, 0.00, 0.00
636.0, 3578.54, -187500.02, 11552.72, -187500.02, -187500.02, -187500.02, 5004.04, 22558.77, -17098.84, 9079.99, -3019.09, -187500.02, 67328.33, 50099.49, -187500.02, -9614.09, 0.00, 0.00, 0.00
640.0, 3578.54, -187500.02, 11552.72, -187500.02, -187500.02, -187500.02, 5004.04, 22558.77, -17080.02, 9102.97, -3008.72, -187500.02, 67193.56, 49986.28, -187500.02, -9593.41, 0.00, 0.00, 0.00
644.0, 3577.66, -187500.02, 11557.46, -187500.02, -187500.02, -187500.02, 4989.40, 22560.44, -17080.02, 9102.97, -3008.72, -187500.02, 67193.56, 49986.28, -187500.02, -9593.41, 0.00, 0.00, 0.00
648.0, 3577.66, -187500.02, 11557.46, -187500.02, -187500.02, -187500.02, 4989.40, 22560.44, -17082.34, 9095.44, -3015.52, -187500.02, 67306.62, 50073.29, -187500.02, -9603.23, 0.00, 0.00, 0.00
652.0, 3577.26, -187500.02, 11548.03, -187500.02, -187500.02, -187500.02, 5011.55, 22570.63, -17082.34, 9095.44, -3015.52, -187500.02, 67306.62, 50073.29, -187500.02, -9603.23, 0.00, 0.00, 0.00
656.0, 3577.26, -187500.02, 11548.03, -187500.02, -187500.02, -187500.02, 5011.55, 22570.63, -17078.97, 9108.42, -2999.43, -187500.02, 67185.36, 49983.68, -187500.02, -9583.96, 0.00, 0.00, 0.00
660.0, 3576.14, -187500.02, 11553.77, -187500.02, -187500.02, -187500.02, 5002.95, 22585.10, -17078.97, 9108.42, -2999.43, -187500.02, 67185.36, 49983.68, -187500.02, -9583.96, 0.00, 0.00, 0.00
664.0, 3576.14, -187500.02, 11553.77, -187500.02, -187500.02, -187500.02, 5002.95, 22585.10, -17097.70, 9089.38, -3012.59, -187500.02, 67311.36, 50074.48, -187500.02, -9598.67, 0.00, 0.00, 0.00
668.0, 3577.26, -187500.02, 11540.09, -187500.02, -187500.02, -187500.02, 5019.13, 22574.54, -17097.70, 9089.38, -3012.59, -187500.02, 67311.36, 50074.48, -187500.02, -9598.67, 0.00, 0.00, 0.00
672.0, 3577.26, -187500.02, 11540.09, -187500.02, -187500.02, -187500.02, 5019.13, 22574.54, -17070.90, 9118.57, -2984.02, -187500.02, 67162.90, 49967.73, -187500.02, -9570.59, 0.00, 0.00, 0.00
676.0, 3587.45, -187500.02, 11552.97, -187500.02, -187500.02, -187500.02, 5014.30, 22579.17, -17070.90, 9118.57, -2984.02, -187500.02, 67162.90, 49967.73, -187500.02, -9570.59, 0.00, 0.00, 0.00
680.0, 3587.45, -187500.02, 11552.97, -187500.02, -187500.02, -187500.02, 5014.30, 22579.17, -17089.92, 9101.63, -3015.21, -187500.02, 67313.53, 50076.00, -187500.02, -9593.21, 0.00, 0.00, 0.00
684.0, 3585.24, -187500.02, 11527.26, -187500.02, -187500.02, -187500.02, 5013.67, 22575.48, -17089.92, 9101.63, -3015.21, -187500.02, 67313.53, 50076.00, -187500.02, -9593.21, 0.00, 0.00, 0.00
688.0, 3585.24, -187500.02, 11527.26, -187500.02, -187500.02, -187500.02, 5013.67, 22575.48, -17070.41, 9116.45, -2989.26, -187500.02, 67188.09, 49994.93, -187500.02, -9576.65, 0.00, 0.00, 0.00
692.0, 3584.21, -187500.02, 11520.22, -187500.02, -187500.02, -187500.02, 5006.30, 22573.23, -17070.41, 9116.45, -2989.26, -187500.02, 67188.09, 49994.93, -187500.02, -9576.65, 0.00, 0.00, 0.00
696.0, 3584.21, -187500.02, 11520.22, -187500.02, -187500.02, -187500.02, 5006.30, 22573.23, -17096.54, 9095.53, -3011.09, -187500.02, 67330.88, 50090.88, -187500.02, -9598.80, 0.00, 0.00, 0.00
700.0, 3583.70, -187500.02, 11504.98, -187500.02, -187500.02, -187500.02, 5011.89, 22578.70, -17096.54, 9095.53, -3011.09, -187500.02, 67330.88, 50090.88, -187500.02, -9598.80, 0.00, 0.00, 0.00
704.0, 3583.70, -187500.02, 11504.98, -187500.02, -187500.02, -187500.02, 5011.89, 22578.70, -17067.30, 9119.24, -2986.77, -187500.02, 67207.13, 50006.02, -187500.02, -9576.43, 0.00, 0.00, 0.00
708.0, 3602.34, -187500.02, 11530.44, -187500.02, -187500.02, -187500.02, 5023.46, 22586.35, -17067.30, 9119.24, -2986.77, -187500.02, 67207.13, 50006.02, -187500.02, -9576.43, 0.00, 0.00, 0.00
712.0, 3602.34, -187500.02, 11530.44, -187500.02, -187500.02, -187500.02, 5023.46, 22586.35, -17097.05, 9109.41, -3005.42, -187500.02, 67317.82, 50064.24, -187500.02, -9591.02, 0.00, 0.00, 0.00
716.0, 3591.75, -187500.02, 11506.48, -187500.02, -187500.02, -187500.02, 5013.74, 22571.46, -17097.05, 9109.41, -3005.42, -187500.02, 67317.82, 50064.24, -187500.02, -9591.02, 0.00, 0.00, 0.00
720.0, 3591.75, -187500.02, 11506.48, -187500.02, -187500.02, -187500.02, 5013.74, 22571.46, -17058.87, 9126.08, -2982.17, -187500.02, 67195.58, 49983.35, -187500.02, -9576.05, 0.00, 0.00, 0.00
724.0, 3606.16, -187500.02, 11518.84, -187500.02, -187500.02, -187500.02, 5024.31, 22567.93, -17058.87, 9126.08, -2982.17, -187500.02, 67195.58, 49983.35, -187500.02, -9576.05, 0.00, 0.00, 0.00
728.0, 3606.16, -187500.02, 11518.84, -187500.02, -187500.02, -187500.02, 5024.31, 22567.93, -17082.52, 9108.40, -3006.64, -187500.02, 67286.23, 50027.52, -187500.02, -9600.59, 0.00, 0.00, 0.00
732.0, 3581.24, -187500.02, 11486.74, -187500.02, -187500.02, -187500.02, 4999.57, 22547.43, -17082.52, 9108.40, -3006.64, -187500.02, 67286.23, 50027.52, -187500.02, -9600.59, 0.00, 0.00, 0.00
736.0, 3581.24, -187500.02, 11486.74, -187500.02, -187500.02, -187500.02, 4999.57, 22547.43, -17062.00, 9119.13, -2998.20, -187500.02, 67235.23, 50011.98, -187500.02, -9589.72, 0.00, 0.00, 0.00
740.0, 3599.86, -187500.02, 11492.04, -187500.02, -187500.02, -187500.02, 5011.57, 22566.70, -17062.00, 9119.13, -2998.20, -187500.02, 67235.23, 50011.98, -187500.02, -9589.72, 0.00, 0.00, 0.00
744.0, 3599.86, -187500.02, 11492.04, -187500.02, -187500.02, -187500.02, 5011.57, 22566.70, -17085.58, 9102.10, -3005.37, -187500.02, 67313.93, 50050.70, -187500.02, -9607.90, 0.00, 0.00, 0.00
748.0, 3585.60, -187500.02, 11464.57, -187500.02, -187500.02, -187500.02, 5005.72, 22561.72, -17085.58, 9102.10, -3005.37, -187500.02, 67313.93, 50050.70, -187500.02, -9607.90, 0.00, 0.00, 0.00
752.0, 3585.60, -187500.02, 11464.57, -187500.02, -187500.02, -187500.02, 5005.72, 22561.72, -17062.72, 9116.29, -2983.96, -187500.02, 67276.54, 50051.90, -187500.02, -9586.17, 0.00, 0.00, 0.00
756.0, 3593.29, -187500.02, 11473.42, -187500.02, -187500.02, -187500.02, 5021.61, 22577.29, -17062.72, 9116.29, -2983.96, -187500.02, 67276.54, 50051.90, -187500.02, -9586.17, 0.00, 0.00, 0.00
760.0, 3593.29, -187500.02, 11473.42, -187500.02, -187500.02, -187500.02, 5021.61, 22577.29, -17092.47, 9093.27, -3014.31, -187500.02, 67324.10, 50071.97, -187500.02, -9612.81, 0.00, 0.00, 0.00
764.0, 3574.54, -187500.02, 11451.74, -187500.02, -187500.02, -187500.02, 4999.59, 22548.53, -17092.47, 9093.27, -3014.31, -187500.02, 67324.10, 50071.97, -187500.02, -9612.81, 0.00, 0.00, 0.00
768.0, 3574.54, -187500.02, 11451.74, -187500.02, -187500.02, -187500.02, 4999.59, 22548.53, -17076.96, 9109.88, -2997.66, -187500.02, 67291.13, 50063.26, -187500.02, -9592.41, 0.00, 0.00, 0.00
772.0, 3598.63, -187500.02, 11468.46, -187500.02, -187500.02, -187500.02, 5030.26, 22582.86, -17076.96, 9109.88, -2997.66, -187500.02, 67291.13, 50063.26, -187500.02, -9592.41, 0.00, 0.00, 0.00
776.0, 3598.63, -187500.02, 11468.46, -187500.02, -187500.02, -187500.02, 5030.26, 22582.86, -17086.30, 9102.32, -3003.05, -187500.02, 67313.69, 50065.58, -187500.02, -9599.83, 0.00, 0.00, 0.00
780.0, 3569.44, -187500.02, 11440.29, -187500.02, -187500.02, -187500.02, 5003.28, 22556.66, -17086.30, 9102.32, -3003.05, -187500.02, 67313.69, 50065.58, -187500.02, -9599.83, 0.00, 0.00, 0.00
784.0, 3569.44, -187500.02, 11440.29, -187500.02, -187500.02, -187500.02, 5003.28, 22556.66, -17079.82, 9096.00, -3001.79, -187500.02, 67359.51, 50127.94, -187500.02, -9610.15, 0.00, 0.00, 0.00
788.0, 3591.17, -187500.02, 11433.92, -187500.02, -187500.02, -187500.02, 5022.53, 22563.82, -17079.82, 9096.00, -3001.79, -187500.02, 67359.51, 50127.94, -187500.02, -9610.15, 0.00, 0.00, 0.00
792.0, 3591.17, -187500.02, 11433.92, -187500.02, -187500.02, -187500.02, 5022.53, 22563.82, -17085.99, 9096.40, -3006.04, -187500.02, 67298.13, 50059.08, -187500.02, -9611.67, 0.00, 0.00, 0.00
796.0, 3557.70, -187500.02, 11412.24, -187500.02, -187500.02, -187500.02, 4998.48, 22554.59, -17085.99, 9096.40, -3006.04, -187500.02, 67298.13, 50059.08, -187500.02, -9611.67, 0.00, 0.00, 0.00
800.0, 3557.70, -187500.02, 11412.24, -187500.02, -187500.02, -187500.02, 4998.48, 22554.59, -17090.79, 9091.57, -3006.26, -187500.02, 67383.73, 50149.29, -187500.02, -9616.21, 0.00, 0.00, 0.00
804.0, 3584.59, -187500.02, 11422.72, -187500.02, -187500.02, -187500.02, 5035.29, 22572.94, -17090.79, 9091.57, -3006.26, -187500.02, 67383.73, 50149.29, -187500.02, -9616.21, 0.00, 0.00, 0.00
808.0, 3584.59, -187500.02, 11422.72, -187500.02, -187500.02, -187500.02, 5035.29, 22572.94, -17074.86, 9109.27, -2993.10, -187500.02, 67259.21, 50029.44, -187500.02, -9610.18, 0.00, 0.00, 0.00
812.0, 3566.49, -187500.02, 11422.59, -187500.02, -187500.02, -187500.02, 5005.18, 22574.48, -17074.86, 9109.27, -2993.10, -187500.02, 67259.21, 50029.44, -187500.02, -9610.18, 0.00, 0.00, 0.00
816.0, 3566.49, -187500.02, 11422.59, -187500.02, -187500.02, -187500.02, 5005.18, 22574.48, -17089.14, 9095.24, -2999.83, -187500.02, 67349.76, 50110.29, -187500.02, -9614.25, 0.00, 0.00, 0.00
820.0, 3587.28, -187500.02, 11417.94, -187500.02, -187500.02, -187500.02, 5033.86, 22588.38, -17089.14, 9095.24, -2999.83, -187500.02, 67349.76, 50110.29, -187500.02, -9614.25, 0.00, 0.00, 0.00
824.0, 3587.28, -187500.02, 11417.94, -187500.02, -187500.02, -187500.02, 5033.86, 22588.38, -17067.79, 9110.82, -2992.70, -187500.02, 67231.30, 50005.88, -187500.02, -9604.72, 0.00, 0.00, 0.00
828.0, 3569.44, -187500.02, 11411.26, -187500.02, -187500.02, -187500.02, 5012.80, 22583.96, -17067.79, 9110.82, -2992.70, -187500.02, 67231.30, 50005.88, -187500.02, -9604.72, 0.00, 0.00, 0.00
832.0, 3569.44, -187500.02, 11411.26, -187500.02, -187500.02, -187500.02, 5012.80, 22583.96, -17077.09, 9103.98, -2998.17, -187500.02, 67348.38, 50104.74, -187500.02, -9610.07, 0.00, 0.00, 0.00
836.0, 3586.94, -187500.02, 11399.95, -187500.02, -187500.02, -187500.02, 5036.38, 22587.49, -17077.09, 9103.98, -2998.17, -187500.02, 67348.38, 50104.74, -187500.02, -9610.07, 0.00, 0.00, 0.00
840.0, 3586.94, -187500.02, 11399.95, -187500.02, -187500.02, -187500.02, 5036.38, 22587.49, -17059.39, 9120.65, -2980.85, -187500.02, 67196.25, 49977.87, -187500.02, -9597.17, 0.00, 0.00, 0.00
844.0, 3572.93, -187500.02, 11401.00, -187500.02, -187500.02, -187500.02, 5013.70, 22563.15, -17059.39, 9120.65, -2980.85, -187500.02, 67196.25, 49977.87, -187500.02, -9597.17, 0.00, 0.00, 0.00
848.0, 3572.93, -187500.02, 11401.00, -187500.02, -187500.02, -187500.02, 5013.70, 22563.15, -17102.28, 9079.88, -3019.63, -187500.02, 67336.88, 50090.39, -187500.02, -9634.81, 0.00, 0.00, 0.00
852.0, 3561.71, -187500.02, 11366.55, -187500.02, -187500.02, -187500.02, 5000.31, 22541.91, -17102.28, 9079.88, -3019.63, -187500.02, 67336.88, 50090.39, -187500.02, -9634.81, 0.00, 0.00, 0.00
856.0, 3561.71, -187500.02, 11366.55, -187500.02, -187500.02, -187500.02, 5000.31, 22541.91, -17084.42, 9096.29, -3017.49, -187500.02, 67228.91, 50019.18, -187500.02, -9620.21, 0.00, 0.00, 0.00
860.0, 3564.61, -187500.02, 11377.53, -187500.02, -187500.02, -187500.02, 4988.51, 22547.34, -17084.42, 9096.29, -3017.49, -187500.02, 67228.91, 50019.18, -187500.02, -9620.21, 0.00, 0.00, 0.00
864.0, 3564.61, -187500.02, 11377.53, -187500.02, -187500.02, -187500.02, 4988.51, 22547.34, -17100.98, 9078.34, -3022.02, -187500.02, 67370.70, 50126.67, -187500.02, -9640.58, 0.00, 0.00, 0.00
868.0, 3562.38, -187500.02, 11353.61, -187500.02, -187500.02, -187500.02, 4997.31, 22547.30, -17100.98, 9078.34, -3022.02, -187500.02, 67370.70, 50126.67, -187500.02, -9640.58, 0.00, 0.00, 0.00
872.0, 3562.38, -187500.02, 11353.61, -187500.02, -187500.02, -187500.02, 4997.31, 22547.30, -17073.07, 9096.22, -3002.08, -187500.02, 67237.95, 50035.61, -187500.02, -9617.13, 0.00, 0.00, 0.00
876.0, 3557.35, -187500.02, 11357.10, -187500.02, -187500.02, -187500.02, 4985.47, 22571.64, -17073.07, 9096.22, -3002.08, -187500.02, 67237.95, 50035.61, -187500.02, -9617.13, 0.00, 0.00, 0.00
880.0, 3557.35, -187500.02, 11357.10, -187500.02, -187500.02, -187500.02, 4985.47, 22571.64, -17106.42, 9068.55, -3034.38, -187500.02, 67434.41, 50186.28, -187500.02, -9644.02, 0.00, 0.00, 0.00
884.0, 3558.51, -187500.02, 11339.80, -187500.02, -187500.02, -187500.02, 5002.14, 22574.54, -17106.42, 9068.55, -3034.38, -187500.02, 67434.41, 50186.28, -187500.02, -9644.02, 0.00, 0.00, 0.00
888.0, 3558.51, -187500.02, 11339.80, -187500.02, -187500.02, -187500.02, 5002.14, 22574.54, -17084.60, 9093.90, -3001.12, -187500.02, 67266.92, 50063.68, -187500.02, -9616.17, 0.00, 0.00, 0.00
892.0, 3551.47, -187500.02, 11347.42, -187500.02, -187500.02, -187500.02, 5002.52, 22581.05, -17084.60, 9093.90, -3001.12, -187500.02, 67266.92, 50063.68, -187500.02, -9616.17, 0.00, 0.00, 0.00
896.0, 3551.47, -187500.02, 11347.42, -187500.02, -187500.02, -187500.02, 5002.52, 22581.05, -17110.64, 9069.53, -3030.25, -187500.02, 67381.41, 50136.39, -187500.02, -9640.87, 0.00, 0.00, 0.00
900.0, 3543.35, -187500.02, 11324.60, -187500.02, -187500.02, -187500.02, 4996.55, 22568.33, -17110.64, 9069.53, -3030.25, -187500.02, 67381.41, 50136.39, -187500.02, -9640.87, 0.00, 0.00, 0.00
904.0, 3543.35, -187500.02, 11324.60, -187500.02, -187500.02, -187500.02, 4996.55, 22568.33, -17091.13, 9083.75, -3008.05, -187500.02, 67255.21, 50055.16, -187500.02, -9613.40, 0.00, 0.00, 0.00
908.0, 3565.15, -187500.02, 11330.90, -187500.02, -187500.02, -187500.02, 5007.95, 22575.04, -17091.13, 9083.75, -3008.05, -187500.02, 67255.21, 50055.16, -187500.02, -9613.40, 0.00, 0.00, 0.00
912.0, 3565.15, -187500.02, 11330.90, -187500.02, -187500.02, -187500.02, 5007.95, 22575.04, -17095.28, 9076.28, -3018.09, -187500.02, 67354.19, 50105.77, -187500.02, -9636.66, 0.00, 0.00, 0.00
916.0, 3560.32, -187500.02, 11298.25, -187500.02, -187500.02, -187500.02, 5001.14, 22559.39, -17095.28, 9076.28, -3018.09, -187500.02, 67354.19, 50105.77, -187500.02, -9636.66, 0.00, 0.00, 0.00
920.0, 3560.32, -187500.02, 11298.25, -187500.02, -187500.02, -187500.02, 5001.14, 22559.39, -17063.14, 9098.14, -2987.80, -187500.02, 67251.10, 50042.27, -187500.02, -9612.81, 0.00, 0.00, 0.00
924.0, 3587.66, -187500.02, 11331.55, -187500.02, -187500.02, -187500.02, 5028.78, 22583.87, -17063.14, 9098.14, -2987.80, -187500.02, 67251.10, 50042.27, -187500.02, -9612.81, 0.00, 0.00, 0.00
928.0, 3587.66, -187500.02, 11331.55, -187500.02, -187500.02, -187500.02, 5028.78, 22583.87, -17082.79, 9092.51, -3001.19, -187500.02, 67295.00, 50046.47, -187500.02, -9621.26, 0.00, 0.00, 0.00
932.0, 3554.75, -187500.02, 11290.89, -187500.02, -187500.02, -187500.02, 5006.75, 22577.79, -17082.79, 9092.51, -3001.19, -187500.02, 67295.00, 50046.47, -187500.02, -9621.26, 0.00, 0.00, 0.00
936.0, 3554.75, -187500.02, 11290.89, -187500.02, -187500.02, -187500.02, 5006.75, 22577.79, -17081.07, 9093.54, -2995.60, -187500.02, 67225.88, 50018.06, -187500.02, -9622.63, 0.00, 0.00, 0.00
940.0, 3565.19, -187500.02, 11294.20, -187500.02, -187500.02, -187500.02, 5013.14, 22585.52, -17081.07, 9093.54, -2995.60, -187500.02, 67225.88, 50018.06, -187500.02, -9622.63, 0.00, 0.00, 0.00
944.0, 3565.19, -187500.02, 11294.20, -187500.02, -187500.02, -187500.02, 5013.14, 22585.52, -17095.87, 9072.53, -3025.78, -187500.02, 67282.70, 50041.73, -187500.02, -9643.28, 0.00, 0.00, 0.00
948.0, 3537.50, -187500.02, 11249.16, -187500.02, -187500.02, -187500.02, 4985.27, 22564.78, -17095.87, 9072.53, -3025.78, -187500.02, 67282.70, 50041.73, -187500.02, -9643.28, 0.00, 0.00, 0.00
952.0, 3537.50, -187500.02, 11249.16, -187500.02, -187500.02, -187500.02, 4985.27, 22564.78, -17086.12, 9081.04, -3004.79, -187500.02, 67258.14, 50047.19, -187500.02, -9627.59, 0.00, 0.00, 0.00
956.0, 3563.16, -187500.02, 11257.03, -187500.02, -187500.02, -187500.02, 5014.59, 22574.77, -17086.12, 9081.04, -3004.79, -187500.02, 67258.14, 50047.19, -187500.02, -9627.59, 0.00, 0.00, 0.00
960.0, 3563.16, -187500.02, 11257.03, -187500.02, -187500.02, -187500.02, 5014.59, 22574.77, -17092.24, 9080.31, -3013.48, -187500.02, 67242.94, 50009.16, -187500.02, -9635.99, 0.00, 0.00, 0.00
964.0, 3533.59, -187500.02, 11223.35, -187500.02, -187500.02, -187500.02, 4995.64, 22564.00, -17092.24, 9080.31, -3013.48, -187500.02, 67242.94, 50009.16, -187500.02, -9635.99, 0.00, 0.00, 0.00
968.0, 3533.59, -187500.02, 11223.35, -187500.02, -187500.02, -187500.02, 4995.64, 22564.00, -17109.23, 9063.92, -3007.83, -187500.02, 67259.48, 50049.76, -187500.02, -9638.45, 0.00, 0.00, 0.00
972.0, 3556.41, -187500.02, 11225.11, -187500.02, -187500.02, -187500.02, 5024.43, 22567.64, -17109.23, 9063.92, -3007.83, -187500.02, 67259.48, 50049.76, -187500.02, -9638.45, 0.00, 0.00, 0.00
976.0, 3556.41, -187500.02, 11225.11, -187500.02, -187500.02, -187500.02, 5024.43, 22567.64, -17087.48, 9077.36, -3007.87, -187500.02, 67217.17, 49989.59, -187500.02, -9632.06, 0.00, 0.00, 0.00
980.0, 3532.63, -187500.02, 11208.55, -187500.02, -187500.02, -187500.02, 4997.65, 22557.02, -17087.48, 9077.36, -3007.87, -187500.02, 67217.17, 49989.59, -187500.02, -9632.06, 0.00, 0.00, 0.00
984.0, 3532.63, -187500.02, 11208.55, -187500.02, -187500.02, -187500.02, 4997.65, 22557.02, -17092.09, 9068.50, -3004.03, -187500.02, 67289.57, 50076.46, -187500.02, -9634.18, 0.00, 0.00, 0.00
988.0, 3545.28, -187500.02, 11212.77, -187500.02, -187500.02, -187500.02, 5024.00, 22564.55, -17092.09, 9068.50, -3004.03, -187500.02, 67289.57, 50076.46, -187500.02, -9634.18, 0.00, 0.00, 0.00
992.0, 3545.28, -187500.02, 11212.77, -187500.02, -187500.02, -187500.02, 5024.00, 22564.55, -17098.50, 9068.55, -3009.13, -187500.02, 67230.27, 50017.48, -187500.02, -9641.74, 0.00, 0.00, 0.00
996.0, 3532.45, -187500.02, 11197.62, -187500.02, -187500.02, -187500.02, 4996.93, 22547.79, -17098.50, 9068.55, -3009.13, -187500.02, 67230.27, 50017.48, -187500.02, -9641.74, 0.00, 0.00, 0.00
1000.0, 3532.45, -187500.02, 11197.62, -187500.02, -187500.02, -187500.02, 4996.93, 22547.79, -17094.10, 9067.37, -3007.52, -187500.02, 67318.94, 50108.88, -187500.02, -9640.24, 0.00, 0.00, 0.00
1004.0, 3547.96, -187500.02, 11192.19, -187500.02, -187500.02, -187500.02, 5025.72, 22563.41, -17094.10, 9067.37, -3007.52, -187500.02, 67318.94, 50108.88, -187500.02, -9640.24, 0.00, 0.00, 0.00
1008.0, 3547.96, -187500.02, 11192.19, -187500.02, -187500.02, -187500.02, 5025.72, 22563.41, -17094.77, 9070.29, -3012.41, -187500.02, 67261.85, 50063.50, -187500.02, -9643.44, 0.00, 0.00, 0.00
1012.0, 3513.22, -187500.02, 11167.47, -187500.02, -187500.02, -187500.02, 4982.83, 22548.04, -17094.77, 9070.29, -3012.41, -187500.02, 67261.85, 50063.50, -187500.02, -9643.44, 0.00, 0.00, 0.00
1016.0, 3513.22, -187500.02, 11167.47, -187500.02, -187500.02, -187500.02, 4982.83, 22548.04, -17116.79, 9054.58, -3016.97, -187500.02, 67376.45, 50171.84, -187500.02, -9657.43, 0.00, 0.00, 0.00
1020.0, 3534.75, -187500.02, 11167.31, -187500.02, -187500.02, -187500.02, 5023.02, 22565.27, -17116.79, 9054.58, -3016.97, -187500.02, 67376.45, 50171.84, -187500.02, -9657.43, 0.00, 0.00, 0.00
1024.0, 3534.75, -187500.02, 11167.31, -187500.02, -187500.02, -187500.02, 5023.02, 22565.27, -17087.64, 9078.21, -2999.18, -187500.02, 67231.19, 50047.19, -187500.02, -9636.57, 0.00, 0.00, 0.00
1028.0, 3528.54, -187500.02, 11176.63, -187500.02, -187500.02, -187500.02, 5006.43, 22573.47, -17087.64, 9078.21, -2999.18, -187500.02, 67231.19, 50047.19, -187500.02, -9636.57, 0.00, 0.00, 0.00
1032.0, 3528.54, -187500.02, 11176.63, -187500.02, -187500.02, -187500.02, 5006.43, 22573.47, -17104.81, 9058.20, -3016.55, -187500.02, 67350.41, 50144.35, -187500.02, -9655.93, 0.00, 0.00, 0.00
1036.0, 3533.56, -187500.02, 11169.05, -187500.02, -187500.02, -187500.02, 5019.26, 22570.97, -17104.81, 9058.20, -3016.55, -187500.02, 67350.41, 50144.35, -187500.02, -9655.93, 0.00, 0.00, 0.00
1040.0, 3533.56, -187500.02, 11169.05, -187500.02, -187500.02, -187500.02, 5019.26, 22570.97, -17078.52, 9081.29, -2992.03, -187500.02, 67210.66, 50033.98, -187500.02, -9637.78, 0.00, 0.00, 0.00
1044.0, 3531.87, -187500.02, 11173.86, -187500.02, -187500.02, -187500.02, 4998.45, 22561.22, -17078.52, 9081.29, -2992.03, -187500.02, 67210.66, 50033.98, -187500.02, -9637.78, 0.00, 0.00, 0.00
1048.0, 3531.87, -187500.02, 11173.86, -187500.02, -187500.02, -187500.02, 4998.45, 22561.22, -17108.81, 9060.10, -3019.45, -187500.02, 67353.91, 50144.82, -187500.02, -9662.28, 0.00, 0.00, 0.00
1052.0, 3536.20, -187500.02, 11149.47, -187500.02, -187500.02, -187500.02, 5009.65, 22551.37, -17108.81, 9060.10, -3019.45, -187500.02, 67353.91, 50144.82, -187500.02, -9662.28, 0.00, 0.00, 0.00
1056.0, 3536.20, -187500.02, 11149.47, -187500.02, -187500.02, -187500.02, 5009.65, 22551.37, -17086.32, 9077.65, -2998.22, -187500.02, 67187.24, 50015.94, -187500.02, -9645.29, 0.00, 0.00, 0.00
1060.0, 3519.06, -187500.02, 11154.26, -187500.02, -187500.02, -187500.02, 4997.49, 22555.61, -17086.32, 9077.65, -2998.22, -187500.02, 67187.24, 50015.94, -187500.02, -9645.29, 0.00, 0.00, 0.00
1064.0, 3519.06, -187500.02, 11154.26, -187500.02, -187500.02, -187500.02, 4997.49, 22555.61, -17133.15, 9040.48, -3046.27, -187500.02, 67355.57, 50151.81, -187500.02, -9671.93, 0.00, 0.00, 0.00
1068.0, 3528.11, -187500.02, 11134.54, -187500.02, -187500.02, -187500.02, 5010.37, 22549.78, -17133.15, 9040.48, -3046.27, -187500.02, 67355.57, 50151.81, -187500.02, -9671.93, 0.00, 0.00, 0.00
1072.0, 3528.11, -187500.02, 11134.54, -187500.02, -187500.02, -187500.02, 5010.37, 22549.78, -17078.68, 9092.53, -2977.70, -187500.02, 67179.10, 50019.07, -187500.02, -9625.73, 0.00, 0.00, 0.00
1076.0, 3539.09, -187500.02, 11158.68, -187500.02, -187500.02, -187500.02, 5027.91, 22564.40, -17078.68, 9092.53, -2977.70, -187500.02, 67179.10, 50019.07, -187500.02, -9625.73, 0.00, 0.00, 0.00
1080.0, 3539.09, -187500.02, 11158.68, -187500.02, -187500.02, -187500.02, 5027.91, 22564.40, -17107.26, 9066.34, -3014.65, -187500.02, 67324.41, 50124.12, -187500.02, -9648.22, 0.00, 0.00, 0.00
1084.0, 3534.73, -187500.02, 11125.96, -187500.02, -187500.02, -187500.02, 5010.46, 22538.60, -17107.26, 9066.34, -3014.65, -187500.02, 67324.41, 50124.12, -187500.02, -9648.22, 0.00, 0.00, 0.00
1088.0, 3534.73, -187500.02, 11125.96, -187500.02, -187500.02, -187500.02, 5010.46, 22538.60, -17089.49, 9076.15, -3002.40, -187500.02, 67212.84, 50061.85, -187500.02, -9636.93, 0.00, 0.00, 0.00
1092.0, 3530.99, -187500.02, 11147.57, -187500.02, -187500.02, -187500.02, 5024.92, 22555.59, -17089.49, 9076.15, -3002.40, -187500.02, 67212.84, 50061.85, -187500.02, -9636.93, 0.00, 0.00, 0.00
1096.0, 3530.99, -187500.02, 11147.57, -187500.02, -187500.02, -187500.02, 5024.92, 22555.59, -17105.16, 9062.45, -3009.08, -187500.02, 67369.81, 50174.19, -187500.02, -9650.70, 0.00, 0.00, 0.00
1100.0, 3532.20, -187500.02, 11118.83, -187500.02, -187500.02, -187500.02, 5018.79, 22561.04, -17105.16, 9062.45, -3009.08, -187500.02, 67369.81, 50174.19, -187500.02, -9650.70, 0.00, 0.00, 0.00
1104.0, 3532.20, -187500.02, 11118.83, -187500.02, -187500.02, -187500.02, 5018.79, 22561.04, -17077.51, 9096.18, -2980.49, -187500.02, 67244.02, 50098.84, -187500.02, -9625.49, 0.00, 0.00, 0.00
1108.0, 3553.48, -187500.02, 11142.50, -187500.02, -187500.02, -187500.02, 5033.72, 22556.33, -17077.51, 9096.18, -2980.49, -187500.02, 67244.02, 50098.84, -187500.02, -9625.49, 0.00, 0.00, 0.00
1112.0, 3553.48, -187500.02, 11142.50, -187500.02, -187500.02, -187500.02, 5033.72, 22556.33, -17110.97, 9074.41, -3007.36, -187500.02, 67310.73, 50124.99, -187500.02, -9651.24, 0.00, 0.00, 0.00
1116.0, 3511.24, -187500.02, 11090.98, -187500.02, -187500.02, -187500.02, 5009.90, 22542.16, -17110.97, 9074.41, -3007.36, -187500.02, 67310.73, 50124.99, -187500.02, -9651.24, 0.00, 0.00, 0.00
1120.0, 3511.24, -187500.02, 11090.98, -187500.02, -187500.02, -187500.02, 5009.90, 22542.16, -17120.05, 9074.61, -2994.35, -187500.02, 67236.86, 50097.68, -187500.02, -9646.14, 0.00, 0.00, 0.00
1124.0, 3529.09, -187500.02, 11107.68, -187500.02, -187500.02, -187500.02, 5017.68, 22548.24, -17120.05, 9074.61, -2994.35, -187500.02, 67236.86, 50097.68, -187500.02, -9646.14, 0.00, 0.00, 0.00
1128.0, 3529.09, -187500.02, 11107.68, -187500.02, -187500.02, -187500.02, 5017.68, 22548.24, -17109.43, 9072.66, -3009.82, -187500.02, 67271.77, 50098.41, -187500.02, -9656.51, 0.00, 0.00, 0.00
1132.0, 3520.56, -187500.02, 11087.14, -187500.02, -187500.02, -187500.02, 5002.41, 22534.71, -17109.43, 9072.66, -3009.82, -187500.02, 67271.77, 50098.41, -187500.02, -9656.51, 0.00, 0.00, 0.00
1136.0, 3520.56, -187500.02, 11087.14, -187500.02, -187500.02, -187500.02, 5002.41, 22534.71, -17101.21, 9085.00, -2995.92, -187500.02, 67189.05, 50055.30, -187500.02, -9638.38, 0.00, 0.00, 0.00
1140.0, 3525.36, -187500.02, 11094.82, -187500.02, -187500.02, -187500.02, 5013.41, 22536.62, -17101.21, 9085.00, -2995.92, -187500.02, 67189.05, 50055.30, -187500.02, -9638.38, 0.00, 0.00, 0.00
1144.0, 3525.36, -187500.02, 11094.82, -187500.02, -187500.02, -187500.02, 5013.41, 22536.62, -17112.67, 9065.64, -3010.22, -187500.02, 67224.97, 50058.05, -187500.02, -9664.02, 0.00, 0.00, 0.00
1148.0, 3513.05, -187500.02, 11063.02, -187500.02, -187500.02, -187500.02, 4998.95, 22529.02, -17112.67, 9065.64, -3010.22, -187500.02, 67224.97, 50058.05, -187500.02, -9664.02, 0.00, 0.00, 0.00
1152.0, 3513.05, -187500.02, 11063.02, -187500.02, -187500.02, -187500.02, 4998.95, 22529.02, -17122.13, 9081.20, -2994.33, -187500.02, 67205.81, 50071.93, -187500.02, -9651.01, 0.00, 0.00, 0.00
1156.0, 3539.53, -187500.02, 11087.47, -187500.02, -187500.02, -187500.02, 5024.16, 22548.77, -17122.13, 9081.20, -2994.33, -187500.02, 67205.81, 50071.93, -187500.02, -9651.01, 0.00, 0.00, 0.00
1160.0, 3539.53, -187500.02, 11087.47, -187500.02, -187500.02, -187500.02, 5024.16, 22548.77, -17139.52, 9092.11, -3001.10, -187500.02, 67206.10, 50048.59, -187500.02, -9652.76, 0.00, 0.00, 0.00
1164.0, 3525.92, -187500.02, 11079.65, -187500.02, -187500.02, -187500.02, 5021.77, 22559.14, -17139.52, 9092.11, -3001.10, -187500.02, 67206.10, 50048.59, -187500.02, -9652.76, 0.00, 0.00, 0.00
1168.0, 3525.92, -187500.02, 11079.65, -187500.02, -187500.02, -187500.02, 5021.77, 22559.14, -17150.83, 9089.52, -2994.44, -187500.02, 67234.49, 50098.19, -187500.02, -9644.11, 0.00, 0.00, 0.00
1172.0, 3519.37, -187500.02, 11071.15, -187500.02, -187500.02, -187500.02, 5039.20, 22562.56, -17150.83, 9089.52, -2994.44, -187500.02, 67234.49, 50098.19, -187500.02, -9644.11, 0.00, 0.00, 0.00
1176.0, 3519.37, -187500.02, 11071.15, -187500.02, -187500.02, -187500.02, 5039.20, 22562.56, -17164.15, 9088.40, -2993.23, -187500.02, 67208.97, 50063.66, -187500.02, -9644.06, 0.00, 0.00, 0.00
1180.0, 3507.37, -187500.02, 11057.36, -187500.02, -187500.02, -187500.02, 5017.14, 22554.09, -17164.15, 9088.40, -2993.23, -187500.02, 67208.97, 50063.66, -187500.02, -9644.06, 0.00, 0.00, 0.00
1184.0, 3507.37, -187500.02, 11057.36, -187500.02, -187500.02, -187500.02, 5017.14, 22554.09, -17203.11, 9075.88, -3011.88, -187500.02, 67278.59, 50146.00, -187500.02, -9648.93, 0.00, 0.00, 0.00
1188.0, 3534.97, -187500.02, 11066.39, -187500.02, -187500.02, -187500.02, 5035.22, 22565.56, -17203.11, 9075.88, -3011.88, -187500.02, 67278.59, 50146.00, -187500.02, -9648.93, 0.00, 0.00, 0.00
1192.0, 3534.97, -187500.02, 11066.39, -187500.02, -187500.02, -187500.02, 5035.22, 22565.56, -17211.16, 9098.23, -2987.74, -187500.02, 67200.00, 50069.00, -187500.02, -9635.90, 0.00, 0.00, 0.00
1196.0, 3496.66, -187500.02, 11040.69, -187500.02, -187500.02, -187500.02, 5014.01, 22551.41, -17211.16, 9098.23, -2987.74, -187500.02, 67200.00, 50069.00, -187500.02, -9635.90, 0.00, 0.00, 0.00
1200.0, 3496.66, -187500.02, 11040.69, -187500.02, -187500.02, -187500.02, 5014.01, 22551.41, -17254.41, 9080.82, -2994.37, -187500.02, 67280.27, 50144.73, -187500.02, -9645.11, 0.00, 0.00, 0.00
1204.0, 3520.96, -187500.02, 11048.91, -187500.02, -187500.02, -187500.02, 5042.44, 22557.60, -17254.41, 9080.82, -2994.37, -187500.02, 67280.27, 50144.73, -187500.02, -9645.11, 0.00, 0.00, 0.00
1208.0, 3520.96, -187500.02, 11048.91, -187500.02, -187500.02, -187500.02, 5042.44, 22557.60, -17302.53, 9081.83, -2997.37, -187500.02, 67189.77, 50061.87, -187500.02, -9646.74, 0.00, 0.00, 0.00
1212.0, 3468.77, -187500.02, 11012.15, -187500.02, -187500.02, -187500.02, 5003.01, 22541.46, -17302.53, 9081.83, -2997.37, -187500.02, 67189.77, 50061.87, -187500.02, -9646.74, 0.00, 0.00, 0.00
1216.0, 3468.77, -187500.02, 11012.15, -187500.02, -187500.02, -187500.02, 5003.01, 22541.46, -17345.00, 9053.44, -3018.87, -187500.02, 67298.26, 50158.07, -187500.02, -9674.73, 0.00, 0.00, 0.00
1220.0, 3501.18, -187500.02, 11000.97, -187500.02, -187500.02, -187500.02, 5025.77, 22554.59, -17345.00, 9053.44, -3018.87, -187500.02, 67298.26, 50158.07, -187500.02, -9674.73, 0.00, 0.00, 0.00
1224.0, 3501.18, -187500.02, 11000.97, -187500.02, -187500.02, -187500.02, 5025.77, 22554.59, -17353.94, 9093.23, -2988.05, -187500.02, 67173.36, 50059.50, -187500.02, -9646.63, 0.00, 0.00, 0.00
1228.0, 3492.88, -187500.02, 11017.00, -187500.02, -187500.02, -187500.02, 5013.14, 22564.06, -17353.94, 9093.23, -2988.05, -187500.02, 67173.36, 50059.50, -187500.02, -9646.63, 0.00, 0.00, 0.00
1232.0, 3492.88, -187500.02, 11017.00, -187500.02, -187500.02, -187500.02, 5013.14, 22564.06, -17422.22, 9054.74, -3028.35, -187500.02, 67290.35, 50159.30, -187500.02, -9665.94, 0.00, 0.00, 0.00
1236.0, 3485.42, -187500.02, 10992.12, -187500.02, -187500.02, -187500.02, 5018.55, 22550.74, -17422.22, 9054.74, -3028.35, -187500.02, 67290.35, 50159.30, -187500.02, -9665.94, 0.00, 0.00, 0.00
1240.0, 3485.42, -187500.02, 10992.12, -187500.02, -187500.02, -187500.02, 5018.55, 22550.74, -17406.55, 9080.71, -2984.87, -187500.02, 67143.01, 50039.86, -187500.02, -9653.58, 0.00, 0.00, 0.00
1244.0, 3488.70, -187500.02, 10994.29, -187500.02, -187500.02, -187500.02, 5008.24, 22553.85, -17406.55, 9080.71, -2984.87, -187500.02, 67143.01, 50039.86, -187500.02, -9653.58, 0.00, 0.00, 0.00
1248.0, 3488.70, -187500.02, 10994.29, -187500.02, -187500.02, -187500.02, 5008.24, 22553.85, -17464.69, 9056.52, -3018.80, -187500.02, 67289.86, 50152.06, -187500.02, -9671.38, 0.00, 0.00, 0.00
1252.0, 3489.46, -187500.02, 10971.62, -187500.02, -187500.02, -187500.02, 5014.37, 22540.39, -17464.69, 9056.52, -3018.80, -187500.02, 67289.86, 50152.06, -187500.02, -9671.38, 0.00, 0.00, 0.00
1256.0, 3489.46, -187500.02, 10971.62, -187500.02, -187500.02, -187500.02, 5014.37, 22540.39, -17480.09, 9082.00, -2989.37, -187500.02, 67144.03, 50045.51, -187500.02, -9653.05, 0.00, 0.00, 0.00
1260.0, 3488.41, -187500.02, 10985.68, -187500.02, -187500.02, -187500.02, 5015.26, 22538.89, -17480.09, 9082.00, -2989.37, -187500.02, 67144.03, 50045.51, -187500.02, -9653.05, 0.00, 0.00, 0.00
1264.0, 3488.41, -187500.02, 10985.68, -187500.02, -187500.02, -187500.02, 5015.26, 22538.89, -17537.65, 9051.58, -3019.56, -187500.02, 67273.61, 50137.87, -187500.02, -9678.75, 0.00, 0.00, 0.00
1268.0, 3478.53, -187500.02, 10958.08, -187500.02, -187500.02, -187500.02, 5015.28, 22526.71, -17537.65, 9051.58, -3019.56, -187500.02, 67273.61, 50137.87, -187500.02, -9678.75, 0.00, 0.00, 0.00
1272.0, 3478.53, -187500.02, 10958.08, -187500.02, -187500.02, -187500.02, 5015.28, 22526.71, -17538.97, 9074.99, -2987.89, -187500.02, 67140.66, 50048.84, -187500.02, -9653.76, 0.00, 0.00, 0.00
1276.0, 3486.20, -187500.02, 10982.35, -187500.02, -187500.02, -187500.02, 5019.75, 22544.26, -17538.97, 9074.99, -2987.89, -187500.02, 67140.66, 50048.84, -187500.02, -9653.76, 0.00, 0.00, 0.00
1280.0, 3486.20, -187500.02, 10982.35, -187500.02, -187500.02, -187500.02, 5019.75, 22544.26, -17576.65, 9055.27, -3019.05, -187500.02, 67276.00, 50149.96, -187500.02, -9666.01, 0.00, 0.00, 0.00
1284.0, 3485.24, -187500.02, 10962.52, -187500.02, -187500.02, -187500.02, 5018.28, 22539.81, -17576.65, 9055.27, -3019.05, -187500.02, 67276.00, 50149.96, -187500.02, -9666.01, 0.00, 0.00, 0.00
1288.0, 3485.24, -187500.02, 10962.52, -187500.02, -187500.02, -187500.02, 5018.28, 22539.81, -17608.61, 9078.79, -2995.00, -187500.02, 67156.38, 50071.82, -187500.02, -9647.08, 0.00, 0.00, 0.00
1292.0, 3473.17, -187500.02, 10960.02, -187500.02, -187500.02, -187500.02, 5018.59, 22543.99, -17608.61, 9078.79, -2995.00, -187500.02, 67156.38, 50071.82, -187500.02, -9647.08, 0.00, 0.00, 0.00
1296.0, 3473.17, -187500.02, 10960.02, -187500.02, -187500.02, -187500.02, 5018.59, 22543.99, -17670.82, 9053.19, -3035.64, -187500.02, 67286.23, 50162.34, -187500.02, -9659.02, 0.00, 0.00, 0.00
1300.0, 3479.81, -187500.02, 10957.09, -187500.02, -187500.02, -187500.02, 5018.50, 22532.17, -17670.82, 9053.19, -3035.64, -187500.02, 67286.23, 50162.34, -187500.02, -9659.02, 0.00, 0.00, 0.00
1304.0, 3479.81, -187500.02, 10957.09, -187500.02, -187500.02, -187500.02, 5018.50, 22532.17, -17660.36, 9089.52, -2991.89, -187500.02, 67180.13, 50098.68, -187500.02, -9632.69, 0.00, 0.00, 0.00
1308.0, 3487.21, -187500.02, 10967.80, -187500.02, -187500.02, -187500.02, 5029.79, 22530.89, -17660.36, 9089.52, -2991.89, -187500.02, 67180.13, 50098.68, -187500.02, -9632.69, 0.00, 0.00, 0.00
1312.0, 3487.21, -187500.02, 10967.80, -187500.02, -187500.02, -187500.02, 5029.79, 22530.89, -17705.49, 9060.53, -3019.92, -187500.02, 67258.25, 50133.53, -187500.02, -9658.59, 0.00, 0.00, 0.00
1316.0, 3478.74, -187500.02, 10937.40, -187500.02, -187500.02, -187500.02, 5020.25, 22508.21, -17705.49, 9060.53, -3019.92, -187500.02, 67258.25, 50133.53, -187500.02, -9658.59, 0.00, 0.00, 0.00
1320.0, 3478.74, -187500.02, 10937.40, -187500.02, -187500.02, -187500.02, 5020.25, 22508.21, -17711.63, 9088.87, -2981.99, -187500.02, 67182.23, 50098.01, -187500.02, -9628.08, 0.00, 0.00, 0.00
1324.0, 3500.51, -187500.02, 10958.01, -187500.02, -187500.02, -187500.02, 5043.96, 22519.76, -17711.63, 9088.87, -2981.99, -187500.02, 67182.23, 50098.01, -187500.02, -9628.08, 0.00, 0.00, 0.00
1328.0, 3500.51, -187500.02, 10958.01, -187500.02, -187500.02, -187500.02, 5043.96, 22519.76, -17736.27, 9066.98, -3012.34, -187500.02, 67237.60, 50119.49, -187500.02, -9655.10, 0.00, 0.00, 0.00
1332.0, 3476.57, -187500.02, 10923.25, -187500.02, -187500.02, -187500.02, 5023.04, 22490.68, -17736.27, 9066.98, -3012.34, -187500.02, 67237.60, 50119.49, -187500.02, -9655.10, 0.00, 0.00, 0.00
1336.0, 3476.57, -187500.02, 10923.25, -187500.02, -187500.02, -187500.02, 5023.04, 22490.68, -17753.77, 9082.34, -2989.88, -187500.02, 67184.42, 50101.70, -187500.02, -9637.36, 0.00, 0.00, 0.00
1340.0, 3474.67, -187500.02, 10931.50, -187500.02, -187500.02, -187500.02, 5039.36, 22486.81, -17753.77, 9082.34, -2989.88, -187500.02, 67184.42, 50101.70, -187500.02, -9637.36, 0.00, 0.00, 0.00
1344.0, 3474.67, -187500.02, 10931.50, -187500.02, -187500.02, -187500.02, 5039.36, 22486.81, -17777.55, 9077.47, -3001.48, -187500.02, 67181.02, 50079.42, -187500.02, -9660.63, 0.00, 0.00, 0.00
1348.0, 3483.21, -187500.02, 10911.94, -187500.02, -187500.02, -187500.02, 5020.11, 22451.92, -17777.55, 9077.47, -3001.48, -187500.02, 67181.02, 50079.42, -187500.02, -9660.63, 0.00, 0.00, 0.00
1352.0, 3483.21, -187500.02, 10911.94, -187500.02, -187500.02, -187500.02, 5020.11, 22451.92, -17798.07, 9090.92, -3010.85, -187500.02, 67193.37, 50118.46, -187500.02, -9661.79, 0.00, 0.00, 0.00
1356.0, 3517.20, -187500.02, 10921.93, -187500.02, -187500.02, -187500.02, 5031.20, 22452.04, -17798.07, 9090.92, -3010.85, -187500.02, 67193.37, 50118.46, -187500.02, -9661.79, 0.00, 0.00, 0.00
1360.0, 3517.20, -187500.02, 10921.93, -187500.02, -187500.02, -187500.02, 5031.20, 22452.04, -17807.54, 9098.21, -3006.35, -187500.02, 67187.33, 50103.71, -187500.02, -9665.39, 0.00, 0.00, 0.00
1364.0, 3494.49, -187500.02, 10908.72, -187500.02, -187500.02, -187500.02, 5007.37, 22409.28, -17807.54, 9098.21, -3006.35, -187500.02, 67187.33, 50103.71, -187500.02, -9665.39, 0.00, 0.00, 0.00
1368.0, 3494.49, -187500.02, 10908.72, -187500.02, -187500.02, -187500.02, 5007.37, 22409.28, -17821.98, 9085.98, -3007.87, -187500.02, 67225.33, 50162.07, -187500.02, -9663.84, 0.00, 0.00, 0.00
1372.0, 3484.12, -187500.02, 10908.10, -187500.02, -187500.02, -187500.02, 5038.87, 22419.76, -17821.98, 9085.98, -3007.87, -187500.02, 67225.33, 50162.07, -187500.02, -9663.84, 0.00, 0.00, 0.00
1376.0, 3484.12, -187500.02, 10908.10, -187500.02, -187500.02, -187500.02, 5038.87, 22419.76, -17816.40, 9078.34, -3013.60, -187500.02, 67150.70, 50081.50, -187500.02, -9668.11, 0.00, 0.00, 0.00
1380.0, 3522.30, -187500.02, 10904.57, -187500.02, -187500.02, -187500.02, 5030.17, 22410.10, -17816.40, 9078.34, -3013.60, -187500.02, 67150.70, 50081.50, -187500.02, -9668.11, 0.00, 0.00, 0.00
1384.0, 3522.30, -187500.02, 10904.57, -187500.02, -187500.02, -187500.02, 5030.17, 22410.10, -17891.39, 9130.69, -2975.24, -187500.02, 67222.65, 50172.87, -187500.02, -9655.95, 0.00, 0.00, 0.00
1388.0, 3537.79, -187500.02, 10915.74, -187500.02, -187500.02, -187500.02, 5056.30, 22392.04, -17891.39, 9130.69, -2975.24, -187500.02, 67222.65, 50172.87, -187500.02, -9655.95, 0.00, 0.00, 0.00
1392.0, 3537.79, -187500.02, 10915.74, -187500.02, -187500.02, -187500.02, 5056.30, 22392.04, -17901.15, 9123.42, -2979.15, -187500.02, 67119.52, 50078.12, -187500.02, -9645.20, 0.00, 0.00, 0.00
1396.0, 3508.20, -187500.02, 10896.88, -187500.02, -187500.02, -187500.02, 5036.92, 22350.58, -17901.15, 9123.42, -2979.15, -187500.02, 67119.52, 50078.12, -187500.02, -9645.20, 0.00, 0.00, 0.00
1400.0, 3508.20, -187500.02, 10896.88, -187500.02, -187500.02, -187500.02, 5036.92, 22350.58, -17975.52, 9085.94, -2991.16, -187500.02, 67198.82, 50160.11, -187500.02, -9663.51, 0.00, 0.00, 0.00
1404.0, 3517.78, -187500.02, 10875.75, -187500.02, -187500.02, -187500.02, 5055.20, 22321.30, -17975.52, 9085.94, -2991.16, -187500.02, 67198.82, 50160.11, -187500.02, -9663.51, 0.00, 0.00, 0.00
1408.0, 3517.78, -187500.02, 10875.75, -187500.02, -187500.02, -187500.02, 5055.20, 22321.30, -18031.51, 9094.81, -2996.21, -187500.02, 67107.18, 50077.23, -187500.02, -9656.24, 0.00, 0.00, 0.00
1412.0, 3540.45, -187500.02, 10856.60, -187500.02, -187500.02, -187500.02, 5028.63, 22291.77, -18031.51, 9094.81, -2996.21, -187500.02, 67107.18, 50077.23, -187500.02, -9656.24, 0.00, 0.00, 0.00
1416.0, 3540.45, -187500.02, 10856.60, -187500.02, -187500.02, -187500.02, 5028.63, 22291.77, -18137.46, 9093.74, -2985.19, -187500.02, 67228.14, 50189.16, -187500.02, -9663.78, 0.00, 0.00, 0.00
1420.0, 3573.02, -187500.02, 10874.01, -187500.02, -187500.02, -187500.02, 5058.20, 22278.86, -18137.46, 9093.74, -2985.19, -187500.02, 67228.14, 50189.16, -187500.02, -9663.78, 0.00, 0.00, 0.00
1424.0, 3573.02, -187500.02, 10874.01, -187500.02, -187500.02, -187500.02, 5058.20, 22278.86, -18125.48, 9132.48, -2967.60, -187500.02, 67095.91, 50086.19, -187500.02, -9635.77, 0.00, 0.00, 0.00
1428.0, 3576.35, -187500.02, 10874.75, -187500.02, -187500.02, -187500.02, 5045.91, 22268.39, -18125.48, 9132.48, -2967.60, -187500.02, 67095.91, 50086.19, -187500.02, -9635.77, 0.00, 0.00, 0.00
1432.0, 3576.35, -187500.02, 10874.75, -187500.02, -187500.02, -187500.02, 5045.91, 22268.39, -18177.13, 9107.17, -2981.99, -187500.02, 67204.90, 50174.59, -187500.02, -9659.64, 0.00, 0.00, 0.00
1436.0, 3580.24, -187500.02, 10860.65, -187500.02, -187500.02, -187500.02, 5048.57, 22245.46, -18177.13, 9107.17, -2981.99, -187500.02, 67204.90, 50174.59, -187500.02, -9659.64, 0.00, 0.00, 0.00
1440.0, 3580.24, -187500.02, 10860.65, -187500.02, -187500.02, -187500.02, 5048.57, 22245.46, -18134.93, 9110.64, -2978.41, -187500.02, 67071.23, 50064.06, -187500.02, -9660.74, 0.00, 0.00, 0.00
1444.0, 3585.73, -187500.02, 10831.74, -187500.02, -187500.02, -187500.02, 5030.82, 22221.05, -18134.93, 9110.64, -2978.41, -187500.02, 67071.23, 50064.06, -187500.02, -9660.74, 0.00, 0.00, 0.00
1448.0, 3585.73, -187500.02, 10831.74, -187500.02, -187500.02, -187500.02, 5030.82, 22221.05, -18191.55, 9101.12, -3003.83, -187500.02, 67209.64, 50173.27, -187500.02, -9677.99, 0.00, 0.00, 0.00
1452.0, 3589.35, -187500.02, 10840.01, -187500.02, -187500.02, -187500.02, 5044.36, 22218.97, -18191.55, 9101.12, -3003.83, -187500.02, 67209.64, 50173.27, -187500.02, -9677.99, 0.00, 0.00, 0.00
1456.0, 3589.35, -187500.02, 10840.01, -187500.02, -187500.02, -187500.02, 5044.36, 22218.97, -18173.93, 9130.71, -2975.44, -187500.02, 67073.63, 50068.78, -187500.02, -9630.18, 0.00, 0.00, 0.00
1460.0, 3579.27, -187500.02, 10841.74, -187500.02, -187500.02, -187500.02, 5032.20, 22224.79, -18173.93, 9130.71, -2975.44, -187500.02, 67073.63, 50068.78, -187500.02, -9630.18, 0.00, 0.00, 0.00
1464.0, 3579.27, -187500.02, 10841.74, -187500.02, -187500.02, -187500.02, 5032.20, 22224.79, -18198.43, 9084.44, -3026.31, -187500.02, 67220.12, 50184.49, -187500.02, -9675.02, 0.00, 0.00, 0.00
1468.0, 3579.99, -187500.02, 10818.65, -187500.02, -187500.02, -187500.02, 5043.76, 22212.92, -18198.43, 9084.44, -3026.31, -187500.02, 67220.12, 50184.49, -187500.02, -9675.02, 0.00, 0.00, 0.00
1472.0, 3579.99, -187500.02, 10818.65, -187500.02, -187500.02, -187500.02, 5043.76, 22212.92, -18201.58, 9126.08, -2964.49, -187500.02, 67085.45, 50089.09, -187500.02, -9656.91, 0.00, 0.00, 0.00
1476.0, 3606.16, -187500.02, 10838.18, -187500.02, -187500.02, -187500.02, 5053.71, 22220.05, -18201.58, 9126.08, -2964.49, -187500.02, 67085.45, 50089.09, -187500.02, -9656.91, 0.00, 0.00, 0.00
1480.0, 3606.16, -187500.02, 10838.18, -187500.02, -187500.02, -187500.02, 5053.71, 22220.05, -18232.07, 9115.94, -3008.59, -187500.02, 67209.48, 50184.38, -187500.02, -9648.62, 0.00, 0.00, 0.00
1484.0, 3582.00, -187500.02, 10787.96, -187500.02, -187500.02, -187500.02, 5034.26, 22200.82, -18232.07, 9115.94, -3008.59, -187500.02, 67209.48, 50184.38, -187500.02, -9648.62, 0.00, 0.00, 0.00
1488.0, 3582.00, -187500.02, 10787.96, -187500.02, -187500.02, -187500.02, 5034.26, 22200.82, -18187.39, 9098.86, -2987.91, -187500.02, 67058.27, 50075.26, -187500.02, -9678.26, 0.00, 0.00, 0.00
1492.0, 3587.50, -187500.02, 10786.19, -187500.02, -187500.02, -187500.02, 5032.32, 22198.59, -18187.39, 9098.86, -2987.91, -187500.02, 67058.27, 50075.26, -187500.02, -9678.26, 0.00, 0.00, 0.00
1496.0, 3587.50, -187500.02, 10786.19, -187500.02, -187500.02, -187500.02, 5032.32, 22198.59, -18251.49, 9104.78, -2998.71, -187500.02, 67186.16, 50172.20, -187500.02, -9652.20, 0.00, 0.00, 0.00
1500.0, 3586.99, -187500.02, 10775.55, -187500.02, -187500.02, -187500.02, 5044.81, 22198.99, -18251.49, 9104.78, -2998.71, -187500.02, 67186.16, 50172.20, -187500.02, -9652.20, 0.00, 0.00, 0.00
1504.0, 3586.99, -187500.02, 10775.55, -187500.02, -187500.02, -187500.02, 5044.81, 22198.99, -18246.31, 9103.75, -2989.97, -187500.02, 67057.51, 50086.10, -187500.02, -9627.46, 0.00, 0.00, 0.00
1508.0, 3591.30, -187500.02, 10760.20, -187500.02, -187500.02, -187500.02, 5043.31, 22213.16, -18246.31, 9103.75, -2989.97, -187500.02, 67057.51, 50086.10, -187500.02, -9627.46, 0.00, 0.00, 0.00
1512.0, 3591.30, -187500.02, 10760.20, -187500.02, -187500.02, -187500.02, 5043.31, 22213.16, -18260.75, 9100.24, -3001.19, -187500.02, 67144.05, 50145.60, -187500.02, -9669.68, 0.00, 0.00, 0.00
1516.0, 3554.13, -187500.02, 10715.16, -187500.02, -187500.02, -187500.02, 5024.29, 22186.32, -18260.75, 9100.24, -3001.19, -187500.02, 67144.05, 50145.60, -187500.02, -9669.68, 0.00, 0.00, 0.00
1520.0, 3554.13, -187500.02, 10715.16, -187500.02, -187500.02, -187500.02, 5024.29, 22186.32, -18253.06, 9093.90, -2999.60, -187500.02, 67086.10, 50132.48, -187500.02, -9638.05, 0.00, 0.00, 0.00
1524.0, 3596.64, -187500.02, 10755.79, -187500.02, -187500.02, -187500.02, 5043.63, 22209.86, -18253.06, 9093.90, -2999.60, -187500.02, 67086.10, 50132.48, -187500.02, -9638.05, 0.00, 0.00, 0.00
1528.0, 3596.64, -187500.02, 10755.79, -187500.02, -187500.02, -187500.02, 5043.63, 22209.86, -18269.31, 9101.56, -3026.00, -187500.02, 67161.07, 50182.84, -187500.02, -9666.10, 0.00, 0.00, 0.00
1532.0, 3537.86, -187500.02, 10702.13, -187500.02, -187500.02, -187500.02, 5027.53, 22203.35, -18269.31, 9101.56, -3026.00, -187500.02, 67161.07, 50182.84, -187500.02, -9666.10, 0.00, 0.00, 0.00
1536.0, 3537.86, -187500.02, 10702.13, -187500.02, -187500.02, -187500.02, 5027.53, 22203.35, -18237.73, 9104.78, -2985.39, -187500.02, 67150.74, 50204.21, -187500.02, -9647.77, 0.00, 0.00, 0.00
1540.0, 3616.40, -187500.02, 10736.26, -187500.02, -187500.02, -187500.02, 5074.61, 22229.97, -18237.73, 9104.78, -2985.39, -187500.02, 67150.74, 50204.21, -187500.02, -9647.77, 0.00, 0.00, 0.00
1544.0, 3616.40, -187500.02, 10736.26, -187500.02, -187500.02, -187500.02, 5074.61, 22229.97, -18291.39, 9111.53, -2992.97, -187500.02, 67162.43, 50196.16, -187500.02, -9659.37, 0.00, 0.00, 0.00
1548.0, 3562.67, -187500.02, 10714.82, -187500.02, -187500.02, -187500.02, 5050.67, 22208.87, -18291.39, 9111.53, -2992.97, -187500.02, 67162.43, 50196.16, -187500.02, -9659.37, 0.00, 0.00, 0.00
1552.0, 3562.67, -187500.02, 10714.82, -187500.02, -187500.02, -187500.02, 5050.67, 22208.87, -18286.52, 9114.48, -3014.47, -187500.02, 67181.14, 50243.88, -187500.02, -9647.77, 0.00, 0.00, 0.00
1556.0, 3594.36, -187500.02, 10723.50, -187500.02, -187500.02, -187500.02, 5079.32, 22213.05, -18286.52, 9114.48, -3014.47, -187500.02, 67181.14, 50243.88, -187500.02, -9647.77, 0.00, 0.00, 0.00
1560.0, 3594.36, -187500.02, 10723.50, -187500.02, -187500.02, -187500.02, 5079.32, 22213.05, -18234.60, 9145.80, -2968.96, -187500.02, 67147.55, 50191.31, -187500.02, -9636.22, 0.00, 0.00, 0.00
1564.0, 3596.71, -187500.02, 10757.20, -187500.02, -187500.02, -187500.02, 5092.64, 22235.60, -18234.60, 9145.80, -2968.96, -187500.02, 67147.55, 50191.31, -187500.02, -9636.22, 0.00, 0.00, 0.00
1568.0, 3596.71, -187500.02, 10757.20, -187500.02, -187500.02, -187500.02, 5092.64, 22235.60, -18252.28, 9122.84, -2985.88, -187500.02, 67215.70, 50285.39, -187500.02, -9644.78, 0.00, 0.00, 0.00
1572.0, 3577.96, -187500.02, 10713.88, -187500.02, -187500.02, -187500.02, 5095.64, 22227.15, -18252.28, 9122.84, -2985.88, -187500.02, 67215.70, 50285.39, -187500.02, -9644.78, 0.00, 0.00, 0.00
1576.0, 3577.96, -187500.02, 10713.88, -187500.02, -187500.02, -187500.02, 5095.64, 22227.15, -18275.63, 9136.03, -2987.85, -187500.02, 67144.48, 50206.06, -187500.02, -9658.52, 0.00, 0.00, 0.00
1580.0, 3578.51, -187500.02, 10717.46, -187500.02, -187500.02, -187500.02, 5094.74, 22235.45, -18275.63, 9136.03, -2987.85, -187500.02, 67144.48, 50206.06, -187500.02, -9658.52, 0.00, 0.00, 0.00
1584.0, 3578.51, -187500.02, 10717.46, -187500.02, -187500.02, -187500.02, 5094.74, 22235.45, -18226.55, 9124.00, -2994.42, -187500.02, 67202.98, 50279.69, -187500.02, -9650.39, 0.00, 0.00, 0.00
1588.0, 3564.86, -187500.02, 10693.05, -187500.02, -187500.02, -187500.02, 5104.65, 22240.23, -18226.55, 9124.00, -2994.42, -187500.02, 67202.98, 50279.69, -187500.02, -9650.39, 0.00, 0.00, 0.00
1592.0, 3564.86, -187500.02, 10693.05, -187500.02, -187500.02, -187500.02, 5104.65, 22240.23, -18280.69, 9125.17, -3007.16, -187500.02, 67129.06, 50212.39, -187500.02, -9645.63, 0.00, 0.00, 0.00
1596.0, 3562.76, -187500.02, 10675.21, -187500.02, -187500.02, -187500.02, 5100.94, 22245.30, -18280.69, 9125.17, -3007.16, -187500.02, 67129.06, 50212.39, -187500.02, -9645.63, 0.00, 0.00, 0.00
1600.0, 3562.76, -187500.02, 10675.21, -187500.02, -187500.02, -187500.02, 5100.94, 22245.30, -18276.39, 9082.88, -3023.95, -187500.02, 67303.47, 50397.73, -187500.02, -9674.44, 0.00, 0.00, 0.00
1604.0, 3529.18, -187500.02, 10659.99, -187500.02, -187500.02, -187500.02, 5119.22, 22254.67, -18276.39, 9082.88, -3023.95, -187500.02, 67303.47, 50397.73, -187500.02, -9674.44, 0.00, 0.00, 0.00
1608.0, 3529.18, -187500.02, 10659.99, -187500.02, -187500.02, -187500.02, 5119.22, 22254.67, -18279.12, 9142.13, -2992.97, -187500.02, 67218.35, 50344.80, -187500.02, -9634.67, 0.00, 0.00, 0.00
1612.0, 3588.55, -187500.02, 10661.78, -187500.02, -187500.02, -187500.02, 5140.95, 22275.95, -18279.12, 9142.13, -2992.97, -187500.02, 67218.35, 50344.80, -187500.02, -9634.67, 0.00, 0.00, 0.00
1616.0, 3588.55, -187500.02, 10661.78, -187500.02, -187500.02, -187500.02, 5140.95, 22275.95, -18303.98, 9127.07, -2990.06, -187500.02, 67340.57, 50471.00, -187500.02, -9640.58, 0.00, 0.00, 0.00
1620.0, 3581.24, -187500.02, 10643.03, -187500.02, -187500.02, -187500.02, 5150.98, 22278.43, -18303.98, 9127.07, -2990.06, -187500.02, 67340.57, 50471.00, -187500.02, -9640.58, 0.00, 0.00, 0.00
1624.0, 3581.24, -187500.02, 10643.03, -187500.02, -187500.02, -187500.02, 5150.98, 22278.43, -18292.38, 9133.28, -2980.69, -187500.02, 67174.59, 50331.52, -187500.02, -9616.12, 0.00, 0.00, 0.00
1628.0, 3588.89, -187500.02, 10630.56, -187500.02, -187500.02, -187500.02, 5141.53, 22265.55, -18292.38, 9133.28, -2980.69, -187500.02, 67174.59, 50331.52, -187500.02, -9616.12, 0.00, 0.00, 0.00
1632.0, 3588.89, -187500.02, 10630.56, -187500.02, -187500.02, -187500.02, 5141.53, 22265.55, -18290.97, 9110.84, -3002.40, -187500.02, 67299.91, 50442.72, -187500.02, -9662.44, 0.00, 0.00, 0.00
1636.0, 3588.55, -187500.02, 10620.50, -187500.02, -187500.02, -187500.02, 5148.30, 22242.94, -18290.97, 9110.84, -3002.40, -187500.02, 67299.91, 50442.72, -187500.02, -9662.44, 0.00, 0.00, 0.00
1640.0, 3588.55, -187500.02, 10620.50, -187500.02, -187500.02, -187500.02, 5148.30, 22242.94, -18284.06, 9137.26, -2972.38, -187500.02, 67148.26, 50323.95, -187500.02, -9598.13, 0.00, 0.00, 0.00
1644.0, 3579.99, -187500.02, 10605.99, -187500.02, -187500.02, -187500.02, 5137.08, 22222.26, -18284.06, 9137.26, -2972.38, -187500.02, 67148.26, 50323.95, -187500.02, -9598.13, 0.00, 0.00, 0.00
1648.0, 3579.99, -187500.02, 10605.99, -187500.02, -187500.02, -187500.02, 5137.08, 22222.26, -18342.96, 9104.87, -2998.15, -187500.02, 67286.59, 50430.61, -187500.02, -9652.76, 0.00, 0.00, 0.00
1652.0, 3542.82, -187500.02, 10584.62, -187500.02, -187500.02, -187500.02, 5138.64, 22193.45, -18342.96, 9104.87, -2998.15, -187500.02, 67286.59, 50430.61, -187500.02, -9652.76, 0.00, 0.00, 0.00
1656.0, 3542.82, -187500.02, 10584.62, -187500.02, -187500.02, -187500.02, 5138.64, 22193.45, -18297.76, 9109.01, -2975.64, -187500.02, 67138.09, 50311.07, -187500.02, -9618.11, 0.00, 0.00, 0.00
1660.0, 3528.71, -187500.02, 10596.29, -187500.02, -187500.02, -187500.02, 5134.42, 22191.93, -18297.76, 9109.01, -2975.64, -187500.02, 67138.09, 50311.07, -187500.02, -9618.11, 0.00, 0.00, 0.00
1664.0, 3528.71, -187500.02, 10596.29, -187500.02, -187500.02, -187500.02, 5134.42, 22191.93, -18304.31, 9108.72, -2998.13, -187500.02, 67247.81, 50389.21, -187500.02, -9638.97, 0.00, 0.00, 0.00
1668.0, 3547.11, -187500.02, 10598.91, -187500.02, -187500.02, -187500.02, 5136.72, 22176.44, -18304.31, 9108.72, -2998.13, -187500.02, 67247.81, 50389.21, -187500.02, -9638.97, 0.00, 0.00, 0.00
1672.0, 3547.11, -187500.02, 10598.91, -187500.02, -187500.02, -187500.02, 5136.72, 22176.44, -18333.59, 9144.72, -2976.20, -187500.02, 67130.31, 50303.02, -187500.02, -9622.13, 0.00, 0.00, 0.00
1676.0, 3525.38, -187500.02, 10616.70, -187500.02, -187500.02, -187500.02, 5140.70, 22172.53, -18333.59, 9144.72, -2976.20, -187500.02, 67130.31, 50303.02, -187500.02, -9622.13, 0.00, 0.00, 0.00
1680.0, 3525.38, -187500.02, 10616.70, -187500.02, -187500.02, -187500.02, 5140.70, 22172.53, -18336.10, 9106.26, -3008.08, -187500.02, 67238.83, 50376.29, -187500.02, -9653.90, 0.00, 0.00, 0.00
1684.0, 3499.10, -187500.02, 10580.06, -187500.02, -187500.02, -187500.02, 5131.02, 22162.40, -18336.10, 9106.26, -3008.08, -187500.02, 67238.83, 50376.29, -187500.02, -9653.90, 0.00, 0.00, 0.00
1688.0, 3499.10, -187500.02, 10580.06, -187500.02, -187500.02, -187500.02, 5131.02, 22162.40, -18313.92, 9118.42, -2986.33, -187500.02, 67146.25, 50316.05, -187500.02, -9642.03, 0.00, 0.00, 0.00
1692.0, 3481.71, -187500.02, 10603.78, -187500.02, -187500.02, -187500.02, 5135.63, 22164.10, -18313.92, 9118.42, -2986.33, -187500.02, 67146.25, 50316.05, -187500.02, -9642.03, 0.00, 0.00, 0.00
1696.0, 3481.71, -187500.02, 10603.78, -187500.02, -187500.02, -187500.02, 5135.63, 22164.10, -18347.27, 9089.60, -3012.50, -187500.02, 67202.46, 50346.61, -187500.02, -9650.19, 0.00, 0.00, 0.00
1700.0, 3486.22, -187500.02, 10583.57, -187500.02, -187500.02, -187500.02, 5129.30, 22177.82, -18347.27, 9089.60, -3012.50, -187500.02, 67202.46, 50346.61, -187500.02, -9650.19, 0.00, 0.00, 0.00
1704.0, 3486.22, -187500.02, 10583.57, -187500.02, -187500.02, -187500.02, 5129.30, 22177.82, -18275.19, 9118.46, -2988.23, -187500.02, 67127.12, 50303.02, -187500.02, -9655.57, 0.00, 0.00, 0.00
1708.0, 3496.55, -187500.02, 10598.53, -187500.02, -187500.02, -187500.02, 5145.33, 22205.99, -18275.19, 9118.46, -2988.23, -187500.02, 67127.12, 50303.02, -187500.02, -9655.57, 0.00, 0.00, 0.00
1712.0, 3496.55, -187500.02, 10598.53, -187500.02, -187500.02, -187500.02, 5145.33, 22205.99, -18350.89, 9099.57, -3009.98, -187500.02, 67210.40, 50357.70, -187500.02, -9662.75, 0.00, 0.00, 0.00
1716.0, 3482.00, -187500.02, 10575.01, -187500.02, -187500.02, -187500.02, 5135.11, 22192.49, -18350.89, 9099.57, -3009.98, -187500.02, 67210.40, 50357.70, -187500.02, -9662.75, 0.00, 0.00, 0.00
1720.0, 3482.00, -187500.02, 10575.01, -187500.02, -187500.02, -187500.02, 5135.11, 22192.49, -18302.55, 9107.80, -2994.06, -187500.02, 67150.90, 50340.98, -187500.02, -9640.22, 0.00, 0.00, 0.00
1724.0, 3494.76, -187500.02, 10571.59, -187500.02, -187500.02, -187500.02, 5148.95, 22192.93, -18302.55, 9107.80, -2994.06, -187500.02, 67150.90, 50340.98, -187500.02, -9640.22, 0.00, 0.00, 0.00
1728.0, 3494.76, -187500.02, 10571.59, -187500.02, -187500.02, -187500.02, 5148.95, 22192.93, -18334.11, 9104.36, -3002.58, -187500.02, 67164.38, 50324.68, -187500.02, -9678.28, 0.00, 0.00, 0.00
1732.0, 3495.59, -187500.02, 10576.69, -187500.02, -187500.02, -187500.02, 5136.68, 22189.13, -18334.11, 9104.36, -3002.58, -187500.02, 67164.38, 50324.68, -187500.02, -9678.28, 0.00, 0.00, 0.00
1736.0, 3495.59, -187500.02, 10576.69, -187500.02, -187500.02, -187500.02, 5136.68, 22189.13, -18315.60, 9113.01, -2992.03, -187500.02, 67159.50, 50353.70, -187500.02, -9645.72, 0.00, 0.00, 0.00
1740.0, 3486.36, -187500.02, 10576.53, -187500.02, -187500.02, -187500.02, 5143.92, 22189.11, -18315.60, 9113.01, -2992.03, -187500.02, 67159.50, 50353.70, -187500.02, -9645.72, 0.00, 0.00, 0.00
1744.0, 3486.36, -187500.02, 10576.53, -187500.02, -187500.02, -187500.02, 5143.92, 22189.11, -18333.30, 9091.77, -3015.18, -187500.02, 67167.46, 50341.22, -187500.02, -9680.00, 0.00, 0.00, 0.00
1748.0, 3460.90, -187500.02, 10547.05, -187500.02, -187500.02, -187500.02, 5131.94, 22193.72, -18333.30, 9091.77, -3015.18, -187500.02, 67167.46, 50341.22, -187500.02, -9680.00, 0.00, 0.00, 0.00
1752.0, 3460.90, -187500.02, 10547.05, -187500.02, -187500.02, -187500.02, 5131.94, 22193.72, -18337.86, 9090.54, -3007.70, -187500.02, 67196.61, 50393.08, -187500.02, -9671.89, 0.00, 0.00, 0.00
1756.0, 3472.32, -187500.02, 10563.39, -187500.02, -187500.02, -187500.02, 5154.65, 22222.48, -18337.86, 9090.54, -3007.70, -187500.02, 67196.61, 50393.08, -187500.02, -9671.89, 0.00, 0.00, 0.00
1760.0, 3472.32, -187500.02, 10563.39, -187500.02, -187500.02, -187500.02, 5154.65, 22222.48, -18320.07, 9088.64, -3017.08, -187500.02, 67131.65, 50315.41, -187500.02, -9680.38, 0.00, 0.00, 0.00
1764.0, 3456.54, -187500.02, 10543.38, -187500.02, -187500.02, -187500.02, 5132.52, 22195.15, -18320.07, 9088.64, -3017.08, -187500.02, 67131.65, 50315.41, -187500.02, -9680.38, 0.00, 0.00, 0.00
1768.0, 3456.54, -187500.02, 10543.38, -187500.02, -187500.02, -187500.02, 5132.52, 22195.15, -18343.92, 9091.66, -3007.11, -187500.02, 67191.06, 50389.57, -187500.02, -9675.80, 0.00, 0.00, 0.00
1772.0, 3473.98, -187500.02, 10549.55, -187500.02, -187500.02, -187500.02, 5164.46, 22207.66, -18343.92, 9091.66, -3007.11, -187500.02, 67191.06, 50389.57, -187500.02, -9675.80, 0.00, 0.00, 0.00
1776.0, 3473.98, -187500.02, 10549.55, -187500.02, -187500.02, -187500.02, 5164.46, 22207.66, -18321.70, 9085.98, -3010.89, -187500.02, 67118.42, 50309.57, -187500.02, -9685.93, 0.00, 0.00, 0.00
1780.0, 3444.56, -187500.02, 10518.78, -187500.02, -187500.02, -187500.02, 5137.30, 22192.42, -18321.70, 9085.98, -3010.89, -187500.02, 67118.42, 50309.57, -187500.02, -9685.93, 0.00, 0.00, 0.00
1784.0, 3444.56, -187500.02, 10518.78, -187500.02, -187500.02, -187500.02, 5137.30, 22192.42, -18318.13, 9071.59, -3021.17, -187500.02, 67217.35, 50413.04, -187500.02, -9692.66, 0.00, 0.00, 0.00
1788.0, 3461.68, -187500.02, 10500.27, -187500.02, -187500.02, -187500.02, 5157.84, 22212.02, -18318.13, 9071.59, -3021.17, -187500.02, 67217.35, 50413.04, -187500.02, -9692.66, 0.00, 0.00, 0.00
1792.0, 3461.68, -187500.02, 10500.27, -187500.02, -187500.02, -187500.02, 5157.84, 22212.02, -18314.59, 9082.65, -3015.76, -187500.02, 67138.98, 50337.85, -187500.02, -9692.27, 0.00, 0.00, 0.00
1796.0, 3470.29, -187500.02, 10521.41, -187500.02, -187500.02, -187500.02, 5155.61, 22239.94, -18314.59, 9082.65, -3015.76, -187500.02, 67138.98, 50337.85, -187500.02, -9692.27, 0.00, 0.00, 0.00
1800.0, 3470.29, -187500.02, 10521.41, -187500.02, -187500.02, -187500.02, 5155.61, 22239.94, -18295.17, 9088.93, -3003.96, -187500.02, 67233.91, 50430.14, -187500.02, -9655.35, 0.00, 0.00, 0.00
1804.0, 3490.96, -187500.02, 10516.09, -187500.02, -187500.02, -187500.02, 5175.50, 22242.55, -18295.17, 9088.93, -3003.96, -187500.02, 67233.91, 50430.14, -187500.02, -9655.35, 0.00, 0.00, 0.00
1808.0, 3490.96, -187500.02, 10516.09, -187500.02, -187500.02, -187500.02, 5175.50, 22242.55, -18259.70, 9087.91, -2999.54, -187500.02, 67122.69, 50321.75, -187500.02, -9657.16, 0.00, 0.00, 0.00
1812.0, 3465.57, -187500.02, 10504.49, -187500.02, -187500.02, -187500.02, 5142.98, 22214.79, -18259.70, 9087.91, -2999.54, -187500.02, 67122.69, 50321.75, -187500.02, -9657.16, 0.00, 0.00, 0.00
1816.0, 3465.57, -187500.02, 10504.49, -187500.02, -187500.02, -187500.02, 5142.98, 22214.79, -18303.22, 9067.54, -3019.14, -187500.02, 67243.34, 50422.23, -187500.02, -9679.49, 0.00, 0.00, 0.00
1820.0, 3478.60, -187500.02, 10498.93, -187500.02, -187500.02, -187500.02, 5160.37, 22198.21, -18303.22, 9067.54, -3019.14, -187500.02, 67243.34, 50422.23, -187500.02, -9679.49, 0.00, 0.00, 0.00
1824.0, 3478.60, -187500.02, 10498.93, -187500.02, -187500.02, -187500.02, 5160.37, 22198.21, -18241.93, 9086.90, -2994.26, -187500.02, 67125.86, 50318.60, -187500.02, -9668.00, 0.00, 0.00, 0.00
1828.0, 3473.08, -187500.02, 10512.41, -187500.02, -187500.02, -187500.02, 5151.56, 22195.42, -18241.93, 9086.90, -2994.26, -187500.02, 67125.86, 50318.60, -187500.02, -9668.00, 0.00, 0.00, 0.00
1832.0, 3473.08, -187500.02, 10512.41, -187500.02, -187500.02, -187500.02, 5151.56, 22195.42, -18268.19, 9073.82, -3011.94, -187500.02, 67252.58, 50414.36, -187500.02, -9693.57, 0.00, 0.00, 0.00
1836.0, 3472.14, -187500.02, 10512.18, -187500.02, -187500.02, -187500.02, 5149.42, 22186.10, -18268.19, 9073.82, -3011.94, -187500.02, 67252.58, 50414.36, -187500.02, -9693.57, 0.00, 0.00, 0.00
1840.0, 3472.14, -187500.02, 10512.18, -187500.02, -187500.02, -187500.02, 5149.42, 22186.10, -18262.13, 9068.13, -3006.69, -187500.02, 67132.48, 50309.13, -187500.02, -9698.00, 0.00, 0.00, 0.00
1844.0, 3442.06, -187500.02, 10516.67, -187500.02, -187500.02, -187500.02, 5124.94, 22169.94, -18262.13, 9068.13, -3006.69, -187500.02, 67132.48, 50309.13, -187500.02, -9698.00, 0.00, 0.00, 0.00
1848.0, 3442.06, -187500.02, 10516.67, -187500.02, -187500.02, -187500.02, 5124.94, 22169.94, -18268.79, 9049.28, -3019.27, -187500.02, 67279.73, 50413.62, -187500.02, -9721.00, 0.00, 0.00, 0.00
1852.0, 3458.42, -187500.02, 10525.59, -187500.02, -187500.02, -187500.02, 5133.77, 22162.92, -18268.79, 9049.28, -3019.27, -187500.02, 67279.73, 50413.62, -187500.02, -9721.00, 0.00, 0.00, 0.00
1856.0, 3458.42, -187500.02, 10525.59, -187500.02, -187500.02, -187500.02, 5133.77, 22162.92, -18230.82, 9062.76, -3005.73, -187500.02, 67119.80, 50276.49, -187500.02, -9710.89, 0.00, 0.00, 0.00
1860.0, 3451.24, -187500.02, 10525.93, -187500.02, -187500.02, -187500.02, 5093.25, 22162.74, -18230.82, 9062.76, -3005.73, -187500.02, 67119.80, 50276.49, -187500.02, -9710.89, 0.00, 0.00, 0.00
1864.0, 3451.24, -187500.02, 10525.93, -187500.02, -187500.02, -187500.02, 5093.25, 22162.74, -18248.01, 9039.25, -3012.50, -187500.02, 67274.37, 50387.20, -187500.02, -9719.37, 0.00, 0.00, 0.00
1868.0, 3462.04, -187500.02, 10524.63, -187500.02, -187500.02, -187500.02, 5109.50, 22197.09, -18248.01, 9039.25, -3012.50, -187500.02, 67274.37, 50387.20, -187500.02, -9719.37, 0.00, 0.00, 0.00
1872.0, 3462.04, -187500.02, 10524.63, -187500.02, -187500.02, -187500.02, 5109.50, 22197.09, -18184.84, 9068.30, -2974.06, -187500.02, 67144.52, 50286.66, -187500.02, -9685.06, 0.00, 0.00, 0.00
1876.0, 3454.75, -187500.02, 10552.68, -187500.02, -187500.02, -187500.02, 5075.08, 22162.47, -18184.84, 9068.30, -2974.06, -187500.02, 67144.52, 50286.66, -187500.02, -9685.06, 0.00, 0.00, 0.00
1880.0, 3454.75, -187500.02, 10552.68, -187500.02, -187500.02, -187500.02, 5075.08, 22162.47, -18161.60, 9031.36, -3005.19, -187500.02, 67211.42, 50324.37, -187500.02, -9711.18, 0.00, 0.00, 0.00
1884.0, 3438.93, -187500.02, 10541.26, -187500.02, -187500.02, -187500.02, 4990.88, 21989.47, -18161.60, 9031.36, -3005.19, -187500.02, 67211.42, 50324.37, -187500.02, -9711.18, 0.00, 0.00, 0.00
1888.0, 3438.93, -187500.02, 10541.26, -187500.02, -187500.02, -187500.02, 4990.88, 21989.47, -18181.67, 9048.23, -2995.69, -187500.02, 67168.87, 50319.83, -187500.02, -9700.63, 0.00, 0.00, 0.00
1892.0, 3455.40, -187500.02, 10553.35, -187500.02, -187500.02, -187500.02, 4941.46, 21816.62, -18181.67, 9048.23, -2995.69, -187500.02, 67168.87, 50319.83, -187500.02, -9700.63, 0.00, 0.00, 0.00
1896.0, 3455.40, -187500.02, 10553.35, -187500.02, -187500.02, -187500.02, 4941.46, 21816.62, -18161.53, 9039.09, -3002.51, -187500.02, 67220.66, 50332.24, -187500.02, -9701.80, 0.00, 0.00, 0.00
1900.0, 3446.30, -187500.02, 10558.72, -187500.02, -187500.02, -187500.02, 4866.89, 21658.21, -18161.53, 9039.09, -3002.51, -187500.02, 67220.66, 50332.24, -187500.02, -9701.80, 0.00, 0.00, 0.00
1904.0, 3446.30, -187500.02, 10558.72, -187500.02, -187500.02, -187500.02, 4866.89, 21658.21, -18149.55, 9036.32, -2994.46, -187500.02, 67173.09, 50308.05, -187500.02, -9700.34, 0.00, 0.00, 0.00
1908.0, 3454.69, -187500.02, 10583.73, -187500.02, -187500.02, -187500.02, 4796.42, 21558.66, -18149.55, 9036.32, -2994.46, -187500.02, 67173.09, 50308.05, -187500.02, -9700.34, 0.00, 0.00, 0.00
1912.0, 3454.69, -187500.02, 10583.73, -187500.02, -187500.02, -187500.02, 4796.42, 21558.66, -18152.79, 9026.71, -3004.77, -187500.02, 67196.65, 50290.48, -187500.02, -9702.31, 0.00, 0.00, 0.00
1916.0, 3447.42, -187500.02, 10594.28, -187500.02, -187500.02, -187500.02, 4692.99, 21492.90, -18152.79, 9026.71, -3004.77, -187500.02, 67196.65, 50290.48, -187500.02, -9702.31, 0.00, 0.00, 0.00
1920.0, 3447.42, -187500.02, 10594.28, -187500.02, -187500.02, -187500.02, 4692.99, 21492.90, -18157.15, 9024.32, -2989.23, -187500.02, 67153.00, 50266.90, -187500.02, -9694.08, 0.00, 0.00, 0.00
1924.0, 3447.98, -187500.02, 10630.80, -187500.02, -187500.02, -187500.02, 4608.57, 21448.96, -18157.15, 9024.32, -2989.23, -187500.02, 67153.00, 50266.90, -187500.02, -9694.08, 0.00, 0.00, 0.00
1928.0, 3447.98, -187500.02, 10630.80, -187500.02, -187500.02, -187500.02, 4608.57, 21448.96, -18148.68, 9008.02, -3003.43, -187500.02, 67173.27, 50251.68, -187500.02, -9707.45, 0.00, 0.00, 0.00
1932.0, 3443.35, -187500.02, 10639.45, -187500.02, -187500.02, -187500.02, 4475.47, 21392.59, -18148.68, 9008.02, -3003.43, -187500.02, 67173.27, 50251.68, -187500.02, -9707.45, 0.00, 0.00, 0.00
1936.0, 3443.35, -187500.02, 10639.45, -187500.02, -187500.02, -187500.02, 4475.47, 21392.59, -18135.22, 8996.24, -2997.28, -187500.02, 67180.58, 50279.87, -187500.02, -9703.16, 0.00, 0.00, 0.00
1940.0, 3463.31, -187500.02, 10672.47, -187500.02, -187500.02, -187500.02, 4386.98, 21352.35, -18135.22, 8996.24, -2997.28, -187500.02, 67180.58, 50279.87, -187500.02, -9703.16, 0.00, 0.00, 0.00
1944.0, 3463.31, -187500.02, 10672.47, -187500.02, -187500.02, -187500.02, 4386.98, 21352.35, -18131.82, 8975.52, -3005.06, -187500.02, 67173.94, 50249.87, -187500.02, -9704.23, 0.00, 0.00, 0.00
1948.0, 3441.56, -187500.02, 10654.79, -187500.02, -187500.02, -187500.02, 4269.74, 21291.40, -18131.82, 8975.52, -3005.06, -187500.02, 67173.94, 50249.87, -187500.02, -9704.23, 0.00, 0.00, 0.00
1952.0, 3441.56, -187500.02, 10654.79, -187500.02, -187500.02, -187500.02, 4269.74, 21291.40, -18111.01, 8953.21, -3004.41, -187500.02, 67203.49, 50301.14, -187500.02, -9691.87, 0.00, 0.00, 0.00
1956.0, 3460.41, -187500.02, 10644.06, -187500.02, -187500.02, -187500.02, 4243.50, 21229.69, -18111.01, 8953.21, -3004.41, -187500.02, 67203.49, 50301.14, -187500.02, -9691.87, 0.00, 0.00, 0.00
1960.0, 3460.41, -187500.02, 10644.06, -187500.02, -187500.02, -187500.02, 4243.50, 21229.69, -18075.88, 8950.04, -2999.38, -187500.02, 67145.60, 50223.14, -187500.02, -9675.85, 0.00, 0.00, 0.00
1964.0, 3451.40, -187500.02, 10646.18, -187500.02, -187500.02, -187500.02, 4207.63, 21125.26, -18075.88, 8950.04, -2999.38, -187500.02, 67145.60, 50223.14, -187500.02, -9675.85, 0.00, 0.00, 0.00
1968.0, 3451.40, -187500.02, 10646.18, -187500.02, -187500.02, -187500.02, 4207.63, 21125.26, -18064.17, 8913.14, -3014.13, -187500.02, 67205.01, 50289.97, -187500.02, -9680.58, 0.00, 0.00, 0.00
1972.0, 3473.66, -187500.02, 10614.04, -187500.02, -187500.02, -187500.02, 4212.48, 20984.91, -18064.17, 8913.14, -3014.13, -187500.02, 67205.01, 50289.97, -187500.02, -9680.58, 0.00, 0.00, 0.00
1976.0, 3473.66, -187500.02, 10614.04, -187500.02, -187500.02, -187500.02, 4212.48, 20984.91, -18016.00, 8923.08, -2991.85, -187500.02, 67133.80, 50207.61, -187500.02, -9638.21, 0.00, 0.00, 0.00
1980.0, 3471.14, -187500.02, 10593.72, -187500.02, -187500.02, -187500.02, 4210.82, 20805.88, -18016.00, 8923.08, -2991.85, -187500.02, 67133.80, 50207.61, -187500.02, -9638.21, 0.00, 0.00, 0.00
1984.0, 3471.14, -187500.02, 10593.72, -187500.02, -187500.02, -187500.02, 4210.82, 20805.88, -17999.12, 8890.74, -3005.30, -187500.02, 67220.09, 50297.14, -187500.02, -9639.41, 0.00, 0.00, 0.00
1988.0, 3459.71, -187500.02, 10586.88, -187500.02, -187500.02, -187500.02, 4211.98, 20633.99, -17999.12, 8890.74, -3005.30, -187500.02, 67220.09, 50297.14, -187500.02, -9639.41, 0.00, 0.00, 0.00
1992.0, 3459.71, -187500.02, 10586.88, -187500.02, -187500.02, -187500.02, 4211.98, 20633.99, -17972.14, 8867.16, -3008.70, -187500.02, 67161.52, 50232.57, -187500.02, -9623.50, 0.00, 0.00, 0.00
1996.0, 3435.08, -187500.02, 10557.73, -187500.02, -187500.02, -187500.02, 4195.96, 20521.49, -17972.14, 8867.16, -3008.70, -187500.02, 67161.52, 50232.57, -187500.02, -9623.50, 0.00, 0.00, 0.00
2000.0, 3435.08, -187500.02, 10557.73, -187500.02, -187500.02, -187500.02, 4195.96, 20521.49, -17916.89, 8847.80, -3027.23, -187500.02, 67278.05, 50342.09, -187500.02, -9628.73, 0.00, 0.00, 0.00
2004.0, 3447.09, -187500.02, 10564.26, -187500.02, -187500.02, -187500.02, 4214.11, 20480.17, -17916.89, 8847.80, -3027.23, -187500.02, 67278.05, 50342.09, -187500.02, -9628.73, 0.00, 0.00, 0.00
2008.0, 3447.09, -187500.02, 10564.26, -187500.02, -187500.02, -187500.02, 4214.11, 20480.17, -17859.76, 8847.04, -3010.09, -187500.02, 67169.54, 50231.57, -187500.02, -9595.40, 0.00, 0.00, 0.00
2012.0, 3417.34, -187500.02, 10574.54, -187500.02, -187500.02, -187500.02, 4218.11, 20476.77, -17859.76, 8847.04, -3010.09, -187500.02, 67169.54, 50231.57, -187500.02, -9595.40, 0.00, 0.00, 0.00
2016.0, 3417.34, -187500.02, 10574.54, -187500.02, -187500.02, -187500.02, 4218.11, 20476.77, -17845.43, 8812.55, -3018.40, -187500.02, 67261.16, 50313.35, -187500.02, -9592.16, 0.00, 0.00, 0.00
2020.0, 3445.43, -187500.02, 10574.63, -187500.02, -187500.02, -187500.02, 4219.14, 20468.25, -17845.43, 8812.55, -3018.40, -187500.02, 67261.16, 50313.35, -187500.02, -9592.16, 0.00, 0.00, 0.00
2024.0, 3445.43, -187500.02, 10574.63, -187500.02, -187500.02, -187500.02, 4219.14, 20468.25, -17805.49, 8790.85, -3007.32, -187500.02, 67190.59, 50246.83, -187500.02, -9573.23, 0.00, 0.00, 0.00
2028.0, 3414.27, -187500.02, 10584.49, -187500.02, -187500.02, -187500.02, 4192.29, 20482.04, -17805.49, 8790.85, -3007.32, -187500.02, 67190.59, 50246.83, -187500.02, -9573.23, 0.00, 0.00, 0.00
2032.0, 3414.27, -187500.02, 10584.49, -187500.02, -187500.02, -187500.02, 4192.29, 20482.04, -17790.02, 8741.97, -3020.91, -187500.02, 67258.23, 50306.45, -187500.02, -9578.19, 0.00, 0.00, 0.00
2036.0, 3425.49, -187500.02, 10589.56, -187500.02, -187500.02, -187500.02, 4189.28, 20502.63, -17790.02, 8741.97, -3020.91, -187500.02, 67258.23, 50306.45, -187500.02, -9578.19, 0.00, 0.00, 0.00
2040.0, 3425.49, -187500.02, 10589.56, -187500.02, -187500.02, -187500.02, 4189.28, 20502.63, -17763.42, 8699.66, -2993.68, -187500.02, 67184.31, 50225.73, -187500.02, -9538.09, 0.00, 0.00, 0.00
2044.0, 3398.09, -187500.02, 10573.83, -187500.02, -187500.02, -187500.02, 4171.77, 20505.76, -17763.42, 8699.66, -2993.68, -187500.02, 67184.31, 50225.73, -187500.02, -9538.09, 0.00, 0.00, 0.00
2048.0, 3398.09, -187500.02, 10573.83, -187500.02, -187500.02, -187500.02, 4171.77, 20505.76, -17697.93, 8645.74, -2998.22, -187500.02, 67267.35, 50290.08, -187500.02, -9520.46, 0.00, 0.00, 0.00
2052.0, 3396.30, -187500.02, 10533.06, -187500.02, -187500.02, -187500.02, 4166.03, 20476.03, -17697.93, 8645.74, -2998.22, -187500.02, 67267.35, 50290.08, -187500.02, -9520.46, 0.00, 0.00, 0.00
2056.0, 3396.30, -187500.02, 10533.06, -187500.02, -187500.02, -187500.02, 4166.03, 20476.03, -17680.81, 8555.06, -2991.85, -187500.02, 67198.10, 50220.39, -187500.02, -9482.03, 0.00, 0.00, 0.00
2060.0, 3373.59, -187500.02, 10497.23, -187500.02, -187500.02, -187500.02, 4127.79, 20420.11, -17680.81, 8555.06, -2991.85, -187500.02, 67198.10, 50220.39, -187500.02, -9482.03, 0.00, 0.00, 0.00
2064.0, 3373.59, -187500.02, 10497.23, -187500.02, -187500.02, -187500.02, 4127.79, 20420.11, -17674.53, 8411.72, -3010.02, -187500.02, 67302.22, 50293.75, -187500.02, -9483.46, 0.00, 0.00, 0.00
2068.0, 3356.09, -187500.02, 10487.86, -187500.02, -187500.02, -187500.02, 4103.00, 20351.35, -17674.53, 8411.72, -3010.02, -187500.02, 67302.22, 50293.75, -187500.02, -9483.46, 0.00, 0.00, 0.00
2072.0, 3356.09, -187500.02, 10487.86, -187500.02, -187500.02, -187500.02, 4103.00, 20351.35, -17634.77, 8251.26, -2974.86, -187500.02, 67230.67, 50219.18, -187500.02, -9403.11, 0.00, 0.00, 0.00
2076.0, 3321.85, -187500.02, 10478.14, -187500.02, -187500.02, -187500.02, 4048.26, 20250.28, -17634.77, 8251.26, -2974.86, -187500.02, 67230.67, 50219.18, -187500.02, -9403.11, 0.00, 0.00, 0.00
2080.0, 3321.85, -187500.02, 10478.14, -187500.02, -187500.02, -187500.02, 4048.26, 20250.28, -17635.71, 7971.66, -2997.37, -187500.02, 67281.48, 50240.11, -187500.02, -9383.49, 0.00, 0.00, 0.00
2084.0, 3260.45, -187500.02, 10439.78, -187500.02, -187500.02, -187500.02, 3934.47, 20066.63, -17635.71, 7971.66, -2997.37, -187500.02, 67281.48, 50240.11, -187500.02, -9383.49, 0.00, 0.00, 0.00
2088.0, 3260.45, -187500.02, 10439.78, -187500.02, -187500.02, -187500.02, 3934.47, 20066.63, -17592.25, 7695.01, -2996.72, -187500.02, 67233.06, 50176.47, -187500.02, -9334.16, 0.00, 0.00, 0.00
2092.0, 3171.62, -187500.02, 10499.73, -187500.02, -187500.02, -187500.02, 3810.86, 19878.39, -17592.25, 7695.01, -2996.72, -187500.02, 67233.06, 50176.47, -187500.02, -9334.16, 0.00, 0.00, 0.00
2096.0, 3171.62, -187500.02, 10499.73, -187500.02, -187500.02, -187500.02, 3810.86, 19878.39, -17590.51, 7361.19, -3013.33, -187500.02, 67298.77, 50161.18, -187500.02, -9290.86, 0.00, 0.00, 0.00
2100.0, 3010.44, -187500.02, 10521.66, -187500.02, -187500.02, -187500.02, 3685.74, 19680.11, -17590.51, 7361.19, -3013.33, -187500.02, 67298.77, 50161.18, -187500.02, -9290.86, 0.00, 0.00, 0.00
2104.0, 3010.44, -187500.02, 10521.66, -187500.02, -187500.02, -187500.02, 3685.74, 19680.11, -17579.94, 6999.05, -3019.39, -187500.02, 67454.10, 50116.07, -187500.02, -9240.34, 0.00, 0.00, 0.00
2108.0, 2861.45, -187500.02, 10583.15, -187500.02, -187500.02, -187500.02, 3605.78, 19566.76, -17579.94, 6999.05, -3019.39, -187500.02, 67454.10, 50116.07, -187500.02, -9240.34, 0.00, 0.00, 0.00
2112.0, 2861.45, -187500.02, 10583.15, -187500.02, -187500.02, -187500.02, 3605.78, 19566.76, -17551.10, 6649.13, -3025.35, -187500.02, 67604.95, 50092.05, -187500.02, -9171.46, 0.00, 0.00, 0.00
2116.0, 2797.48, -187500.02, 10666.65, -187500.02, -187500.02, -187500.02, 3503.59, 19503.30, -17551.10, 6649.13, -3025.35, -187500.02, 67604.95, 50092.05, -187500.02, -9171.46, 0.00, 0.00, 0.00
2120.0, 2797.48, -187500.02, 10666.65, -187500.02, -187500.02, -187500.02, 3503.59, 19503.30, -17550.39, 6265.04, -3036.40, -187500.02, 67663.78, 50125.26, -187500.02, -9117.75, 0.00, 0.00, 0.00
2124.0, 2690.90, -187500.02, 10787.20, -187500.02, -187500.02, -187500.02, 3417.81, 19456.70, -17550.39, 6265.04, -3036.40, -187500.02, 67663.78, 50125.26, -187500.02, -9117.75, 0.00, 0.00, 0.00
2128.0, 2690.90, -187500.02, 10787.20, -187500.02, -187500.02, -187500.02, 3417.81, 19456.70, -17558.68, 5878.87, -3046.95, -187500.02, 67749.12, 50119.56, -187500.02, -9055.21, 0.00, 0.00, 0.00
2132.0, 2517.77, -187500.02, 10747.93, -187500.02, -187500.02, -187500.02, 3309.56, 19431.73, -17558.68, 5878.87, -3046.95, -187500.02, 67749.12, 50119.56, -187500.02, -9055.21, 0.00, 0.00, 0.00
2136.0, 2517.77, -187500.02, 10747.93, -187500.02, -187500.02, -187500.02, 3309.56, 19431.73, -17555.60, 5540.17, -3044.44, -187500.02, 67821.67, 50150.65, -187500.02, -8968.03, 0.00, 0.00, 0.00
2140.0, 2421.05, -187500.02, 10850.59, -187500.02, -187500.02, -187500.02, 3189.42, 19420.11, -17555.60, 5540.17, -3044.44, -187500.02, 67821.67, 50150.65, -187500.02, -8968.03, 0.00, 0.00, 0.00
2144.0, 2421.05, -187500.02, 10850.59, -187500.02, -187500.02, -187500.02, 3189.42, 19420.11, -17495.89, 5244.19, -3034.11, -187500.02, 67780.08, 50117.21, -187500.02, -8877.42, 0.00, 0.00, 0.00
2148.0, 2340.94, -187500.02, 10969.65, -187500.02, -187500.02, -187500.02, 2923.88, 19337.81, -17495.89, 5244.19, -3034.11, -187500.02, 67780.08, 50117.21, -187500.02, -8877.42, 0.00, 0.00, 0.00
2152.0, 2340.94, -187500.02, 10969.65, -187500.02, -187500.02, -187500.02, 2923.88, 19337.81, -17480.34, 4905.31, -3012.32, -187500.02, 67712.38, 50192.85, -187500.02, -8746.64, 0.00, 0.00, 0.00
2156.0, 2201.85, -187500.02, 11149.70, -187500.02, -187500.02, -187500.02, 2613.25, 18953.54, -17480.34, 4905.31, -3012.32, -187500.02, 67712.38, 50192.85, -187500.02, -8746.64, 0.00, 0.00, 0.00
2160.0, 2201.85, -187500.02, 11149.70, -187500.02, -187500.02, -187500.02, 2613.25, 18953.54, -17455.19, 4478.26, -3000.99, -187500.02, 67591.09, 50105.03, -187500.02, -8648.76, 0.00, 0.00, 0.00
2164.0, 1991.29, -187500.02, 11219.84, -187500.02, -187500.02, -187500.02, 2492.78, 18474.07, -17455.19, 4478.26, -3000.99, -187500.02, 67591.09, 50105.03, -187500.02, -8648.76, 0.00, 0.00, 0.00
2168.0, 1991.29, -187500.02, 11219.84, -187500.02, -187500.02, -187500.02, 2492.78, 18474.07, -17466.12, 4114.93, -3009.37, -187500.02, 67632.55, 50218.51, -187500.02, -8580.68, 0.00, 0.00, 0.00
2172.0, 1852.91, -187500.02, 11585.67, -187500.02, -187500.02, -187500.02, 2544.61, 18304.76, -17466.12, 4114.93, -3009.37, -187500.02, 67632.55, 50218.51, -187500.02, -8580.68, 0.00, 0.00, 0.00
2176.0, 1852.91, -187500.02, 11585.67, -187500.02, -187500.02, -187500.02, 2544.61, 18304.76, -17443.50, 3821.68, -2998.69, -187500.02, 67567.69, 50187.62, -187500.02, -8487.43, 0.00, 0.00, 0.00
2180.0, 1718.38, -187500.02, 11707.49, -187500.02, -187500.02, -187500.02, 2554.83, 18163.52, -17443.50, 3821.68, -2998.69, -187500.02, 67567.69, 50187.62, -187500.02, -8487.43, 0.00, 0.00, 0.00
2184.0, 1718.38, -187500.02, 11707.49, -187500.02, -187500.02, -187500.02, 2554.83, 18163.52, -17416.37, 3495.10, -2998.98, -187500.02, 67448.84, 50293.55, -187500.02, -8418.45, 0.00, 0.00, 0.00
2188.0, 1506.73, -187500.02, 11892.71, -187500.02, -187500.02, -187500.02, 2489.85, 17906.50, -17416.37, 3495.10, -2998.98, -187500.02, 67448.84, 50293.55, -187500.02, -8418.45, 0.00, 0.00, 0.00
2192.0, 1506.73, -187500.02, 11892.71, -187500.02, -187500.02, -187500.02, 2489.85, 17906.50, -17350.07, 3099.72, -2967.89, -187500.02, 66958.20, 50250.18, -187500.02, -8344.93, 0.00, 0.00, 0.00
2196.0, 1185.69, -187500.02, 12053.87, -187500.02, -187500.02, -187500.02, 2315.33, 17499.78, -17350.07, 3099.72, -2967.89, -187500.02, 66958.20, 50250.18, -187500.02, -8344.93, 0.00, 0.00, 0.00
2200.0, 1185.69, -187500.02, 12053.87, -187500.02, -187500.02, -187500.02, 2315.33, 17499.78, -17352.02, 2567.08, -2957.90, -187500.02, 66670.76, 50364.60, -187500.02, -8303.90, 0.00, 0.00, 0.00
2204.0, 903.12, -187500.02, 12206.87, -187500.02, -187500.02, -187500.02, 2328.43, 16866.09, -17352.02, 2567.08, -2957.90, -187500.02, 66670.76, 50364.60, -187500.02, -8303.90, 0.00, 0.00, 0.00
2208.0, 903.12, -187500.02, 12206.87, -187500.02, -187500.02, -187500.02, 2328.43, 16866.09, -17333.98, 2086.38, -2933.49, -187500.02, 66476.77, 50294.60, -187500.02, -8262.75, 0.00, 0.00, 0.00
2212.0, 726.99, -187500.02, 12369.86, -187500.02, -187500.02, -187500.02, 2467.01, 16236.20, -17333.98, 2086.38, -2933.49, -187500.02, 66476.77, 50294.60, -187500.02, -8262.75, 0.00, 0.00, 0.00
2216.0, 726.99, -187500.02, 12369.86, -187500.02, -187500.02, -187500.02, 2467.01, 16236.20, -17331.45, 1651.39, -2925.73, -187500.02, 66330.81, 50321.44, -187500.02, -8241.42, 0.00, 0.00, 0.00
2220.0, 572.67, -187500.02, 12509.78, -187500.02, -187500.02, -187500.02, 2646.85, 15807.98, -17331.45, 1651.39, -2925.73, -187500.02, 66330.81, 50321.44, -187500.02, -8241.42, 0.00, 0.00, 0.00
2224.0, 572.67, -187500.02, 12509.78, -187500.02, -187500.02, -187500.02, 2646.85, 15807.98, -17308.86, 1358.49, -2918.09, -187500.02, 66192.84, 50206.35, -187500.02, -8205.91, 0.00, 0.00, 0.00
2228.0, 495.31, -187500.02, 12607.93, -187500.02, -187500.02, -187500.02, 2772.26, 15539.92, -17308.86, 1358.49, -2918.09, -187500.02, 66192.84, 50206.35, -187500.02, -8205.91, 0.00, 0.00, 0.00
2232.0, 495.31, -187500.02, 12607.93, -187500.02, -187500.02, -187500.02, 2772.26, 15539.92, -17312.72, 1157.44, -2923.45, -187500.02, 66260.76, 50249.27, -187500.02, -8174.30, 0.00, 0.00, 0.00
2236.0, 448.71, -187500.02, 12774.58, -187500.02, -187500.02, -187500.02, 2851.30, 15325.81, -17312.72, 1157.44, -2923.45, -187500.02, 66260.76, 50249.27, -187500.02, -8174.30, 0.00, 0.00, 0.00
2240.0, 448.71, -187500.02, 12774.58, -187500.02, -187500.02, -187500.02, 2851.30, 15325.81, -17274.75, 1050.82, -2929.67, -187500.02, 66364.90, 50233.33, -187500.02, -8136.55, 0.00, 0.00, 0.00
2244.0, 439.39, -187500.02, 12813.38, -187500.02, -187500.02, -187500.02, 2928.37, 15268.12, -17274.75, 1050.82, -2929.67, -187500.02, 66364.90, 50233.33, -187500.02, -8136.55, 0.00, 0.00, 0.00
2248.0, 439.39, -187500.02, 12813.38, -187500.02, -187500.02, -187500.02, 2928.37, 15268.12, -17253.40, 990.70, -2933.20, -187500.02, 66649.26, 50319.72, -187500.02, -8109.53, 0.00, 0.00, 0.00
2252.0, 502.89, -187500.02, 12743.62, -187500.02, -187500.02, -187500.02, 2975.91, 15317.76, -17253.40, 990.70, -2933.20, -187500.02, 66649.26, 50319.72, -187500.02, -8109.53, 0.00, 0.00, 0.00
2256.0, 502.89, -187500.02, 12743.62, -187500.02, -187500.02, -187500.02, 2975.91, 15317.76, -17244.37, 970.07, -2925.46, -187500.02, 66821.43, 50314.65, -187500.02, -8073.29, 0.00, 0.00, 0.00
2260.0, 494.60, -187500.02, 12739.87, -187500.02, -187500.02, -187500.02, 3000.19, 15434.53, -17244.37, 970.07, -2925.46, -187500.02, 66821.43, 50314.65, -187500.02, -8073.29, 0.00, 0.00, 0.00
2264.0, 494.60, -187500.02, 12739.87, -187500.02, -187500.02, -187500.02, 3000.19, 15434.53, -17372.83, 836.22, -2968.31, -187500.02, 67002.57, 50423.07, -187500.02, -8067.03, 0.00, 0.00, 0.00
2268.0, 558.28, -187500.02, 12795.32, -187500.02, -187500.02, -187500.02, 2999.29, 15645.55, -17372.83, 836.22, -2968.31, -187500.02, 67002.57, 50423.07, -187500.02, -8067.03, 0.00, 0.00, 0.00
2272.0, 558.28, -187500.02, 12795.32, -187500.02, -187500.02, -187500.02, 2999.29, 15645.55, -17210.96, 837.07, -2930.36, -187500.02, 67055.41, 50470.95, -187500.02, -7979.75, 0.00, 0.00, 0.00
2276.0, 581.26, -187500.02, 12884.28, -187500.02, -187500.02, -187500.02, 3184.43, 15980.36, -17210.96, 837.07, -2930.36, -187500.02, 67055.41, 50470.95, -187500.02, -7979.75, 0.00, 0.00, 0.00
2280.0, 581.26, -187500.02, 12884.28, -187500.02, -187500.02, -187500.02, 3184.43, 15980.36, -17300.61, 545.45, -2945.24, -187500.02, 67063.91, 50542.95, -187500.02, -7916.16, 0.00, 0.00, 0.00
2284.0, 684.68, -187500.02, 12931.18, -187500.02, -187500.02, -187500.02, 3021.29, 16355.67, -17300.61, 545.45, -2945.24, -187500.02, 67063.91, 50542.95, -187500.02, -7916.16, 0.00, 0.00, 0.00
2288.0, 684.68, -187500.02, 12931.18, -187500.02, -187500.02, -187500.02, 3021.29, 16355.67, -17245.91, 65.18, -2957.58, -187500.02, 66940.16, 50545.72, -187500.02, -7802.66, 0.00, 0.00, 0.00
2292.0, 632.24, -187500.02, 12994.90, -187500.02, -187500.02, -187500.02, 2630.53, 16380.03, -17245.91, 65.18, -2957.58, -187500.02, 66940.16, 50545.72, -187500.02, -7802.66, 0.00, 0.00, 0.00
2296.0, 632.24, -187500.02, 12994.90, -187500.02, -187500.02, -187500.02, 2630.53, 16380.03, -17209.75, -764.52, -2940.55, -187500.02, 66833.62, 50550.55, -187500.02, -7671.72, 0.00, 0.00, 0.00
2300.0, 501.53, -187500.02, 13031.31, -187500.02, -187500.02, -187500.02, 2679.39, 15951.19, -17209.75, -764.52, -2940.55, -187500.02, 66833.62, 50550.55, -187500.02, -7671.72, 0.00, 0.00, 0.00
2304.0, 501.53, -187500.02, 13031.31, -187500.02, -187500.02, -187500.02, 2679.39, 15951.19, -17126.62, -1953.21, -2900.54, -187500.02, 66771.38, 50597.80, -187500.02, -7521.12, 0.00, 0.00, 0.00
2308.0, 385.43, -187500.02, 13061.67, -187500.02, -187500.02, -187500.02, 2827.79, 15305.09, -17126.62, -1953.21, -2900.54, -187500.02, 66771.38, 50597.80, -187500.02, -7521.12, 0.00, 0.00, 0.00
2312.0, 385.43, -187500.02, 13061.67, -187500.02, -187500.02, -187500.02, 2827.79, 15305.09, -17060.37, -3222.14, -2870.30, -187500.02, 66741.66, 50762.66, -187500.02, -7339.22, 0.00, 0.00, 0.00
2316.0, 261.60, -187500.02, 13126.42, -187500.02, -187500.02, -187500.02, 2396.89, 15723.60, -17060.37, -3222.14, -2870.30, -187500.02, 66741.66, 50762.66, -187500.02, -7339.22, 0.00, 0.00, 0.00
2320.0, 261.60, -187500.02, 13126.42, -187500.02, -187500.02, -187500.02, 2396.89, 15723.60, -17239.14, -4437.34, -2889.68, -187500.02, 66909.19, 51222.51, -187500.02, -7193.48, 0.00, 0.00, 0.00
2324.0, 155.39, -187500.02, 13178.66, -187133.63, -187500.02, -187500.02, 2067.51, 16217.71, -17239.14, -4437.34, -2889.68, -187500.02, 66909.19, 51222.51, -187500.02, -7193.48, 0.00, 0.00, 0.00
2328.0, 155.39, -187500.02, 13178.66, -187133.63, -187500.02, -187500.02, 2067.51, 16217.71, -17161.47, -5342.31, -2979.33, -187500.02, 67185.56, 51796.95, -187500.02, -6987.94, 0.00, 0.00, 0.00
2332.0, -129.75, -187500.02, 13163.77, -185143.53, -187500.02, -187500.02, 1819.61, 16117.19, -17161.47, -5342.31, -2979.33, -187500.02, 67185.56, 51796.95, -187500.02, -6987.94, 0.00, 0.00, 0.00
2336.0, -129.75, -187500.02, 13163.77, -185143.53, -187500.02, -187500.02, 1819.61, 16117.19, -17250.40, -6173.55, -3092.74, -187500.02, 67453.36, 52587.98, -187500.02, -6787.84, 0.00, 0.00, 0.00
2340.0, -776.05, -187500.02, 13128.45, -183026.41, -187500.02, -187500.02, 1848.44, 15719.31, -17250.40, -6173.55, -3092.74, -187500.02, 67453.36, 52587.98, -187500.02, -6787.84, 0.00, 0.00, 0.00
2344.0, -776.05, -187500.02, 13128.45, -183026.41, -187500.02, -187500.02, 1848.44, 15719.31, -17025.52, -6656.08, -3144.91, -187500.02, 67771.88, 53542.77, -187500.02, -6504.38, 0.00, 0.00, 0.00
2348.0, -1292.22, -187500.02, 13036.63, -181484.94, -187500.02, -187500.02, 2092.32, 15309.16, -17025.52, -6656.08, -3144.91, -187500.02, 67771.88, 53542.77, -187500.02, -6504.38, 0.00, 0.00, 0.00
2352.0, -1292.22, -187500.02, 13036.63, -181484.94, -187500.02, -187500.02, 2092.32, 15309.16, -16895.77, -6928.17, -3191.94, -187500.02, 68065.58, 54739.87, -187500.02, -6193.36, 0.00, 0.00, 0.00
2356.0, -1755.93, -187500.02, 13018.84, -181191.59, -187500.02, -187500.02, 2361.64, 15151.00, -16895.77, -6928.17, -3191.94, -187500.02, 68065.58, 54739.87, -187500.02, -6193.36, 0.00, 0.00, 0.00
2360.0, -1755.93, -187500.02, 13018.84, -181191.59, -187500.02, -187500.02, 2361.64, 15151.00, -16785.42, -7165.28, -3310.90, -187500.02, 68319.80, 55940.65, -187500.02, -5891.76, 0.00, 0.00, 0.00
2364.0, -2108.55, -187500.02, 13052.84, -180754.45, -187500.02, -187500.02, 2496.04, 15003.38, -16785.42, -7165.28, -3310.90, -187500.02, 68319.80, 55940.65, -187500.02, -5891.76, 0.00, 0.00, 0.00
2368.0, -2108.55, -187500.02, 13052.84, -180754.45, -187500.02, -187500.02, 2496.04, 15003.38, -16576.14, -7347.98, -3409.22, -187500.02, 68615.27, 57375.52, -187500.02, -5556.51, 0.00, 0.00, 0.00
2372.0, -2359.79, -187500.02, 13011.75, -180221.23, -187500.02, -187500.02, 2691.55, 14906.74, -16576.14, -7347.98, -3409.22, -187500.02, 68615.27, 57375.52, -187500.02, -5556.51, 0.00, 0.00, 0.00
2376.0, -2359.79, -187500.02, 13011.75, -180221.23, -187500.02, -187500.02, 2691.55, 14906.74, -16253.90, -7419.13, -3469.82, -187500.02, 68753.36, 58920.34, -187500.02, -5243.45, 0.00, 0.00, 0.00
2380.0, -2502.50, -187500.02, 12778.09, -179716.94, -187500.02, -187500.02, 2734.11, 14896.92, -16253.90, -7419.13, -3469.82, -187500.02, 68753.36, 58920.34, -187500.02, -5243.45, 0.00, 0.00, 0.00
2384.0, -2502.50, -187500.02, 12778.09, -179716.94, -187500.02, -187500.02, 2734.11, 14896.92, -16118.36, -7510.83, -3556.65, -187500.02, 68925.87, 60593.52, -187500.02, -4992.73, 0.00, 0.00, 0.00
2388.0, -2482.34, -187500.02, 12668.07, -179288.61, -187500.02, -187500.02, 2693.01, 14975.49, -16118.36, -7510.83, -3556.65, -187500.02, 68925.87, 60593.52, -187500.02, -4992.73, 0.00, 0.00, 0.00
2392.0, -2482.34, -187500.02, 12668.07, -179288.61, -187500.02, -187500.02, 2693.01, 14975.49, -15890.46, -7506.05, -3576.61, -187500.02, 69071.49, 62040.64, -187500.02, -4696.35, 0.00, 0.00, 0.00
2396.0, -2470.23, -187500.02, 12671.43, -179082.66, -187500.02, -187500.02, 2633.50, 15248.14, -15890.46, -7506.05, -3576.61, -187500.02, 69071.49, 62040.64, -187500.02, -4696.35, 0.00, 0.00, 0.00
2400.0, -2470.23, -187500.02, 12671.43, -179082.66, -187500.02, -187500.02, 2633.50, 15248.14, -15590.18, -7421.74, -3586.76, -187500.02, 69105.71, 63457.41, -187500.02, -4417.64, 0.00, 0.00, 0.00
2404.0, -2257.82, -187500.02, 12651.91, -179571.14, -187500.02, -187500.02, 2714.13, 15586.41, -15590.18, -7421.74, -3586.76, -187500.02, 69105.71, 63457.41, -187500.02, -4417.64, 0.00, 0.00, 0.00
2408.0, -2257.82, -187500.02, 12651.91, -179571.14, -187500.02, -187500.02, 2714.13, 15586.41, -15477.91, -7247.80, -3662.49, -187500.02, 68952.11, 64457.76, -187500.02, -4183.35, 0.00, 0.00, 0.00
2412.0, -2127.60, -187500.02, 12603.83, -180260.16, -187500.02, -187500.02, 2936.37, 15684.91, -15477.91, -7247.80, -3662.49, -187500.02, 68952.11, 64457.76, -187500.02, -4183.35, 0.00, 0.00, 0.00
2416.0, -2127.60, -187500.02, 12603.83, -180260.16, -187500.02, -187500.02, 2936.37, 15684.91, -15207.54, -7005.22, -3717.61, -187500.02, 68895.80, 65355.25, -187500.02, -3932.81, 0.00, 0.00, 0.00
2420.0, -1885.91, -187500.02, 12613.04, -180859.58, -187500.02, -187500.02, 2764.66, 15712.69, -15207.54, -7005.22, -3717.61, -187500.02, 68895.80, 65355.25, -187500.02, -3932.81, 0.00, 0.00, 0.00
2424.0, -1885.91, -187500.02, 12613.04, -180859.58, -187500.02, -187500.02, 2764.66, 15712.69, -15191.61, -6780.27, -3664.68, -187500.02, 68762.91, 65973.85, -187500.02, -3680.64, 0.00, 0.00, 0.00
2428.0, -1699.45, -187500.02, 12633.21, -181331.61, -187500.02, -187500.02, 2600.45, 15760.13, -15191.61, -6780.27, -3664.68, -187500.02, 68762.91, 65973.85, -187500.02, -3680.64, 0.00, 0.00, 0.00
2432.0, -1699.45, -187500.02, 12633.21, -181331.61, -187500.02, -187500.02, 2600.45, 15760.13, -14918.05, -6525.17, -3634.75, -187500.02, 68764.60, 66559.91, -187500.02, -3508.11, 0.00, 0.00, 0.00
2436.0, -1461.78, -187500.02, 12699.01, -181533.17, -187500.02, -187500.02, 2544.46, 15928.30, -14918.05, -6525.17, -3634.75, -187500.02, 68764.60, 66559.91, -187500.02, -3508.11, 0.00, 0.00, 0.00
2440.0, -1461.78, -187500.02, 12699.01, -181533.17, -187500.02, -187500.02, 2544.46, 15928.30, -14847.88, -6251.31, -3586.78, -187500.02, 68699.02, 66939.98, -187500.02, -3305.78, 0.00, 0.00, 0.00
2444.0, -1262.02, -187500.02, 12797.31, -180744.09, -187500.02, -187500.02, 2489.98, 16051.75, -14847.88, -6251.31, -3586.78, -187500.02, 68699.02, 66939.98, -187500.02, -3305.78, 0.00, 0.00, 0.00
2448.0, -1262.02, -187500.02, 12797.31, -180744.09, -187500.02, -187500.02, 2489.98, 16051.75, -14743.57, -5981.53, -3582.81, -187500.02, 68753.38, 67362.57, -187500.02, -3163.26, 0.00, 0.00, 0.00
2452.0, -1020.40, -187500.02, 12789.73, -180866.47, -187500.02, -187500.02, 2446.00, 16063.46, -14743.57, -5981.53, -3582.81, -187500.02, 68753.38, 67362.57, -187500.02, -3163.26, 0.00, 0.00, 0.00
2456.0, -1020.40, -187500.02, 12789.73, -180866.47, -187500.02, -187500.02, 2446.00, 16063.46, -14712.25, -5748.15, -3569.37, -187500.02, 68667.87, 67542.56, -187500.02, -3011.45, 0.00, 0.00, 0.00
2460.0, -883.88, -187500.02, 12803.57, -181541.91, -187500.02, -187500.02, 2480.28, 16011.60, -14712.25, -5748.15, -3569.37, -187500.02, 68667.87, 67542.56, -187500.02, -3011.45, 0.00, 0.00, 0.00
