%OpenBCI Raw EEG Data
%
%Sample Rate = 250.0 Hz
%First Column = Time (ms)
%Other Columns = EEG data in microvolts followed by Accel Data (in G) interleaved with Aux Data
0.0, -171585.08, -171272.22, -171299.42, -171377.80, -171667.20, -171484.19, -171725.55, -171522.86, 0.00, 0.00, 0.00
4.0, -171826.66, -171502.94, -171711.59, -171554.66, -172003.47, -171856.48, -172201.72, -171744.31, 0.00, 0.00, 0.00
8.0, -171860.55, -171552.42, -171649.08, -171544.14, -171915.03, -171721.25, -171894.44, -171611.41, 0.00, 0.00, 0.00
12.0, -171444.00, -171315.20, -171217.58, -171365.88, -171514.25, -171322.73, -171419.59, -171538.72, 0.00, 0.00, 0.00
16.0, -171124.30, -171234.67, -171241.45, -171357.39, -171486.47, -171425.56, -171636.72, -171516.33, 0.00, 0.00, 0.00
20.0, -171548.00, -171436.28, -171651.48, -171513.89, -171819.91, -171819.34, -172164.55, -171706.11, 0.00, 0.00, 0.00
24.0, -172018.73, -171530.17, -171692.95, -171547.70, -171821.19, -171772.02, -171982.67, -171648.78, 0.00, 0.00, 0.00
28.0, -171801.06, -171328.50, -171264.36, -171370.17, -171423.14, -171362.97, -171451.42, -171526.70, 0.00, 0.00, 0.00
32.0, -171567.00, -171221.22, -171178.50, -171333.58, -171302.72, -171347.66, -171538.09, -171529.98, 0.00, 0.00, 0.00
36.0, -171738.39, -171421.69, -171584.91, -171484.36, -171630.75, -171774.42, -172104.94, -171671.66, 0.00, 0.00, 0.00
40.0, -171905.22, -171569.75, -171741.14, -171579.22, -171735.88, -171834.91, -172083.64, -171704.47, 0.00, 0.00, 0.00
44.0, -171640.17, -171405.06, -171346.92, -171403.88, -171282.06, -171446.45, -171527.48, -171514.56, 0.00, 0.00, 0.00
48.0, -171161.52, -171210.52, -171139.39, -171326.00, -170781.25, -171293.73, -171472.41, -171512.44, 0.00, 0.00, 0.00
52.0, -171321.58, -171335.09, -171476.92, -171432.27, -171144.80, -171671.14, -172001.34, -171594.34, 0.00, 0.00, 0.00
56.0, -171882.77, -171488.33, -171700.66, -171537.45, -171528.36, -171800.39, -172098.86, -171698.77, 0.00, 0.00, 0.00
60.0, -171884.06, -171357.56, -171349.45, -171391.19, -171408.06, -171427.28, -171542.28, -171489.38, 0.00, 0.00, 0.00
64.0, -171547.17, -171153.17, -171076.58, -171290.06, -171312.80, -171179.83, -171343.38, -171507.36, 0.00, 0.00, 0.00
68.0, -171576.09, -171284.14, -171392.88, -171375.09, -171947.84, -171543.64, -171832.06, -171539.39, 0.00, 0.00, 0.00
72.0, -171811.53, -171501.17, -171718.14, -171531.61, -172523.08, -171795.28, -172120.14, -171686.84, 0.00, 0.00, 0.00
76.0, -171696.30, -171443.50, -171467.09, -171430.03, -172284.06, -171506.42, -171640.81, -171514.92, 0.00, 0.00, 0.00
80.0, -171185.33, -171193.77, -171103.72, -171296.66, -171933.64, -171198.22, -171345.16, -171514.30, 0.00, 0.00, 0.00
84.0, -171113.38, -171233.41, -171314.42, -171349.14, -172068.02, -171500.95, -171758.27, -171510.66, 0.00, 0.00, 0.00
88.0, -171644.31, -171450.34, -171685.73, -171509.52, -172365.97, -171815.31, -172142.77, -171689.67, 0.00, 0.00, 0.00
92.0, -171944.13, -171447.91, -171530.23, -171449.08, -172194.25, -171600.19, -171739.22, -171517.36, 0.00, 0.00, 0.00
96.0, -171639.17, -171215.67, -171124.25, -171294.73, -171803.73, -171225.36, -171337.09, -171492.86, 0.00, 0.00, 0.00
100.0, -171526.31, -171224.81, -171253.30, -171324.28, -171853.66, -171425.52, -171651.44, -171485.45, 0.00, 0.00, 0.00
104.0, -171764.13, -171445.73, -171669.64, -171500.30, -172194.38, -171807.13, -172143.58, -171683.45, 0.00, 0.00, 0.00
108.0, -171813.30, -171504.06, -171630.55, -171499.86, -172125.19, -171691.39, -171862.13, -171570.63, 0.00, 0.00, 0.00
112.0, -171409.48, -171273.52, -171190.48, -171319.05, -171724.30, -171288.88, -171374.03, -171497.89, 0.00, 0.00, 0.00
116.0, -171068.36, -171186.19, -171171.64, -171310.84, -171676.69, -171359.06, -171562.19, -171475.02, 0.00, 0.00, 0.00
120.0, -171469.59, -171386.38, -171581.06, -171467.94, -172008.58, -171759.81, -172096.45, -171646.95, 0.00, 0.00, 0.00
124.0, -171961.94, -171490.89, -171643.39, -171512.13, -172028.66, -171731.22, -171941.95, -171605.02, 0.00, 0.00, 0.00
128.0, -171766.88, -171293.11, -171218.92, -171329.69, -171632.69, -171321.67, -171409.00, -171471.67, 0.00, 0.00, 0.00
132.0, -171521.72, -171169.52, -171118.27, -171280.05, -171492.48, -171288.78, -171468.94, -171475.11, 0.00, 0.00, 0.00
136.0, -171682.77, -171363.75, -171521.16, -171424.31, -171814.77, -171716.33, -172038.27, -171607.03, 0.00, 0.00, 0.00
140.0, -171859.50, -171518.50, -171697.56, -171525.98, -171937.14, -171795.86, -172047.67, -171657.84, 0.00, 0.00, 0.00
144.0, -171606.89, -171363.42, -171313.27, -171360.92, -171576.61, -171415.80, -171486.84, -171461.08, 0.00, 0.00, 0.00
148.0, -171122.88, -171167.63, -171083.11, -171279.63, -171351.80, -171256.94, -171408.02, -171460.72, 0.00, 0.00, 0.00
152.0, -171286.38, -171296.36, -171421.69, -171388.83, -171620.42, -171641.63, -171945.75, -171542.91, 0.00, 0.00, 0.00
156.0, -171880.38, -171471.00, -171679.25, -171520.33, -171815.81, -171803.42, -172084.06, -171678.27, 0.00, 0.00, 0.00
160.0, -171892.27, -171367.16, -171357.47, -171380.36, -171504.92, -171462.28, -171548.00, -171458.13, 0.00, 0.00, 0.00
164.0, -171568.08, -171158.55, -171060.47, -171267.98, -171203.73, -171210.72, -171342.13, -171473.06, 0.00, 0.00, 0.00
168.0, -171596.64, -171265.45, -171356.72, -171360.89, -171414.03, -171560.39, -171834.33, -171504.86, 0.00, 0.00, 0.00
172.0, -171841.25, -171472.55, -171699.44, -171525.56, -171688.86, -171820.30, -172134.58, -171703.33, 0.00, 0.00, 0.00
176.0, -171750.83, -171428.39, -171468.89, -171427.84, -171432.33, -171550.89, -171662.64, -171474.00, 0.00, 0.00, 0.00
180.0, -171274.19, -171184.50, -171083.84, -171271.91, -170805.75, -171210.13, -171334.20, -171467.64, 0.00, 0.00, 0.00
184.0, -171116.77, -171202.20, -171255.08, -171307.50, -170866.98, -171444.84, -171719.95, -171456.77, 0.00, 0.00, 0.00
188.0, -171625.00, -171392.80, -171618.16, -171457.97, -171367.94, -171750.22, -172111.98, -171657.56, 0.00, 0.00, 0.00
192.0, -171913.61, -171384.14, -171465.86, -171396.67, -171417.27, -171533.06, -171712.48, -171478.53, 0.00, 0.00, 0.00
196.0, -171591.23, -171142.14, -171052.95, -171238.63, -171214.06, -171132.81, -171274.75, -171434.28, 0.00, 0.00, 0.00
200.0, -171450.33, -171141.92, -171168.78, -171259.27, -171531.69, -171304.39, -171547.13, -171433.05, 0.00, 0.00, 0.00
204.0, -171675.52, -171375.89, -171580.81, -171425.52, -172330.78, -171700.69, -172056.38, -171597.83, 0.00, 0.00, 0.00
208.0, -171739.44, -171447.66, -171563.42, -171436.13, -172358.63, -171603.80, -171808.73, -171512.17, 0.00, 0.00, 0.00
212.0, -171323.70, -171218.84, -171129.95, -171264.31, -171952.44, -171195.00, -171318.72, -171440.80, 0.00, 0.00, 0.00
216.0, -170977.16, -171115.52, -171114.78, -171241.31, -171879.59, -171269.20, -171478.52, -171417.78, 0.00, 0.00, 0.00
220.0, -171360.17, -171311.63, -171521.36, -171389.02, -172206.03, -171686.33, -172021.75, -171559.89, 0.00, 0.00, 0.00
224.0, -171870.72, -171422.27, -171602.72, -171441.94, -172241.63, -171676.23, -171898.28, -171537.50, 0.00, 0.00, 0.00
228.0, -171721.78, -171234.56, -171183.22, -171275.28, -171848.92, -171267.83, -171357.55, -171417.80, 0.00, 0.00, 0.00
232.0, -171463.84, -171108.55, -171055.92, -171227.56, -171689.23, -171213.63, -171389.81, -171425.45, 0.00, 0.00, 0.00
236.0, -171612.38, -171297.22, -171452.25, -171364.03, -172003.13, -171638.91, -171955.78, -171533.97, 0.00, 0.00, 0.00
240.0, -171799.09, -171460.11, -171649.81, -171473.95, -172143.94, -171738.23, -171995.48, -171597.48, 0.00, 0.00, 0.00
244.0, -171559.83, -171313.64, -171275.31, -171311.86, -171790.41, -171361.70, -171445.55, -171420.23, 0.00, 0.00, 0.00
248.0, -171066.55, -171109.84, -171028.33, -171227.41, -171546.80, -171184.06, -171344.08, -171423.03, 0.00, 0.00, 0.00
252.0, -171193.88, -171234.00, -171353.78, -171331.80, -171799.92, -171569.02, -171868.84, -171478.59, 0.00, 0.00, 0.00
256.0, -171779.34, -171417.11, -171626.17, -171466.86, -172008.48, -171750.59, -172040.36, -171615.77, 0.00, 0.00, 0.00
260.0, -171837.81, -171324.66, -171321.98, -171335.08, -171711.08, -171422.16, -171514.89, -171408.73, 0.00, 0.00, 0.00
264.0, -171511.45, -171106.67, -171011.83, -171215.61, -171397.86, -171153.38, -171284.61, -171422.30, 0.00, 0.00, 0.00
268.0, -171525.20, -171206.06, -171289.91, -171295.41, -171591.56, -171492.69, -171760.28, -171445.47, 0.00, 0.00, 0.00
272.0, -171773.47, -171421.13, -171645.41, -171465.08, -171878.36, -171772.69, -172086.08, -171645.19, 0.00, 0.00, 0.00
276.0, -171698.09, -171389.50, -171433.52, -171377.59, -171660.81, -171517.02, -171630.09, -171432.53, 0.00, 0.00, 0.00
280.0, -171223.31, -171141.09, -171037.36, -171225.23, -171295.77, -171172.05, -171283.92, -171425.27, 0.00, 0.00, 0.00
284.0, -171063.39, -171148.91, -171192.34, -171264.95, -171399.23, -171408.17, -171659.92, -171419.17, 0.00, 0.00, 0.00
288.0, -171594.61, -171354.55, -171575.61, -171433.53, -171713.22, -171736.63, -172079.02, -171627.13, 0.00, 0.00, 0.00
292.0, -171909.41, -171375.58, -171463.02, -171396.56, -171580.45, -171558.78, -171716.47, -171460.77, 0.00, 0.00, 0.00
296.0, -171606.05, -171144.03, -171043.48, -171226.22, -171064.94, -171165.77, -171274.80, -171408.06, 0.00, 0.00, 0.00
300.0, -171460.34, -171119.19, -171121.58, -171232.70, -170815.28, -171297.27, -171533.66, -171383.20, 0.00, 0.00, 0.00
304.0, -171674.11, -171327.56, -171528.48, -171393.27, -171292.91, -171685.84, -172037.58, -171583.20, 0.00, 0.00, 0.00
308.0, -171734.45, -171392.08, -171515.92, -171398.48, -171469.59, -171591.67, -171792.16, -171495.23, 0.00, 0.00, 0.00
312.0, -171324.27, -171160.27, -171074.14, -171213.75, -171262.44, -171160.36, -171266.03, -171394.72, 0.00, 0.00, 0.00
316.0, -170935.77, -171048.81, -171043.61, -171188.78, -171443.47, -171177.39, -171379.80, -171382.80, 0.00, 0.00, 0.00
320.0, -171278.44, -171245.63, -171444.20, -171325.69, -172228.91, -171589.28, -171929.44, -171501.16, 0.00, 0.00, 0.00
324.0, -171797.77, -171366.84, -171546.33, -171384.28, -172378.86, -171600.19, -171852.34, -171491.47, 0.00, 0.00, 0.00
328.0, -171677.44, -171184.72, -171135.45, -171220.89, -171990.39, -171193.17, -171309.59, -171362.08, 0.00, 0.00, 0.00
332.0, -171406.47, -171044.70, -170998.91, -171172.64, -171809.56, -171126.84, -171311.91, -171365.80, 0.00, 0.00, 0.00
336.0, -171542.84, -171238.70, -171388.55, -171308.09, -172113.09, -171557.83, -171874.38, -171462.86, 0.00, 0.00, 0.00
340.0, -171739.58, -171413.98, -171604.02, -171426.27, -172271.03, -171678.06, -171948.34, -171541.86, 0.00, 0.00, 0.00
344.0, -171511.33, -171276.88, -171240.31, -171268.67, -171926.45, -171307.77, -171400.14, -171357.98, 0.00, 0.00, 0.00
348.0, -171007.31, -171059.44, -170979.91, -171172.00, -171663.63, -171116.25, -171269.91, -171378.78, 0.00, 0.00, 0.00
352.0, -171114.83, -171171.59, -171299.27, -171267.42, -171902.52, -171493.38, -171785.73, -171420.59, 0.00, 0.00, 0.00
356.0, -171696.64, -171358.28, -171586.98, -171406.72, -172125.39, -171690.25, -171991.13, -171556.98, 0.00, 0.00, 0.00
360.0, -171790.20, -171274.50, -171297.53, -171282.95, -171840.34, -171370.64, -171479.66, -171361.92, 0.00, 0.00, 0.00
364.0, -171461.39, -171057.45, -170967.64, -171162.81, -171511.70, -171088.16, -171228.58, -171368.41, 0.00, 0.00, 0.00
368.0, -171458.86, -171152.23, -171223.39, -171240.16, -171690.30, -171420.53, -171688.30, -171384.30, 0.00, 0.00, 0.00
372.0, -171706.98, -171370.13, -171587.27, -171411.31, -171985.67, -171713.34, -172036.55, -171578.94, 0.00, 0.00, 0.00
376.0, -171647.28, -171348.33, -171394.72, -171334.19, -171784.70, -171472.23, -171596.42, -171394.78, 0.00, 0.00, 0.00
380.0, -171177.45, -171098.06, -170992.36, -171171.86, -171409.42, -171115.92, -171226.38, -171374.38, 0.00, 0.00, 0.00
384.0, -170990.14, -171092.22, -171137.84, -171206.73, -171491.83, -171335.09, -171581.08, -171347.70, 0.00, 0.00, 0.00
388.0, -171510.89, -171295.47, -171530.83, -171375.56, -171811.23, -171674.95, -172019.36, -171556.77, 0.00, 0.00, 0.00
392.0, -171848.50, -171326.73, -171439.39, -171347.14, -171695.92, -171512.94, -171678.52, -171410.42, 0.00, 0.00, 0.00
396.0, -171552.92, -171097.20, -171010.16, -171171.69, -171295.84, -171117.28, -171220.86, -171353.97, 0.00, 0.00, 0.00
400.0, -171399.97, -171062.83, -171062.08, -171171.38, -171291.83, -171252.48, -171464.45, -171339.61, 0.00, 0.00, 0.00
404.0, -171623.14, -171279.16, -171484.50, -171344.58, -171639.78, -171655.17, -171995.55, -171539.86, 0.00, 0.00, 0.00
408.0, -171715.59, -171370.75, -171512.34, -171375.67, -171630.02, -171596.92, -171794.23, -171467.36, 0.00, 0.00, 0.00
412.0, -171360.92, -171156.06, -171078.39, -171192.05, -171229.02, -171186.89, -171270.33, -171343.59, 0.00, 0.00, 0.00
416.0, -170952.81, -171030.83, -171002.91, -171153.56, -171123.47, -171182.95, -171381.06, -171342.70, 0.00, 0.00, 0.00
420.0, -171285.14, -171216.53, -171404.48, -171299.05, -171445.97, -171592.38, -171931.47, -171492.34, 0.00, 0.00, 0.00
424.0, -171818.86, -171348.00, -171530.88, -171376.09, -171523.25, -171623.66, -171866.33, -171503.14, 0.00, 0.00, 0.00
428.0, -171672.77, -171175.47, -171126.67, -171203.84, -171035.14, -171224.22, -171308.19, -171330.16, 0.00, 0.00, 0.00
432.0, -171392.52, -171015.78, -170948.91, -171134.81, -170567.98, -171097.77, -171278.44, -171326.42, 0.00, 0.00, 0.00
436.0, -171505.89, -171180.03, -171310.72, -171252.94, -170981.55, -171495.97, -171828.38, -171421.72, 0.00, 0.00, 0.00
440.0, -171693.75, -171341.78, -171528.00, -171363.42, -171361.30, -171618.94, -171916.42, -171519.55, 0.00, 0.00, 0.00
444.0, -171458.11, -171200.03, -171165.16, -171206.11, -171228.97, -171236.48, -171355.02, -171326.81, 0.00, 0.00, 0.00
448.0, -170928.92, -170976.84, -170901.48, -171105.77, -171148.47, -171006.13, -171179.98, -171325.88, 0.00, 0.00, 0.00
452.0, -171014.00, -171091.09, -171211.81, -171194.48, -171805.92, -171372.98, -171674.78, -171350.09, 0.00, 0.00, 0.00
456.0, -171574.23, -171291.20, -171510.67, -171331.14, -172328.59, -171593.27, -171919.02, -171488.25, 0.00, 0.00, 0.00
460.0, -171725.50, -171219.16, -171236.97, -171222.11, -172065.09, -171282.78, -171423.25, -171307.31, 0.00, 0.00, 0.00
464.0, -171398.38, -170995.36, -170900.73, -171105.34, -171722.05, -170995.73, -171151.97, -171307.09, 0.00, 0.00, 0.00
468.0, -171378.06, -171075.47, -171153.92, -171175.78, -171881.64, -171331.39, -171593.16, -171318.31, 0.00, 0.00, 0.00
472.0, -171628.38, -171295.67, -171531.95, -171350.56, -172188.45, -171648.34, -171975.67, -171510.66, 0.00, 0.00, 0.00
476.0, -171583.66, -171286.48, -171361.63, -171286.47, -172006.13, -171423.97, -171556.42, -171336.27, 0.00, 0.00, 0.00
480.0, -171101.34, -171037.78, -170947.19, -171121.69, -171622.19, -171056.86, -171163.86, -171318.34, 0.00, 0.00, 0.00
484.0, -170916.23, -171027.19, -171071.23, -171144.00, -171687.05, -171267.20, -171496.75, -171310.67, 0.00, 0.00, 0.00
488.0, -171424.78, -171242.39, -171472.98, -171312.92, -172013.47, -171624.56, -171971.28, -171500.81, 0.00, 0.00, 0.00
492.0, -171795.33, -171287.98, -171406.81, -171296.59, -171920.06, -171483.52, -171662.22, -171368.94, 0.00, 0.00, 0.00
496.0, -171515.05, -171060.44, -170974.09, -171124.44, -171518.77, -171083.20, -171184.14, -171304.13, 0.00, 0.00, 0.00
500.0, -171347.97, -171014.27, -171002.42, -171120.91, -171494.80, -171189.56, -171402.88, -171288.56, 0.00, 0.00, 0.00
504.0, -171567.11, -171238.56, -171430.09, -171291.69, -171844.83, -171603.81, -171947.73, -171485.80, 0.00, 0.00, 0.00
508.0, -171673.66, -171342.23, -171481.42, -171335.97, -171855.78, -171566.53, -171776.53, -171432.11, 0.00, 0.00, 0.00
512.0, -171331.13, -171134.66, -171046.36, -171156.89, -171456.67, -171156.44, -171235.88, -171295.98, 0.00, 0.00, 0.00
516.0, -170911.84, -170995.28, -170934.42, -171113.81, -171336.31, -171133.06, -171320.45, -171299.16, 0.00, 0.00, 0.00
520.0, -171233.13, -171173.03, -171331.56, -171261.00, -171661.38, -171549.72, -171883.95, -171450.56, 0.00, 0.00, 0.00
524.0, -171784.86, -171316.14, -171486.84, -171353.97, -171764.56, -171608.08, -171858.22, -171485.19, 0.00, 0.00, 0.00
528.0, -171656.63, -171158.28, -171097.09, -171180.69, -171399.78, -171225.67, -171300.25, -171286.44, 0.00, 0.00, 0.00
532.0, -171381.64, -170992.16, -170904.06, -171098.34, -171201.42, -171091.69, -171260.31, -171297.02, 0.00, 0.00, 0.00
536.0, -171509.09, -171147.80, -171280.77, -171237.06, -171506.38, -171499.67, -171830.69, -171431.89, 0.00, 0.00, 0.00
540.0, -171732.77, -171335.50, -171545.86, -171386.05, -171711.17, -171666.44, -171962.02, -171581.47, 0.00, 0.00, 0.00
544.0, -171565.23, -171229.94, -171217.00, -171236.66, -171397.89, -171330.05, -171414.41, -171304.41, 0.00, 0.00, 0.00
548.0, -171262.69, -171021.28, -170897.50, -171086.14, -171131.44, -171098.17, -171241.83, -171288.97, 0.00, 0.00, 0.00
552.0, -171335.22, -171128.48, -171171.64, -171203.67, -171389.38, -171371.31, -171777.73, -171411.09, 0.00, 0.00, 0.00
556.0, -171593.05, -171338.72, -171517.14, -171393.02, -171670.94, -171608.73, -172039.83, -171667.97, 0.00, 0.00, 0.00
560.0, -171489.38, -171293.91, -171275.75, -171292.09, -171428.39, -171330.42, -171545.09, -171358.88, 0.00, 0.00, 0.00
564.0, -170990.64, -171045.53, -170906.63, -171098.80, -171087.42, -171023.52, -171220.95, -171271.48, 0.00, 0.00, 0.00
568.0, -170943.36, -171069.61, -171117.16, -171153.31, -171241.72, -171324.23, -171654.80, -171349.11, 0.00, 0.00, 0.00
572.0, -171520.17, -171282.17, -171504.34, -171343.30, -171559.52, -171646.28, -172026.13, -171653.48, 0.00, 0.00, 0.00
576.0, -171786.67, -171286.16, -171350.61, -171289.44, -171385.22, -171435.80, -171609.64, -171406.92, 0.00, 0.00, 0.00
580.0, -171469.97, -171042.69, -170927.67, -171109.22, -170789.09, -171052.11, -171175.64, -171281.91, 0.00, 0.00, 0.00
584.0, -171361.23, -171028.03, -171033.48, -171132.33, -170683.22, -171222.88, -171495.08, -171286.44, 0.00, 0.00, 0.00
588.0, -171598.09, -171241.67, -171448.38, -171313.33, -171310.48, -171604.89, -171976.58, -171588.14, 0.00, 0.00, 0.00
592.0, -171640.84, -171298.05, -171400.05, -171311.44, -171720.33, -171480.75, -171677.64, -171433.09, 0.00, 0.00, 0.00
596.0, -171240.11, -171063.44, -170955.77, -171117.84, -171403.36, -171064.28, -171172.63, -171276.86, 0.00, 0.00, 0.00
600.0, -170885.39, -170972.22, -170957.25, -171097.81, -171355.28, -171147.45, -171360.92, -171268.17, 0.00, 0.00, 0.00
604.0, -171294.13, -171174.25, -171375.48, -171261.55, -171697.36, -171562.33, -171909.20, -171499.72, 0.00, 0.00, 0.00
608.0, -171778.83, -171280.14, -171436.27, -171310.83, -171715.38, -171532.09, -171751.89, -171449.59, 0.00, 0.00, 0.00
612.0, -171559.20, -171077.16, -170999.69, -171118.22, -171303.88, -171106.39, -171192.83, -171256.20, 0.00, 0.00, 0.00
616.0, -171306.69, -170952.75, -170905.03, -171069.16, -171156.48, -171064.88, -171244.31, -171245.38, 0.00, 0.00, 0.00
620.0, -171473.08, -171151.44, -171319.67, -171220.75, -171486.52, -171500.73, -171822.59, -171416.63, 0.00, 0.00, 0.00
624.0, -171651.84, -171308.55, -171496.38, -171325.88, -171609.30, -171581.28, -171830.50, -171476.81, 0.00, 0.00, 0.00
628.0, -171382.38, -171145.64, -171097.05, -171150.70, -171230.77, -171178.95, -171252.42, -171255.58, 0.00, 0.00, 0.00
632.0, -170882.14, -170941.59, -170872.23, -171059.64, -170990.13, -171017.42, -171158.08, -171262.88, 0.00, 0.00, 0.00
636.0, -171046.70, -171073.52, -171217.34, -171167.95, -171260.00, -171418.52, -171706.16, -171342.80, 0.00, 0.00, 0.00
640.0, -171630.28, -171252.17, -171474.23, -171297.77, -171455.39, -171582.31, -171865.19, -171469.77, 0.00, 0.00, 0.00
644.0, -171651.25, -171139.56, -171138.30, -171155.14, -171053.00, -171222.73, -171315.16, -171254.03, 0.00, 0.00, 0.00
648.0, -171310.95, -170916.05, -170831.67, -171038.27, -170441.72, -170945.95, -171088.84, -171245.25, 0.00, 0.00, 0.00
652.0, -171326.08, -171025.97, -171125.27, -171117.16, -170722.84, -171290.78, -171571.63, -171266.30, 0.00, 0.00, 0.00
656.0, -171557.09, -171233.33, -171456.41, -171269.03, -171203.92, -171546.39, -171874.50, -171437.81, 0.00, 0.00, 0.00
660.0, -171425.94, -171166.33, -171196.56, -171159.75, -171160.75, -171240.27, -171375.28, -171247.34, 0.00, 0.00, 0.00
664.0, -170869.42, -170903.25, -170812.36, -171007.27, -170971.34, -170878.39, -171016.16, -171208.64, 0.00, 0.00, 0.00
668.0, -170792.83, -170934.58, -171018.02, -171052.03, -171419.84, -171141.73, -171388.41, -171208.14, 0.00, 0.00, 0.00
672.0, -171274.22, -171160.20, -171392.92, -171203.45, -172140.45, -171472.63, -171823.47, -171353.27, 0.00, 0.00, 0.00
676.0, -171624.31, -171161.81, -171244.16, -171151.55, -172016.98, -171257.98, -171441.58, -171229.25, 0.00, 0.00, 0.00
680.0, -171346.20, -170917.77, -170826.69, -170997.19, -171598.94, -170867.80, -171010.11, -171173.59, 0.00, 0.00, 0.00
684.0, -171207.73, -170916.61, -170954.73, -171027.78, -171619.17, -171075.55, -171290.67, -171182.94, 0.00, 0.00, 0.00
688.0, -171439.08, -171154.31, -171378.50, -171199.45, -171962.30, -171486.78, -171822.80, -171329.11, 0.00, 0.00, 0.00
692.0, -171495.45, -171221.53, -171352.64, -171203.66, -171903.95, -171382.20, -171573.45, -171251.92, 0.00, 0.00, 0.00
696.0, -171060.05, -170982.72, -170903.53, -171026.42, -171481.61, -170955.91, -171061.97, -171175.42, 0.00, 0.00, 0.00
700.0, -170713.09, -170875.80, -170881.56, -171006.39, -171401.44, -171021.55, -171209.38, -171183.67, 0.00, 0.00, 0.00
704.0, -171082.58, -171081.08, -171288.98, -171150.91, -171728.63, -171438.61, -171762.25, -171292.72, 0.00, 0.00, 0.00
708.0, -171586.00, -171193.72, -171366.73, -171200.41, -171761.22, -171424.66, -171645.80, -171269.14, 0.00, 0.00, 0.00
712.0, -171454.19, -170994.77, -170936.23, -171029.33, -171352.45, -170999.47, -171094.86, -171163.80, 0.00, 0.00, 0.00
716.0, -171184.89, -170861.25, -170826.31, -170988.17, -171180.22, -170950.77, -171115.22, -171162.70, 0.00, 0.00, 0.00
720.0, -171331.02, -171055.45, -171231.25, -171129.22, -171493.64, -171393.89, -171688.75, -171259.00, 0.00, 0.00, 0.00
724.0, -171516.08, -171219.19, -171426.30, -171232.70, -171632.20, -171495.81, -171744.70, -171308.03, 0.00, 0.00, 0.00
728.0, -171254.39, -171065.92, -171042.19, -171069.22, -171268.14, -171106.78, -171182.89, -171167.34, 0.00, 0.00, 0.00
732.0, -170747.47, -170853.80, -170795.38, -170986.70, -171013.09, -170928.52, -171066.17, -171159.11, 0.00, 0.00, 0.00
736.0, -170898.39, -170983.95, -171125.48, -171090.95, -171263.59, -171319.16, -171593.16, -171207.67, 0.00, 0.00, 0.00
740.0, -171457.56, -171171.98, -171396.45, -171221.08, -171471.09, -171500.50, -171778.33, -171322.14, 0.00, 0.00, 0.00
744.0, -171563.72, -171072.44, -171083.36, -171087.89, -171128.80, -171159.95, -171251.66, -171170.81, 0.00, 0.00, 0.00
748.0, -171233.41, -170848.80, -170772.78, -170968.94, -170517.67, -170875.73, -171015.27, -171162.56, 0.00, 0.00, 0.00
752.0, -171232.02, -170948.50, -171050.16, -171039.77, -170693.89, -171203.72, -171477.08, -171187.72, 0.00, 0.00, 0.00
756.0, -171462.73, -171159.11, -171391.09, -171190.73, -171182.11, -171472.50, -171801.56, -171322.78, 0.00, 0.00, 0.00
760.0, -171356.33, -171108.56, -171160.31, -171095.31, -171166.02, -171192.39, -171331.70, -171163.33, 0.00, 0.00, 0.00
764.0, -170812.72, -170848.97, -170768.47, -170949.83, -170980.88, -170826.05, -170965.05, -171132.86, 0.00, 0.00, 0.00
768.0, -170709.47, -170866.11, -170943.94, -170994.69, -171429.56, -171070.13, -171315.39, -171137.02, 0.00, 0.00, 0.00
772.0, -171177.66, -171094.42, -171325.27, -171148.11, -172132.56, -171418.58, -171762.78, -171274.75, 0.00, 0.00, 0.00
776.0, -171554.94, -171113.02, -171206.84, -171108.66, -172027.31, -171233.84, -171411.47, -171171.27, 0.00, 0.00, 0.00
780.0, -171308.59, -170876.22, -170785.11, -170955.14, -171619.69, -170843.56, -170974.02, -171129.06, 0.00, 0.00, 0.00
784.0, -171161.67, -170858.38, -170875.08, -170980.94, -171626.13, -171024.23, -171235.08, -171140.53, 0.00, 0.00, 0.00
788.0, -171387.67, -171081.28, -171297.33, -171150.97, -171969.75, -171437.73, -171770.80, -171283.78, 0.00, 0.00, 0.00
792.0, -171463.84, -171161.73, -171302.00, -171169.61, -171938.94, -171359.78, -171554.14, -171212.59, 0.00, 0.00, 0.00
796.0, -171067.75, -170940.30, -170863.70, -170986.70, -171531.13, -170945.52, -171039.95, -171137.17, 0.00, 0.00, 0.00
800.0, -170693.27, -170827.36, -170813.98, -170959.59, -171438.56, -170982.64, -171170.22, -171116.97, 0.00, 0.00, 0.00
804.0, -171058.75, -171021.27, -171221.44, -171105.53, -171766.47, -171397.03, -171728.20, -171252.16, 0.00, 0.00, 0.00
808.0, -171585.08, -171144.38, -171332.06, -171172.06, -171828.52, -171413.27, -171645.98, -171253.73, 0.00, 0.00, 0.00
812.0, -171448.64, -170964.39, -170922.20, -171002.16, -171444.77, -171012.13, -171099.06, -171128.64, 0.00, 0.00, 0.00
816.0, -171184.36, -170825.84, -170776.06, -170949.89, -171272.30, -170930.73, -171107.89, -171114.47, 0.00, 0.00, 0.00
820.0, -171327.45, -171002.06, -171166.81, -171090.78, -171585.80, -171350.45, -171677.11, -171233.27, 0.00, 0.00, 0.00
824.0, -171526.47, -171171.48, -171386.91, -171214.48, -171749.33, -171472.25, -171746.53, -171329.61, 0.00, 0.00, 0.00
828.0, -171310.27, -171039.75, -171024.34, -171051.86, -171408.30, -171107.78, -171195.17, -171135.70, 0.00, 0.00, 0.00
832.0, -170822.95, -170830.38, -170745.73, -170939.34, -171151.70, -170902.02, -171068.13, -171137.95, 0.00, 0.00, 0.00
836.0, -170909.17, -170949.00, -171053.80, -171038.92, -171399.45, -171270.11, -171593.27, -171194.02, 0.00, 0.00, 0.00
840.0, -171500.69, -171141.42, -171348.91, -171188.19, -171629.56, -171474.80, -171802.00, -171360.63, 0.00, 0.00, 0.00
844.0, -171575.36, -171062.55, -171062.77, -171066.97, -171348.33, -171160.80, -171285.17, -171143.25, 0.00, 0.00, 0.00
848.0, -171247.59, -170837.53, -170732.59, -170937.69, -171023.72, -170873.31, -171028.17, -171150.67, 0.00, 0.00, 0.00
852.0, -171249.42, -170918.17, -170994.06, -171012.55, -171206.88, -171198.00, -171491.73, -171169.47, 0.00, 0.00, 0.00
856.0, -171501.59, -171132.66, -171365.50, -171189.70, -171508.30, -171497.42, -171839.61, -171392.44, 0.00, 0.00, 0.00
860.0, -171446.22, -171115.98, -171175.89, -171114.94, -171310.33, -171259.63, -171399.67, -171168.02, 0.00, 0.00, 0.00
864.0, -171000.25, -170873.14, -170750.77, -170946.30, -170938.63, -170903.09, -171027.63, -171140.33, 0.00, 0.00, 0.00
868.0, -170795.34, -170876.89, -170834.72, -170972.25, -171030.64, -171119.70, -171392.59, -171136.27, 0.00, 0.00, 0.00
872.0, -171315.36, -171085.70, -171223.16, -171147.81, -171358.06, -171469.59, -171834.44, -171376.98, 0.00, 0.00, 0.00
876.0, -171647.36, -171121.53, -171137.38, -171124.22, -171245.98, -171314.66, -171494.63, -171213.06, 0.00, 0.00, 0.00
880.0, -171349.30, -170885.58, -170728.81, -170943.20, -170669.44, -170914.03, -171021.22, -171126.88, 0.00, 0.00, 0.00
884.0, -171187.58, -170831.92, -170812.97, -170941.39, -170456.45, -171004.36, -171253.92, -171097.80, 0.00, 0.00, 0.00
888.0, -171398.84, -171037.80, -171231.39, -171104.34, -170973.09, -171400.91, -171766.38, -171320.91, 0.00, 0.00, 0.00
892.0, -171476.03, -171114.98, -171245.17, -171125.19, -171172.94, -171329.56, -171548.50, -171243.61, 0.00, 0.00, 0.00
896.0, -171084.02, -170889.36, -170801.05, -170939.23, -170969.66, -170895.48, -171003.58, -171110.48, 0.00, 0.00, 0.00
900.0, -170670.38, -170764.30, -170742.75, -170902.89, -171119.31, -170880.31, -171091.38, -171092.42, 0.00, 0.00, 0.00
904.0, -170994.80, -170957.58, -171142.39, -171037.69, -171916.69, -171292.94, -171648.36, -171226.84, 0.00, 0.00, 0.00
908.0, -171529.00, -171093.17, -171269.20, -171111.45, -172111.73, -171328.48, -171601.28, -171243.84, 0.00, 0.00, 0.00
912.0, -171420.39, -170921.30, -170865.17, -170945.94, -171729.20, -170924.91, -171051.91, -171092.03, 0.00, 0.00, 0.00
916.0, -171138.34, -170767.44, -170710.30, -170887.70, -171528.75, -170832.67, -171026.72, -171091.80, 0.00, 0.00, 0.00
920.0, -171262.91, -170938.06, -171097.34, -171018.02, -171826.64, -171267.22, -171589.95, -171188.72, 0.00, 0.00, 0.00
924.0, -171469.72, -171114.36, -171334.72, -171145.27, -172004.56, -171412.23, -171701.17, -171292.86, 0.00, 0.00, 0.00
928.0, -171264.95, -170992.00, -170984.83, -170995.63, -171670.73, -171051.66, -171148.69, -171091.38, 0.00, 0.00, 0.00
932.0, -170764.13, -170772.63, -170699.58, -170890.45, -171393.84, -170831.41, -170982.77, -171109.13, 0.00, 0.00, 0.00
936.0, -170825.95, -170879.28, -170999.48, -170980.53, -171623.45, -171204.20, -171493.23, -171150.34, 0.00, 0.00, 0.00
940.0, -171412.27, -171077.77, -171307.14, -171130.30, -171865.38, -171429.84, -171734.75, -171313.42, 0.00, 0.00, 0.00
944.0, -171523.64, -171010.53, -171038.06, -171018.48, -171597.28, -171128.17, -171232.86, -171096.09, 0.00, 0.00, 0.00
948.0, -171193.08, -170783.33, -170689.41, -170886.92, -171257.42, -170821.06, -170952.28, -171106.53, 0.00, 0.00, 0.00
952.0, -171175.70, -170858.61, -170929.50, -170957.11, -171420.84, -171127.00, -171397.73, -171128.39, 0.00, 0.00, 0.00
956.0, -171427.45, -171078.95, -171310.20, -171130.98, -171729.98, -171439.70, -171776.97, -171336.11, 0.00, 0.00, 0.00
960.0, -171384.39, -171071.84, -171139.64, -171065.69, -171546.91, -171215.91, -171356.61, -171128.97, 0.00, 0.00, 0.00
964.0, -170930.25, -170823.16, -170720.31, -170897.31, -171164.17, -170846.92, -170958.81, -171095.16, 0.00, 0.00, 0.00
968.0, -170711.38, -170805.88, -170829.97, -170921.97, -171232.55, -171047.09, -171293.66, -171083.17, 0.00, 0.00, 0.00
972.0, -171210.83, -171015.09, -171232.22, -171093.08, -171564.30, -171407.39, -171758.08, -171311.98, 0.00, 0.00, 0.00
976.0, -171583.08, -171061.41, -171168.17, -171081.72, -171473.34, -171269.56, -171445.11, -171169.45, 0.00, 0.00, 0.00
980.0, -171301.28, -170831.06, -170738.44, -170900.22, -171069.03, -170865.69, -170962.92, -171080.27, 0.00, 0.00, 0.00
984.0, -171132.42, -170778.86, -170776.53, -170898.11, -171044.84, -170957.78, -171181.41, -171057.16, 0.00, 0.00, 0.00
988.0, -171351.06, -171001.13, -171204.50, -171069.94, -171396.13, -171371.28, -171722.34, -171277.55, 0.00, 0.00, 0.00
992.0, -171458.70, -171105.19, -171256.31, -171115.09, -171407.28, -171334.88, -171547.83, -171223.44, 0.00, 0.00, 0.00
996.0, -171127.91, -170901.75, -170821.55, -170924.81, -171008.31, -170925.92, -171008.44, -171075.02, 0.00, 0.00, 0.00
1000.0, -170702.72, -170761.80, -170712.25, -170872.59, -170886.88, -170895.83, -171091.67, -171073.45, 0.00, 0.00, 0.00
1004.0, -171003.13, -170933.53, -171111.00, -171012.28, -171209.02, -171303.19, -171649.81, -171229.78, 0.00, 0.00, 0.00
1008.0, -171551.64, -171073.61, -171263.86, -171100.52, -171309.42, -171356.89, -171619.55, -171262.03, 0.00, 0.00, 0.00
1012.0, -171416.84, -170910.78, -170866.03, -170934.16, -170866.58, -170962.61, -171058.09, -171052.83, 0.00, 0.00, 0.00
1016.0, -171124.81, -170736.50, -170671.56, -170864.03, -170358.73, -170808.16, -171000.19, -171068.72, 0.00, 0.00, 0.00
1020.0, -171226.34, -170889.97, -171032.48, -170976.80, -170713.55, -171203.72, -171544.56, -171161.55, 0.00, 0.00, 0.00
1024.0, -171423.44, -171058.81, -171270.95, -171094.94, -171111.36, -171349.27, -171657.97, -171274.95, 0.00, 0.00, 0.00
1028.0, -171204.95, -170931.45, -170919.77, -170946.34, -170989.55, -170976.56, -171101.53, -171050.98, 0.00, 0.00, 0.00
1032.0, -170670.89, -170707.44, -170630.81, -170838.31, -170898.13, -170722.55, -170898.55, -171064.47, 0.00, 0.00, 0.00
1036.0, -170730.13, -170810.77, -170926.80, -170917.41, -171549.50, -171080.77, -171385.33, -171092.41, 0.00, 0.00, 0.00
1040.0, -171297.11, -171016.08, -171244.80, -171063.08, -172074.81, -171325.78, -171669.30, -171243.97, 0.00, 0.00, 0.00
1044.0, -171462.70, -170956.66, -170987.17, -170960.34, -171823.63, -171028.92, -171182.70, -171049.52, 0.00, 0.00, 0.00
1048.0, -171132.91, -170729.53, -170628.55, -170827.98, -171468.05, -170716.66, -170880.53, -171041.33, 0.00, 0.00, 0.00
1052.0, -171097.84, -170800.67, -170860.39, -170887.11, -171612.03, -171030.31, -171304.44, -171044.86, 0.00, 0.00, 0.00
1056.0, -171348.17, -171024.72, -171248.53, -171061.06, -171927.25, -171362.48, -171708.22, -171254.34, 0.00, 0.00, 0.00
1060.0, -171318.27, -171028.66, -171096.23, -171008.77, -171760.28, -171152.86, -171307.36, -171085.67, 0.00, 0.00, 0.00
1064.0, -170849.20, -170779.55, -170676.16, -170847.09, -171369.05, -170775.61, -170895.05, -171048.50, 0.00, 0.00, 0.00
1068.0, -170631.31, -170749.19, -170787.08, -170863.81, -171417.41, -170967.08, -171207.97, -171018.20, 0.00, 0.00, 0.00
1072.0, -171128.70, -170961.06, -171197.03, -171030.64, -171751.11, -171337.53, -171687.78, -171233.22, 0.00, 0.00, 0.00
1076.0, -171520.52, -171016.45, -171149.61, -171027.14, -171673.94, -171213.70, -171396.61, -171114.80, 0.00, 0.00, 0.00
1080.0, -171247.30, -170791.11, -170710.33, -170847.81, -171266.75, -170805.19, -170910.34, -171034.36, 0.00, 0.00, 0.00
1084.0, -171064.36, -170729.56, -170711.13, -170842.56, -171223.47, -170893.50, -171106.75, -171018.42, 0.00, 0.00, 0.00
1088.0, -171274.48, -170947.75, -171135.64, -171009.53, -171572.67, -171313.64, -171658.70, -171210.06, 0.00, 0.00, 0.00
1092.0, -171393.39, -171061.36, -171205.64, -171063.30, -171600.11, -171292.78, -171513.06, -171170.80, 0.00, 0.00, 0.00
1096.0, -171063.13, -170861.95, -170775.97, -170877.58, -171202.27, -170883.34, -170963.48, -171021.97, 0.00, 0.00, 0.00
1100.0, -170626.78, -170709.70, -170659.75, -170828.92, -171062.63, -170835.19, -171018.72, -171024.02, 0.00, 0.00, 0.00
1104.0, -170917.02, -170882.45, -171056.13, -170964.11, -171380.44, -171248.08, -171578.67, -171161.45, 0.00, 0.00, 0.00
1108.0, -171473.59, -171029.78, -171224.39, -171058.19, -171494.84, -171317.88, -171572.75, -171205.97, 0.00, 0.00, 0.00
1112.0, -171365.03, -170874.30, -170834.16, -170891.80, -171126.84, -170927.22, -171008.92, -171000.70, 0.00, 0.00, 0.00
1116.0, -171069.78, -170698.33, -170624.45, -170811.16, -170899.23, -170776.16, -170931.83, -171024.50, 0.00, 0.00, 0.00
1120.0, -171172.14, -170854.81, -170988.25, -170930.78, -171180.19, -171185.45, -171484.61, -171115.05, 0.00, 0.00, 0.00
1124.0, -171393.42, -171043.50, -171258.25, -171072.13, -171388.20, -171360.73, -171641.98, -171250.92, 0.00, 0.00, 0.00
1128.0, -171219.08, -170941.69, -170933.19, -170934.27, -171076.72, -171020.14, -171100.55, -171013.95, 0.00, 0.00, 0.00
1132.0, -170725.33, -170712.31, -170604.78, -170813.20, -170777.52, -170762.98, -170891.48, -171026.22, 0.00, 0.00, 0.00
1136.0, -170734.89, -170791.38, -170870.11, -170891.78, -170988.11, -171102.73, -171383.25, -171063.38, 0.00, 0.00, 0.00
1140.0, -171321.36, -170987.73, -171201.66, -171048.42, -171252.75, -171352.94, -171665.69, -171261.70, 0.00, 0.00, 0.00
1144.0, -171467.53, -170939.61, -170961.31, -170951.61, -170988.77, -171073.20, -171180.81, -171031.09, 0.00, 0.00, 0.00
1148.0, -171132.42, -170704.61, -170598.95, -170804.22, -170364.63, -170730.84, -170849.27, -171010.36, 0.00, 0.00, 0.00
1152.0, -171076.38, -170749.69, -170812.05, -170849.70, -170424.27, -170981.92, -171248.64, -170996.11, 0.00, 0.00, 0.00
1156.0, -171311.97, -170960.23, -171194.03, -171012.20, -170946.11, -171307.50, -171649.81, -171224.39, 0.00, 0.00, 0.00
1160.0, -171277.86, -170958.19, -171042.97, -170956.64, -171002.23, -171093.95, -171248.47, -171045.56, 0.00, 0.00, 0.00
1164.0, -170786.70, -170704.41, -170612.48, -170790.80, -170799.84, -170691.69, -170808.34, -170992.94, 0.00, 0.00, 0.00
1168.0, -170547.97, -170671.34, -170715.02, -170803.02, -171146.78, -170859.61, -171084.02, -170969.92, 0.00, 0.00, 0.00
1172.0, -171001.39, -170889.09, -171121.91, -170956.31, -171913.34, -171239.38, -171592.48, -171150.03, 0.00, 0.00, 0.00
1176.0, -171431.23, -170954.09, -171090.03, -170959.81, -171905.05, -171128.41, -171333.02, -171052.11, 0.00, 0.00, 0.00
1180.0, -171190.80, -170732.94, -170654.38, -170795.97, -171492.41, -170715.59, -170834.28, -170973.61, 0.00, 0.00, 0.00
1184.0, -170990.66, -170666.02, -170661.02, -170790.80, -171428.53, -170799.98, -171001.70, -170960.91, 0.00, 0.00, 0.00
1188.0, -171194.11, -170886.50, -171089.70, -170952.75, -171773.95, -171235.91, -171564.94, -171124.30, 0.00, 0.00, 0.00
1192.0, -171323.36, -171007.98, -171177.75, -171014.67, -171817.05, -171232.59, -171447.64, -171102.06, 0.00, 0.00, 0.00
1196.0, -170989.52, -170814.63, -170748.14, -170834.41, -171420.59, -170822.42, -170903.75, -170964.94, 0.00, 0.00, 0.00
1200.0, -170550.11, -170657.80, -170599.59, -170782.03, -171265.86, -170770.11, -170941.86, -170949.89, 0.00, 0.00, 0.00
1204.0, -170840.03, -170825.77, -170985.83, -170912.61, -171575.97, -171186.84, -171505.64, -171075.86, 0.00, 0.00, 0.00
1208.0, -171403.97, -170978.77, -171168.89, -171013.44, -171703.08, -171271.95, -171530.33, -171141.02, 0.00, 0.00, 0.00
1212.0, -171323.61, -170830.94, -170786.83, -170850.53, -171340.91, -170885.03, -170968.28, -170965.56, 0.00, 0.00, 0.00
1216.0, -171020.17, -170651.78, -170568.03, -170762.56, -171098.66, -170718.17, -170870.23, -170974.55, 0.00, 0.00, 0.00
1220.0, -171112.70, -170801.45, -170924.83, -170873.36, -171371.73, -171125.08, -171419.86, -171049.13, 0.00, 0.00, 0.00
1224.0, -171340.02, -170993.19, -171208.33, -171020.50, -171591.63, -171315.16, -171610.03, -171189.08, 0.00, 0.00, 0.00
1228.0, -171177.16, -170901.08, -170896.42, -170889.83, -171289.61, -170983.47, -171074.38, -170961.72, 0.00, 0.00, 0.00
1232.0, -170679.66, -170666.98, -170562.80, -170763.61, -170980.06, -170714.73, -170843.63, -170977.30, 0.00, 0.00, 0.00
1236.0, -170674.42, -170737.86, -170816.70, -170835.67, -171177.30, -171043.64, -171324.14, -171004.52, 0.00, 0.00, 0.00
1240.0, -171258.44, -170937.86, -171158.86, -170994.61, -171452.25, -171304.13, -171630.69, -171200.41, 0.00, 0.00, 0.00
1244.0, -171428.36, -170899.52, -170934.20, -170905.61, -171222.11, -171035.70, -171157.98, -170984.22, 0.00, 0.00, 0.00
1248.0, -171094.91, -170663.36, -170555.09, -170752.50, -170854.69, -170691.38, -170809.09, -170968.78, 0.00, 0.00, 0.00
1252.0, -171039.09, -170705.20, -170753.47, -170796.69, -170973.83, -170952.08, -171205.17, -170965.88, 0.00, 0.00, 0.00
1256.0, -171290.48, -170927.03, -171157.19, -170976.69, -171304.05, -171301.23, -171642.75, -171201.11, 0.00, 0.00, 0.00
1260.0, -171288.97, -170951.81, -171040.77, -170943.19, -171168.33, -171121.08, -171274.77, -171019.88, 0.00, 0.00, 0.00
1264.0, -170868.53, -170710.92, -170608.11, -170770.36, -170773.06, -170731.84, -170827.94, -170959.02, 0.00, 0.00, 0.00
1268.0, -170579.48, -170661.36, -170669.91, -170773.47, -170795.42, -170872.08, -171105.14, -170949.31, 0.00, 0.00, 0.00
1272.0, -171044.78, -170863.59, -171082.08, -170939.11, -171134.63, -171252.00, -171611.30, -171167.69, 0.00, 0.00, 0.00
1276.0, -171460.56, -170936.06, -171070.55, -170953.75, -171087.75, -171158.61, -171362.13, -171060.20, 0.00, 0.00, 0.00
1280.0, -171194.86, -170717.56, -170633.53, -170774.20, -170509.94, -170739.81, -170840.39, -170937.02, 0.00, 0.00, 0.00
1284.0, -170984.17, -170631.28, -170610.39, -170746.58, -170214.03, -170759.25, -170982.53, -170917.55, 0.00, 0.00, 0.00
1288.0, -171169.31, -170828.28, -171021.75, -170893.47, -170718.14, -171175.44, -171534.86, -171100.08, 0.00, 0.00, 0.00
1292.0, -171292.81, -170939.92, -171111.47, -170952.06, -170984.36, -171174.17, -171422.34, -171082.61, 0.00, 0.00, 0.00
1296.0, -170951.48, -170741.59, -170680.84, -170775.39, -170793.78, -170745.91, -170856.30, -170909.08, 0.00, 0.00, 0.00
1300.0, -170483.88, -170576.08, -170543.69, -170718.42, -170847.70, -170654.05, -170851.61, -170929.50, 0.00, 0.00, 0.00
1304.0, -170736.16, -170745.80, -170923.69, -170836.55, -171622.09, -171070.30, -171405.89, -171019.22, 0.00, 0.00, 0.00
1308.0, -171295.61, -170909.66, -171118.84, -170937.28, -171937.69, -171174.81, -171465.17, -171081.98, 0.00, 0.00, 0.00
1312.0, -171266.95, -170769.28, -170744.52, -170788.63, -171579.42, -170788.33, -170910.33, -170910.16, 0.00, 0.00, 0.00
1316.0, -170955.91, -170587.66, -170514.20, -170707.42, -171319.75, -170618.45, -170791.70, -170916.98, 0.00, 0.00, 0.00
1320.0, -171033.53, -170741.66, -170858.30, -170813.05, -171578.89, -171035.52, -171330.81, -170977.67, 0.00, 0.00, 0.00
1324.0, -171265.16, -170944.66, -171154.59, -170963.44, -171811.42, -171246.52, -171544.06, -171122.42, 0.00, 0.00, 0.00
1328.0, -171112.08, -170861.84, -170856.27, -170841.50, -171520.83, -170922.53, -171026.25, -170920.45, 0.00, 0.00, 0.00
1332.0, -170602.86, -170616.98, -170518.22, -170713.44, -171196.66, -170643.31, -170782.83, -170918.52, 0.00, 0.00, 0.00
1336.0, -170589.20, -170677.41, -170771.39, -170781.42, -171379.31, -170976.53, -171246.94, -170929.42, 0.00, 0.00, 0.00
1340.0, -171158.28, -170884.38, -171123.30, -170942.31, -171660.72, -171256.53, -171572.75, -171130.45, 0.00, 0.00, 0.00
1344.0, -171371.11, -170854.53, -170913.56, -170860.94, -171442.61, -170999.25, -171114.94, -170940.81, 0.00, 0.00, 0.00
1348.0, -171045.17, -170617.03, -170521.66, -170708.41, -171068.16, -170647.36, -170753.67, -170916.28, 0.00, 0.00, 0.00
1352.0, -170976.88, -170654.00, -170700.17, -170751.36, -171173.41, -170896.69, -171133.52, -170900.58, 0.00, 0.00, 0.00
1356.0, -171227.64, -170884.05, -171110.13, -170931.66, -171510.19, -171253.56, -171588.30, -171137.56, 0.00, 0.00, 0.00
1360.0, -171240.38, -170919.81, -171013.84, -170907.67, -171392.61, -171090.34, -171241.88, -170976.63, 0.00, 0.00, 0.00
1364.0, -170823.80, -170679.08, -170565.95, -170725.70, -170994.44, -170697.03, -170782.41, -170915.05, 0.00, 0.00, 0.00
1368.0, -170528.05, -170613.83, -170556.92, -170720.16, -171004.45, -170828.44, -171044.73, -170914.91, 0.00, 0.00, 0.00
1372.0, -170989.09, -170813.77, -170955.08, -170889.11, -171346.41, -171213.55, -171562.19, -171119.86, 0.00, 0.00, 0.00
1376.0, -171414.53, -170895.27, -170961.58, -170914.19, -171317.67, -171136.75, -171336.06, -171026.53, 0.00, 0.00, 0.00
1380.0, -171157.52, -170682.77, -170538.80, -170728.78, -170911.33, -170722.11, -170808.52, -170895.11, 0.00, 0.00, 0.00
1384.0, -170942.45, -170587.70, -170538.16, -170698.86, -170821.55, -170735.06, -170937.44, -170886.28, 0.00, 0.00, 0.00
1388.0, -171135.50, -170795.31, -170974.20, -170856.77, -171165.39, -171164.78, -171506.36, -171076.27, 0.00, 0.00, 0.00
1392.0, -171287.06, -170932.48, -171100.61, -170939.61, -171243.33, -171196.75, -171434.39, -171087.00, 0.00, 0.00, 0.00
1396.0, -171002.70, -170755.67, -170685.42, -170762.45, -170859.59, -170796.98, -170870.94, -170893.92, 0.00, 0.00, 0.00
1400.0, -170542.39, -170577.05, -170506.16, -170687.50, -170678.39, -170690.67, -170863.97, -170881.67, 0.00, 0.00, 0.00
1404.0, -170750.89, -170729.33, -170880.41, -170809.48, -170978.05, -171093.36, -171423.09, -171014.38, 0.00, 0.00, 0.00
1408.0, -171329.17, -170893.97, -171096.09, -170925.59, -171135.05, -171210.09, -171487.25, -171114.16, 0.00, 0.00, 0.00
1412.0, -171271.39, -170763.72, -170733.66, -170773.14, -170739.53, -170840.09, -170930.09, -170885.88, 0.00, 0.00, 0.00
1416.0, -170956.58, -170561.17, -170474.06, -170675.70, -170179.42, -170615.20, -170786.52, -170890.48, 0.00, 0.00, 0.00
1420.0, -171016.16, -170687.45, -170799.64, -170766.67, -170460.25, -170979.84, -171306.69, -170948.45, 0.00, 0.00, 0.00
1424.0, -171237.30, -170876.67, -171094.48, -170908.63, -170910.06, -171188.14, -171522.44, -171115.92, 0.00, 0.00, 0.00
1428.0, -171076.77, -170787.39, -170794.61, -170782.88, -170836.98, -170855.52, -170988.92, -170881.09, 0.00, 0.00, 0.00
1432.0, -170542.91, -170542.67, -170451.84, -170652.13, -170697.83, -170544.55, -170695.13, -170873.66, 0.00, 0.00, 0.00
1436.0, -170510.48, -170605.83, -170703.59, -170716.00, -171267.27, -170855.25, -171129.02, -170875.89, 0.00, 0.00, 0.00
1440.0, -171067.59, -170820.52, -171059.84, -170867.64, -171883.33, -171146.39, -171491.72, -171063.97, 0.00, 0.00, 0.00
1444.0, -171302.63, -170800.02, -170865.02, -170797.36, -171694.27, -170899.55, -171059.09, -170876.83, 0.00, 0.00, 0.00
1448.0, -170976.91, -170565.13, -170468.19, -170651.45, -171308.72, -170543.73, -170689.41, -170853.80, 0.00, 0.00, 0.00
1452.0, -170891.33, -170590.75, -170636.25, -170694.81, -171393.95, -170799.67, -171046.92, -170850.63, 0.00, 0.00, 0.00
1456.0, -171141.09, -170813.39, -171051.72, -170872.16, -171735.55, -171175.48, -171517.94, -171063.13, 0.00, 0.00, 0.00
1460.0, -171164.42, -170857.16, -170973.27, -170856.59, -171632.14, -171026.69, -171192.16, -170918.55, 0.00, 0.00, 0.00
1464.0, -170727.00, -170620.22, -170530.92, -170677.84, -171227.00, -170624.89, -170727.31, -170852.23, 0.00, 0.00, 0.00
1468.0, -170432.22, -170550.16, -170551.31, -170674.42, -171212.59, -170742.64, -170960.27, -170848.39, 0.00, 0.00, 0.00
1472.0, -170874.81, -170758.17, -170964.22, -170832.72, -171551.56, -171137.22, -171485.30, -171032.08, 0.00, 0.00, 0.00
1476.0, -171338.47, -170849.39, -170990.77, -170864.69, -171539.55, -171077.66, -171284.86, -170962.31, 0.00, 0.00, 0.00
1480.0, -171112.14, -170643.22, -170557.30, -170686.86, -171132.97, -170661.78, -170754.36, -170843.47, 0.00, 0.00, 0.00
1484.0, -170886.25, -170540.36, -170501.81, -170653.53, -171024.86, -170669.17, -170861.63, -170841.89, 0.00, 0.00, 0.00
1488.0, -171072.33, -170735.84, -170925.39, -170808.61, -171367.17, -171102.06, -171434.50, -171005.86, 0.00, 0.00, 0.00
1492.0, -171234.27, -170879.02, -171071.11, -170899.53, -171462.64, -171150.14, -171389.34, -171030.14, 0.00, 0.00, 0.00
1496.0, -170959.30, -170709.97, -170661.23, -170723.78, -171083.31, -170752.61, -170827.72, -170841.59, 0.00, 0.00, 0.00
1500.0, -170492.33, -170525.56, -170419.73, -170630.89, -170887.64, -170631.47, -170800.16, -170835.92, 0.00, 0.00, 0.00
1504.0, -170687.17, -170675.83, -170746.94, -170748.25, -171180.84, -171034.02, -171361.39, -170949.20, 0.00, 0.00, 0.00
1508.0, -171274.02, -170849.22, -170980.05, -170874.19, -171355.38, -171169.81, -171463.00, -171063.92, 0.00, 0.00, 0.00
1512.0, -171240.13, -170729.59, -170635.45, -170727.63, -171022.75, -170810.38, -170909.33, -170835.03, 0.00, 0.00, 0.00
1516.0, -170922.59, -170522.34, -170400.63, -170624.88, -170744.56, -170583.86, -170741.75, -170842.95, 0.00, 0.00, 0.00
1520.0, -170981.31, -170640.16, -170752.03, -170724.16, -170987.06, -170958.09, -171264.27, -170904.81, 0.00, 0.00, 0.00
1524.0, -171224.73, -170844.13, -171080.22, -170887.50, -171247.42, -171196.83, -171518.25, -171103.27, 0.00, 0.00, 0.00
1528.0, -171110.23, -170784.28, -170814.19, -170780.83, -170985.98, -170901.67, -171015.50, -170853.69, 0.00, 0.00, 0.00
1532.0, -170647.98, -170546.39, -170421.41, -170632.58, -170648.33, -170592.36, -170723.88, -170835.31, 0.00, 0.00, 0.00
1536.0, -170531.59, -170591.61, -170585.36, -170688.00, -170808.41, -170878.45, -171164.42, -170848.38, 0.00, 0.00, 0.00
1540.0, -171100.56, -170799.27, -170953.59, -170860.47, -171112.61, -171182.66, -171524.42, -171101.86, 0.00, 0.00, 0.00
1544.0, -171325.31, -170796.02, -170786.56, -170799.94, -170929.19, -170960.55, -171101.44, -170878.45, 0.00, 0.00, 0.00
1548.0, -170998.48, -170555.03, -170398.89, -170630.06, -170356.92, -170583.86, -170697.98, -170831.38, 0.00, 0.00, 0.00
1552.0, -170894.08, -170550.53, -170567.36, -170657.70, -170233.14, -170764.84, -171027.11, -170833.42, 0.00, 0.00, 0.00
1556.0, -171126.48, -170763.28, -170980.41, -170824.25, -170752.28, -171127.70, -171493.33, -171064.75, 0.00, 0.00, 0.00
1560.0, -171150.56, -170804.00, -170909.61, -170807.84, -170876.53, -170982.88, -171174.03, -170916.03, 0.00, 0.00, 0.00
1564.0, -170715.83, -170560.44, -170466.16, -170625.59, -170667.80, -170555.98, -170669.13, -170812.97, 0.00, 0.00, 0.00
1568.0, -170373.17, -170477.58, -170492.16, -170609.78, -170929.86, -170629.44, -170855.08, -170789.52, 0.00, 0.00, 0.00
1572.0, -170766.72, -170688.42, -170904.97, -170758.09, -171717.58, -171038.81, -171397.84, -170971.73, 0.00, 0.00, 0.00
1576.0, -171254.30, -170791.48, -170954.00, -170799.80, -171795.28, -171000.16, -171237.56, -170922.08, 0.00, 0.00, 0.00
1580.0, -171067.48, -170591.25, -170524.42, -170628.30, -171390.78, -170583.75, -170703.80, -170790.64, 0.00, 0.00, 0.00
1584.0, -170826.84, -170476.41, -170448.91, -170593.11, -171260.16, -170582.89, -170781.78, -170784.22, 0.00, 0.00, 0.00
1588.0, -170998.64, -170673.28, -170863.45, -170740.13, -171591.61, -171023.56, -171356.73, -170933.06, 0.00, 0.00, 0.00
1592.0, -171170.30, -170825.19, -171028.84, -170838.42, -171704.95, -171093.14, -171346.66, -170976.00, 0.00, 0.00, 0.00
1596.0, -170902.58, -170665.75, -170630.78, -170676.66, -171332.42, -170700.17, -170784.72, -170780.55, 0.00, 0.00, 0.00
1600.0, -170418.52, -170473.33, -170412.06, -170600.78, -171111.83, -170557.08, -170719.83, -170792.59, 0.00, 0.00, 0.00
1604.0, -170596.20, -170612.20, -170764.77, -170707.83, -171388.50, -170956.02, -171268.47, -170877.98, 0.00, 0.00, 0.00
1608.0, -171181.59, -170789.55, -171014.28, -170835.38, -171576.70, -171109.06, -171402.41, -170999.38, 0.00, 0.00, 0.00
1612.0, -171193.45, -170680.58, -170679.75, -170696.88, -171255.28, -170757.91, -170857.88, -170793.19, 0.00, 0.00, 0.00
1616.0, -170870.77, -170471.09, -170388.23, -170588.58, -170959.50, -170519.70, -170667.28, -170802.73, 0.00, 0.00, 0.00
1620.0, -170912.19, -170587.81, -170691.38, -170676.11, -171182.48, -170889.45, -171175.00, -170843.20, 0.00, 0.00, 0.00
1624.0, -171157.06, -170797.66, -171029.11, -170840.02, -171452.33, -171142.98, -171460.05, -171034.17, 0.00, 0.00, 0.00
1628.0, -171054.20, -170748.08, -170781.98, -170742.09, -171204.81, -170858.78, -170970.77, -170822.89, 0.00, 0.00, 0.00
1632.0, -170569.48, -170506.48, -170396.11, -170593.58, -170848.55, -170531.64, -170646.23, -170807.02, 0.00, 0.00, 0.00
1636.0, -170445.75, -170544.00, -170585.41, -170636.11, -170982.81, -170806.53, -171058.94, -170795.70, 0.00, 0.00, 0.00
1640.0, -170998.42, -170754.89, -170964.42, -170803.80, -171291.20, -171123.23, -171457.92, -171020.88, 0.00, 0.00, 0.00
1644.0, -171268.09, -170759.98, -170815.52, -170754.16, -171127.28, -170915.64, -171057.98, -170834.52, 0.00, 0.00, 0.00
1648.0, -170950.58, -170521.83, -170405.09, -170589.98, -170734.28, -170534.33, -170634.31, -170789.61, 0.00, 0.00, 0.00
1652.0, -170836.59, -170514.19, -170535.27, -170609.81, -170782.44, -170718.28, -170944.55, -170772.44, 0.00, 0.00, 0.00
1656.0, -171078.06, -170734.55, -170961.52, -170785.73, -171130.56, -171102.59, -171446.19, -171003.72, 0.00, 0.00, 0.00
1660.0, -171132.44, -170799.70, -170928.17, -170790.92, -171066.64, -170990.70, -171170.86, -170879.14, 0.00, 0.00, 0.00
1664.0, -170745.23, -170570.97, -170473.83, -170604.67, -170660.34, -170580.84, -170672.58, -170769.69, 0.00, 0.00, 0.00
1668.0, -170385.91, -170472.41, -170395.09, -170580.91, -170610.22, -170643.19, -170857.33, -170763.05, 0.00, 0.00, 0.00
1672.0, -170783.91, -170661.83, -170785.11, -170736.92, -170948.28, -171050.81, -171402.33, -170956.75, 0.00, 0.00, 0.00
1676.0, -171275.84, -170770.20, -170857.52, -170791.27, -170977.30, -171032.03, -171259.55, -170919.83, 0.00, 0.00, 0.00
1680.0, -171068.63, -170577.64, -170441.91, -170610.77, -170469.00, -170619.16, -170706.45, -170756.64, 0.00, 0.00, 0.00
1684.0, -170809.28, -170442.38, -170371.22, -170556.92, -170041.92, -170542.06, -170743.05, -170762.42, 0.00, 0.00, 0.00
1688.0, -170952.78, -170623.80, -170780.94, -170683.03, -170479.70, -170953.31, -171302.52, -170886.55, 0.00, 0.00, 0.00
1692.0, -171117.89, -170768.86, -170949.33, -170772.69, -170814.81, -171027.66, -171311.19, -170935.27, 0.00, 0.00, 0.00
1696.0, -170834.91, -170602.72, -170549.44, -170614.08, -170650.56, -170617.72, -170737.19, -170739.38, 0.00, 0.00, 0.00
1700.0, -170322.08, -170393.33, -170337.05, -170532.16, -170620.92, -170440.20, -170626.70, -170754.09, 0.00, 0.00, 0.00
1704.0, -170478.05, -170529.44, -170685.92, -170624.84, -171338.03, -170835.70, -171153.61, -170805.14, 0.00, 0.00, 0.00
1708.0, -171044.58, -170719.52, -170949.06, -170748.92, -171769.27, -171014.44, -171326.86, -170911.77, 0.00, 0.00, 0.00
1712.0, -171123.42, -170619.59, -170627.52, -170624.14, -171460.42, -170669.23, -170796.78, -170729.25, 0.00, 0.00, 0.00
1716.0, -170796.06, -170407.80, -170326.52, -170524.53, -171145.11, -170420.22, -170578.38, -170728.52, 0.00, 0.00, 0.00
1720.0, -170816.19, -170523.22, -170622.50, -170614.80, -171347.47, -170788.72, -171064.28, -170755.77, 0.00, 0.00, 0.00
1724.0, -171062.28, -170743.73, -170971.81, -170774.78, -171626.30, -171063.02, -171386.80, -170936.45, 0.00, 0.00, 0.00
1728.0, -170970.31, -170703.39, -170740.59, -170684.31, -171391.63, -170789.97, -170918.06, -170753.39, 0.00, 0.00, 0.00
1732.0, -170471.27, -170448.00, -170348.05, -170534.73, -171024.48, -170452.14, -170580.84, -170735.36, 0.00, 0.00, 0.00
1736.0, -170347.59, -170461.59, -170521.61, -170580.39, -171139.36, -170719.75, -170970.52, -170720.14, 0.00, 0.00, 0.00
1740.0, -170875.66, -170681.02, -170906.19, -170743.11, -171452.84, -171050.81, -171388.09, -170925.95, 0.00, 0.00, 0.00
1744.0, -171196.61, -170697.78, -170777.78, -170703.47, -171305.86, -170858.89, -171010.00, -170769.64, 0.00, 0.00, 0.00
1748.0, -170894.08, -170460.44, -170359.64, -170534.89, -170905.39, -170467.67, -170572.58, -170725.02, 0.00, 0.00, 0.00
1752.0, -170762.58, -170442.48, -170463.47, -170543.48, -170931.78, -170636.78, -170856.73, -170708.97, 0.00, 0.00, 0.00
1756.0, -170996.58, -170663.08, -170888.95, -170714.77, -171280.61, -171032.66, -171371.91, -170913.61, 0.00, 0.00, 0.00
1760.0, -171063.50, -170738.69, -170876.33, -170729.75, -171234.88, -170938.61, -171121.13, -170813.30, 0.00, 0.00, 0.00
1764.0, -170675.28, -170516.98, -170431.89, -170551.06, -170824.94, -170523.48, -170608.00, -170711.55, 0.00, 0.00, 0.00
1768.0, -170300.08, -170410.23, -170391.55, -170527.59, -170748.20, -170569.59, -170756.70, -170700.88, 0.00, 0.00, 0.00
1772.0, -170680.44, -170592.11, -170803.11, -170673.73, -171081.67, -170979.95, -171309.67, -170863.59, 0.00, 0.00, 0.00
1776.0, -171190.91, -170708.73, -170896.66, -170736.44, -171129.44, -170979.73, -171200.19, -170848.39, 0.00, 0.00, 0.00
1780.0, -171006.58, -170524.72, -170472.75, -170565.23, -170733.84, -170567.50, -170647.03, -170697.25, 0.00, 0.00, 0.00
1784.0, -170742.11, -170395.14, -170335.80, -170510.83, -170565.50, -170500.63, -170666.97, -170687.73, 0.00, 0.00, 0.00
1788.0, -170888.83, -170582.25, -170733.30, -170643.84, -170880.44, -170927.25, -171240.19, -170813.28, 0.00, 0.00, 0.00
1792.0, -171078.28, -170748.53, -170936.72, -170756.61, -171026.84, -171032.44, -171294.17, -170892.00, 0.00, 0.00, 0.00
1796.0, -170839.34, -170606.45, -170560.05, -170597.03, -170646.72, -170654.36, -170733.61, -170694.80, 0.00, 0.00, 0.00
1800.0, -170338.45, -170388.44, -170306.61, -170500.20, -170122.05, -170450.16, -170612.00, -170704.33, 0.00, 0.00, 0.00
1804.0, -170446.38, -170499.08, -170624.03, -170583.75, -170319.61, -170816.58, -171130.09, -170753.06, 0.00, 0.00, 0.00
1808.0, -171009.38, -170674.34, -170890.70, -170706.22, -170736.81, -170996.97, -171305.38, -170883.69, 0.00, 0.00, 0.00
1812.0, -171073.67, -170570.66, -170569.86, -170578.20, -170640.61, -170646.98, -170763.66, -170682.77, 0.00, 0.00, 0.00
1816.0, -170727.02, -170344.58, -170254.39, -170464.14, -170513.20, -170351.17, -170505.47, -170679.30, 0.00, 0.00, 0.00
1820.0, -170721.92, -170443.94, -170538.70, -170537.14, -171115.56, -170685.09, -170963.88, -170703.86, 0.00, 0.00, 0.00
1824.0, -170966.52, -170667.70, -170897.97, -170698.13, -171721.34, -170978.17, -171315.30, -170868.73, 0.00, 0.00, 0.00
1828.0, -170887.70, -170640.86, -170688.84, -170621.86, -171517.69, -170721.28, -170868.22, -170693.05, 0.00, 0.00, 0.00
1832.0, -170375.73, -170390.67, -170297.47, -170478.53, -171138.06, -170374.36, -170511.02, -170677.05, 0.00, 0.00, 0.00
1836.0, -170255.33, -170397.83, -170470.06, -170517.19, -171231.23, -170635.36, -170876.89, -170671.23, 0.00, 0.00, 0.00
1840.0, -170766.22, -170610.95, -170865.06, -170679.45, -171552.53, -170985.47, -171322.25, -170858.66, 0.00, 0.00, 0.00
1844.0, -171125.44, -170638.17, -170758.45, -170651.19, -171424.47, -170811.89, -170970.14, -170713.08, 0.00, 0.00, 0.00
1848.0, -170842.02, -170405.67, -170326.72, -170489.09, -171019.81, -170415.14, -170517.86, -170661.39, 0.00, 0.00, 0.00
1852.0, -170695.70, -170381.52, -170389.47, -170492.42, -171026.88, -170568.88, -170777.61, -170642.36, 0.00, 0.00, 0.00
1856.0, -170925.55, -170606.02, -170813.66, -170662.36, -171378.63, -170973.89, -171311.11, -170844.08, 0.00, 0.00, 0.00
1860.0, -171009.53, -170693.83, -170825.56, -170691.03, -171355.73, -170902.55, -171095.88, -170770.97, 0.00, 0.00, 0.00
1864.0, -170629.67, -170474.61, -170384.39, -170509.11, -170948.06, -170488.42, -170574.63, -170668.34, 0.00, 0.00, 0.00
1868.0, -170242.14, -170348.19, -170324.59, -170474.45, -170854.89, -170509.05, -170700.92, -170636.14, 0.00, 0.00, 0.00
1872.0, -170603.97, -170544.41, -170733.59, -170616.42, -171187.02, -170928.23, -171260.61, -170802.08, 0.00, 0.00, 0.00
1876.0, -171131.34, -170676.48, -170850.09, -170688.91, -171254.39, -170950.20, -171183.67, -170810.59, 0.00, 0.00, 0.00
1880.0, -170975.17, -170497.53, -170435.52, -170519.48, -170865.47, -170544.91, -170621.75, -170653.34, 0.00, 0.00, 0.00
1884.0, -170702.81, -170337.98, -170280.09, -170460.08, -170682.16, -170443.64, -170614.97, -170648.17, 0.00, 0.00, 0.00
1888.0, -170838.98, -170518.19, -170670.19, -170591.56, -170990.69, -170863.52, -171184.03, -170765.91, 0.00, 0.00, 0.00
1892.0, -171040.61, -170694.95, -170895.63, -170716.47, -171158.34, -170992.38, -171265.09, -170865.16, 0.00, 0.00, 0.00
1896.0, -170825.17, -170566.63, -170532.77, -170562.16, -170814.84, -170624.50, -170707.39, -170652.97, 0.00, 0.00, 0.00
1900.0, -170333.41, -170344.73, -170248.09, -170451.22, -170550.16, -170416.31, -170565.28, -170663.45, 0.00, 0.00, 0.00
1904.0, -170420.27, -170447.64, -170559.56, -170540.81, -170795.19, -170789.05, -171087.80, -170719.41, 0.00, 0.00, 0.00
1908.0, -171017.92, -170638.95, -170861.67, -170688.36, -171030.42, -170999.17, -171303.41, -170886.39, 0.00, 0.00, 0.00
1912.0, -171083.20, -170564.23, -170576.19, -170573.69, -170749.47, -170685.83, -170786.41, -170654.05, 0.00, 0.00, 0.00
1916.0, -170748.50, -170339.20, -170242.50, -170441.48, -170415.03, -170387.09, -170515.02, -170661.52, 0.00, 0.00, 0.00
1920.0, -170742.31, -170418.08, -170501.05, -170501.42, -170591.41, -170703.34, -170972.80, -170685.53, 0.00, 0.00, 0.00
1924.0, -170995.91, -170633.59, -170877.05, -170679.45, -170896.56, -171006.13, -171328.75, -170905.81, 0.00, 0.00, 0.00
1928.0, -170943.66, -170621.95, -170691.86, -170613.75, -170693.16, -170771.53, -170890.45, -170693.69, 0.00, 0.00, 0.00
1932.0, -170479.16, -170373.95, -170275.77, -170451.88, -170088.97, -170401.64, -170503.22, -170660.75, 0.00, 0.00, 0.00
1936.0, -170270.83, -170362.28, -170399.03, -170471.66, -170027.92, -170590.11, -170844.61, -170638.27, 0.00, 0.00, 0.00
1940.0, -170754.14, -170562.06, -170785.14, -170624.41, -170538.66, -170928.41, -171286.75, -170855.64, 0.00, 0.00, 0.00
1944.0, -171105.50, -170584.84, -170685.45, -170593.25, -170634.95, -170756.23, -170939.67, -170700.63, 0.00, 0.00, 0.00
1948.0, -170804.36, -170344.36, -170245.97, -170427.22, -170422.86, -170332.52, -170453.72, -170622.19, 0.00, 0.00, 0.00
1952.0, -170625.98, -170304.19, -170312.39, -170432.66, -170687.38, -170445.28, -170667.20, -170606.30, 0.00, 0.00, 0.00
1956.0, -170838.95, -170534.33, -170739.81, -170590.83, -171498.67, -170865.94, -171215.52, -170781.72, 0.00, 0.00, 0.00
1960.0, -170935.66, -170634.91, -170774.63, -170626.45, -171582.31, -170817.55, -171041.48, -170724.20, 0.00, 0.00, 0.00
1964.0, -170556.03, -170423.86, -170339.05, -170450.80, -171175.70, -170400.91, -170510.20, -170614.45, 0.00, 0.00, 0.00
1968.0, -170159.64, -170291.44, -170266.69, -170421.45, -171059.33, -170412.91, -170604.94, -170606.23, 0.00, 0.00, 0.00
1972.0, -170499.33, -170477.98, -170670.83, -170560.80, -171382.08, -170843.11, -171167.63, -170741.64, 0.00, 0.00, 0.00
1976.0, -171039.55, -170614.08, -170806.14, -170639.78, -171465.83, -170885.11, -171123.59, -170759.05, 0.00, 0.00, 0.00
1980.0, -170931.31, -170444.81, -170399.33, -170471.92, -171082.73, -170481.08, -170565.83, -170594.20, 0.00, 0.00, 0.00
1984.0, -170647.53, -170288.03, -170222.19, -170408.70, -170878.97, -170370.75, -170530.33, -170611.00, 0.00, 0.00, 0.00
1988.0, -170772.03, -170453.45, -170601.30, -170537.03, -171177.86, -170793.03, -171096.92, -170708.41, 0.00, 0.00, 0.00
1992.0, -170982.64, -170631.92, -170845.19, -170670.14, -171361.86, -170940.55, -171215.45, -170813.17, 0.00, 0.00, 0.00
1996.0, -170783.75, -170515.23, -170498.16, -170521.03, -171031.39, -170583.25, -170664.59, -170599.14, 0.00, 0.00, 0.00
2000.0, -170286.09, -170297.84, -170207.55, -170401.52, -170749.66, -170353.97, -170493.45, -170606.81, 0.00, 0.00, 0.00
2004.0, -170334.80, -170395.75, -170505.61, -170483.64, -170978.08, -170712.88, -171003.38, -170650.02, 0.00, 0.00, 0.00
2008.0, -170918.27, -170589.30, -170818.34, -170632.52, -171225.28, -170937.64, -171252.48, -170828.34, 0.00, 0.00, 0.00
2012.0, -171042.73, -170525.08, -170550.48, -170525.45, -170959.03, -170635.14, -170748.45, -170610.66, 0.00, 0.00, 0.00
2016.0, -170708.36, -170295.45, -170198.22, -170394.63, -170610.48, -170325.31, -170450.28, -170612.61, 0.00, 0.00, 0.00
2020.0, -170685.88, -170366.39, -170435.53, -170455.94, -170767.83, -170634.94, -170889.83, -170628.88, 0.00, 0.00, 0.00
2024.0, -170938.94, -170585.95, -170818.73, -170632.05, -171080.56, -170951.30, -171281.69, -170842.30, 0.00, 0.00, 0.00
2028.0, -170901.34, -170584.17, -170653.58, -170573.47, -170903.94, -170731.58, -170866.83, -170640.23, 0.00, 0.00, 0.00
2032.0, -170447.53, -170337.44, -170229.00, -170403.97, -170519.78, -170360.23, -170464.75, -170601.30, 0.00, 0.00, 0.00
2036.0, -170222.86, -170317.52, -170331.13, -170420.56, -170582.89, -170550.63, -170794.97, -170582.11, 0.00, 0.00, 0.00
2040.0, -170727.17, -170533.72, -170737.23, -170589.16, -170915.05, -170911.09, -171269.66, -170813.05, 0.00, 0.00, 0.00
2044.0, -171093.36, -170584.86, -170677.36, -170580.38, -170826.80, -170775.19, -170962.31, -170674.00, 0.00, 0.00, 0.00
2048.0, -170804.61, -170356.39, -170244.45, -170405.98, -170418.88, -170366.75, -170467.77, -170585.67, 0.00, 0.00, 0.00
2052.0, -170630.63, -170294.52, -170277.17, -170397.38, -170387.30, -170460.41, -170677.16, -170581.72, 0.00, 0.00, 0.00
2056.0, -170848.81, -170500.75, -170706.23, -170565.53, -170739.30, -170876.59, -171226.58, -170785.09, 0.00, 0.00, 0.00
2060.0, -170960.78, -170606.48, -170765.22, -170615.75, -170755.77, -170846.09, -171063.86, -170734.78, 0.00, 0.00, 0.00
2064.0, -170626.11, -170404.95, -170331.34, -170433.30, -170227.13, -170433.67, -170518.75, -170581.73, 0.00, 0.00, 0.00
2068.0, -170188.52, -170260.05, -170219.41, -170380.23, -169836.08, -170376.88, -170580.95, -170562.38, 0.00, 0.00, 0.00
2072.0, -170460.91, -170428.17, -170605.55, -170501.56, -170285.06, -170773.61, -171132.86, -170703.34, 0.00, 0.00, 0.00
2076.0, -170994.08, -170557.66, -170745.44, -170577.31, -170593.22, -170817.33, -171102.28, -170736.61, 0.00, 0.00, 0.00
2080.0, -170879.13, -170382.80, -170334.38, -170415.70, -170417.89, -170397.56, -170523.95, -170557.69, 0.00, 0.00, 0.00
2084.0, -170568.88, -170214.47, -170152.84, -170344.09, -170400.34, -170248.92, -170442.50, -170557.14, 0.00, 0.00, 0.00
2088.0, -170666.27, -170382.58, -170526.42, -170457.22, -171136.45, -170665.06, -170991.20, -170627.22, 0.00, 0.00, 0.00
2092.0, -170881.78, -170573.63, -170785.89, -170588.63, -171581.22, -170837.55, -171149.36, -170740.50, 0.00, 0.00, 0.00
2096.0, -170684.95, -170465.38, -170453.50, -170455.84, -171264.98, -170486.72, -170610.80, -170551.06, 0.00, 0.00, 0.00
2100.0, -170164.06, -170232.64, -170148.89, -170349.98, -170962.05, -170254.95, -170410.78, -170553.55, 0.00, 0.00, 0.00
2104.0, -170232.47, -170323.91, -170434.27, -170427.13, -171171.98, -170624.77, -170902.34, -170579.33, 0.00, 0.00, 0.00
2108.0, -170803.83, -170526.23, -170759.16, -170575.80, -171429.47, -170869.78, -171189.13, -170751.30, 0.00, 0.00, 0.00
2112.0, -170971.42, -170470.20, -170507.03, -170474.72, -171176.11, -170578.77, -170703.16, -170562.00, 0.00, 0.00, 0.00
2116.0, -170641.69, -170240.80, -170145.03, -170340.94, -170817.20, -170253.67, -170390.89, -170547.52, 0.00, 0.00, 0.00
2120.0, -170603.75, -170305.58, -170370.80, -170403.13, -170955.88, -170547.67, -170810.59, -170545.17, 0.00, 0.00, 0.00
2124.0, -170856.86, -170531.11, -170765.41, -170581.38, -171278.02, -170882.41, -171223.83, -170763.83, 0.00, 0.00, 0.00
2128.0, -170836.50, -170542.67, -170623.58, -170535.56, -171120.09, -170681.09, -170831.61, -170584.42, 0.00, 0.00, 0.00
2132.0, -170384.30, -170298.36, -170187.63, -170359.63, -170728.41, -170301.16, -170409.38, -170541.50, 0.00, 0.00, 0.00
2136.0, -170145.41, -170264.81, -170261.09, -170368.09, -170772.33, -170480.77, -170714.59, -170519.64, 0.00, 0.00, 0.00
2140.0, -170635.22, -170469.47, -170671.55, -170535.63, -171108.86, -170852.91, -171204.77, -170738.84, 0.00, 0.00, 0.00
2144.0, -171032.64, -170529.34, -170633.39, -170537.75, -171040.33, -170736.09, -170924.31, -170623.64, 0.00, 0.00, 0.00
2148.0, -170759.67, -170308.03, -170202.73, -170359.36, -170630.38, -170323.94, -170423.95, -170533.91, 0.00, 0.00, 0.00
2152.0, -170569.94, -170241.52, -170218.08, -170346.48, -170577.06, -170397.44, -170606.41, -170528.73, 0.00, 0.00, 0.00
2156.0, -170780.22, -170452.59, -170647.66, -170513.50, -170927.52, -170819.38, -171163.64, -170715.02, 0.00, 0.00, 0.00
2160.0, -170906.91, -170571.50, -170730.16, -170576.70, -170967.45, -170810.89, -171031.67, -170684.28, 0.00, 0.00, 0.00
2164.0, -170586.63, -170377.73, -170301.20, -170391.20, -170571.78, -170403.72, -170483.03, -170521.98, 0.00, 0.00, 0.00
2168.0, -170146.17, -170220.84, -170164.27, -170332.73, -170424.05, -170340.09, -170531.44, -170510.17, 0.00, 0.00, 0.00
2172.0, -170423.48, -170384.48, -170552.44, -170467.34, -170739.63, -170752.03, -171092.42, -170656.44, 0.00, 0.00, 0.00
2176.0, -170985.78, -170536.45, -170730.73, -170568.92, -170863.17, -170831.81, -171099.30, -170717.91, 0.00, 0.00, 0.00
2180.0, -170883.80, -170387.28, -170345.70, -170404.03, -170499.03, -170444.70, -170532.16, -170515.11, 0.00, 0.00, 0.00
2184.0, -170584.66, -170206.53, -170124.64, -170321.47, -170263.95, -170283.16, -170439.94, -170527.42, 0.00, 0.00, 0.00
2188.0, -170683.08, -170356.86, -170486.42, -170439.44, -170541.08, -170687.23, -170993.00, -170613.75, 0.00, 0.00, 0.00
2192.0, -170909.84, -170549.70, -170767.13, -170586.14, -170759.09, -170873.45, -171171.83, -170762.56, 0.00, 0.00, 0.00
2196.0, -170744.56, -170454.75, -170450.69, -170451.36, -170409.14, -170538.78, -170634.34, -170518.80, 0.00, 0.00, 0.00
2200.0, -170249.36, -170217.22, -170120.23, -170321.27, -169807.77, -170258.23, -170403.86, -170531.48, 0.00, 0.00, 0.00
2204.0, -170221.33, -170287.14, -170378.45, -170389.36, -170019.59, -170568.69, -170874.67, -170552.50, 0.00, 0.00, 0.00
2208.0, -170779.09, -170480.11, -170703.17, -170532.88, -170493.80, -170815.25, -171166.84, -170737.45, 0.00, 0.00, 0.00
2212.0, -170941.95, -170425.94, -170460.00, -170433.88, -170467.16, -170525.98, -170679.50, -170528.19, 0.00, 0.00, 0.00
2216.0, -170596.59, -170187.88, -170084.77, -170289.53, -170298.19, -170174.47, -170323.84, -170507.48, 0.00, 0.00, 0.00
2220.0, -170533.70, -170242.91, -170298.88, -170341.97, -170789.98, -170445.88, -170713.91, -170505.00, 0.00, 0.00, 0.00
2224.0, -170786.81, -170477.33, -170705.61, -170522.53, -171506.53, -170805.00, -171166.28, -170719.88, 0.00, 0.00, 0.00
2228.0, -170786.19, -170504.63, -170590.98, -170492.22, -171402.48, -170627.02, -170808.05, -170549.97, 0.00, 0.00, 0.00
2232.0, -170340.05, -170261.19, -170156.77, -170321.56, -171008.88, -170244.97, -170374.88, -170505.16, 0.00, 0.00, 0.00
2236.0, -170089.77, -170210.92, -170214.52, -170333.83, -171037.78, -170419.44, -170666.58, -170511.34, 0.00, 0.00, 0.00
2240.0, -170574.00, -170422.14, -170631.58, -170508.88, -171384.77, -170811.05, -171176.16, -170728.78, 0.00, 0.00, 0.00
2244.0, -170999.41, -170499.09, -170623.20, -170527.78, -171342.88, -170721.64, -170926.56, -170625.52, 0.00, 0.00, 0.00
2248.0, -170745.22, -170283.78, -170190.80, -170333.98, -170939.00, -170313.78, -170405.58, -170503.30, 0.00, 0.00, 0.00
2252.0, -170552.97, -170202.81, -170174.91, -170307.33, -170877.11, -170361.22, -170569.91, -170477.75, 0.00, 0.00, 0.00
2256.0, -170765.80, -170412.36, -170609.78, -170484.48, -171237.17, -170791.39, -171141.88, -170710.97, 0.00, 0.00, 0.00
2260.0, -170909.30, -170543.89, -170718.95, -170565.27, -171301.33, -170807.22, -171042.16, -170706.56, 0.00, 0.00, 0.00
2264.0, -170625.75, -170359.78, -170295.03, -170372.50, -170912.20, -170406.78, -170477.27, -170494.55, 0.00, 0.00, 0.00
2268.0, -170192.03, -170195.20, -170097.02, -170283.70, -170756.03, -170318.44, -170502.00, -170484.59, 0.00, 0.00, 0.00
2272.0, -170405.48, -170352.61, -170454.33, -170429.13, -171075.38, -170721.44, -171071.33, -170664.59, 0.00, 0.00, 0.00
2276.0, -170980.83, -170514.30, -170657.55, -170548.31, -171223.20, -170825.19, -171109.50, -170756.84, 0.00, 0.00, 0.00
2280.0, -170882.19, -170375.00, -170285.64, -170384.64, -170869.06, -170446.47, -170538.75, -170489.72, 0.00, 0.00, 0.00
2284.0, -170577.31, -170178.75, -170071.94, -170283.50, -170619.58, -170253.59, -170418.09, -170484.17, 0.00, 0.00, 0.00
2288.0, -170669.44, -170319.66, -170440.50, -170399.61, -170893.36, -170644.50, -170968.91, -170599.66, 0.00, 0.00, 0.00
2292.0, -170906.78, -170520.20, -170742.22, -170559.20, -171130.89, -170851.45, -171167.31, -170791.13, 0.00, 0.00, 0.00
2296.0, -170760.70, -170435.59, -170438.69, -170429.78, -170836.13, -170526.45, -170629.61, -170504.31, 0.00, 0.00, 0.00
2300.0, -170300.59, -170196.09, -170063.44, -170274.75, -170514.84, -170242.23, -170373.42, -170492.95, 0.00, 0.00, 0.00
2304.0, -170222.66, -170258.02, -170266.23, -170346.42, -170707.67, -170565.19, -170850.69, -170540.55, 0.00, 0.00, 0.00
2308.0, -170806.80, -170460.86, -170619.27, -170521.47, -170996.78, -170845.16, -171169.25, -170782.70, 0.00, 0.00, 0.00
2312.0, -170976.13, -170430.50, -170408.11, -170438.33, -170776.86, -170585.02, -170703.70, -170531.27, 0.00, 0.00, 0.00
2316.0, -170636.20, -170188.61, -170039.50, -170273.38, -170396.22, -170224.31, -170329.55, -170492.55, 0.00, 0.00, 0.00
2320.0, -170569.59, -170224.11, -170253.36, -170322.41, -170502.20, -170467.97, -170708.47, -170507.13, 0.00, 0.00, 0.00
2324.0, -170824.41, -170454.75, -170670.41, -170504.78, -170842.84, -170827.25, -171159.44, -170758.53, 0.00, 0.00, 0.00
2328.0, -170830.95, -170486.63, -170566.56, -170476.14, -170718.17, -170656.50, -170803.67, -170573.42, 0.00, 0.00, 0.00
2332.0, -170409.45, -170240.38, -170126.00, -170291.47, -170307.91, -170250.23, -170336.25, -170476.80, 0.00, 0.00, 0.00
2336.0, -170095.86, -170180.80, -170183.81, -170290.30, -170308.19, -170378.42, -170587.91, -170464.55, 0.00, 0.00, 0.00
2340.0, -170543.16, -170389.72, -170602.61, -170455.50, -170650.33, -170777.53, -171112.97, -170691.58, 0.00, 0.00, 0.00
2344.0, -170974.14, -170470.42, -170605.23, -170478.02, -170616.11, -170696.75, -170884.25, -170598.56, 0.00, 0.00, 0.00
2348.0, -170713.14, -170249.47, -170160.16, -170289.20, -170029.25, -170266.73, -170347.69, -170461.38, 0.00, 0.00, 0.00
2352.0, -170487.80, -170145.98, -170120.28, -170257.19, -169711.17, -170259.31, -170464.88, -170439.59, 0.00, 0.00, 0.00
2356.0, -170664.64, -170347.22, -170534.14, -170401.73, -170210.56, -170677.38, -171026.69, -170605.30, 0.00, 0.00, 0.00
2360.0, -170795.23, -170467.05, -170638.27, -170465.81, -170488.02, -170689.25, -170940.53, -170604.05, 0.00, 0.00, 0.00
2364.0, -170445.28, -170265.30, -170201.47, -170289.36, -170286.53, -170249.45, -170361.13, -170427.48, 0.00, 0.00, 0.00
2368.0, -169961.08, -170084.77, -170045.30, -170224.48, -170298.58, -170138.67, -170323.02, -170416.53, 0.00, 0.00, 0.00
2372.0, -170195.34, -170256.25, -170422.81, -170340.16, -171053.58, -170555.41, -170876.88, -170494.78, 0.00, 0.00, 0.00
2376.0, -170743.31, -170430.92, -170631.73, -170443.20, -171422.61, -170675.05, -170972.84, -170570.20, 0.00, 0.00, 0.00
2380.0, -170762.42, -170291.16, -170260.19, -170298.19, -171065.67, -170285.33, -170415.55, -170405.06, 0.00, 0.00, 0.00
2384.0, -170443.02, -170098.63, -170017.28, -170209.28, -170783.86, -170101.48, -170266.63, -170399.23, 0.00, 0.00, 0.00
2388.0, -170507.03, -170241.05, -170360.45, -170311.17, -171029.34, -170515.44, -170796.58, -170453.81, 0.00, 0.00, 0.00
2392.0, -170742.20, -170447.83, -170669.88, -170462.25, -171273.75, -170744.77, -171051.33, -170591.80, 0.00, 0.00, 0.00
2396.0, -170591.02, -170369.28, -170380.97, -170345.86, -170988.47, -170423.53, -170535.16, -170419.13, 0.00, 0.00, 0.00
2400.0, -170059.39, -170119.66, -170029.64, -170219.39, -170641.39, -170122.30, -170255.59, -170413.63, 0.00, 0.00, 0.00
2404.0, -170042.50, -170175.83, -170269.02, -170285.78, -170803.28, -170444.55, -170700.02, -170442.03, 0.00, 0.00, 0.00
2408.0, -170587.08, -170389.08, -170631.06, -170445.95, -171095.25, -170739.61, -171063.84, -170595.92, 0.00, 0.00, 0.00
2412.0, -170851.08, -170367.72, -170436.67, -170371.55, -170890.61, -170490.97, -170623.42, -170428.52, 0.00, 0.00, 0.00
2416.0, -170533.92, -170126.20, -170033.41, -170214.47, -170502.05, -170125.48, -170242.56, -170401.36, 0.00, 0.00, 0.00
2420.0, -170446.86, -170150.66, -170194.05, -170250.73, -170585.28, -170370.44, -170597.47, -170405.83, 0.00, 0.00, 0.00
2424.0, -170696.22, -170379.27, -170610.45, -170429.86, -170927.67, -170746.94, -171070.28, -170599.13, 0.00, 0.00, 0.00
2428.0, -170719.28, -170421.94, -170531.64, -170412.17, -170823.05, -170596.59, -170743.25, -170468.88, 0.00, 0.00, 0.00
2432.0, -170269.91, -170176.59, -170086.36, -170232.58, -170411.06, -170186.33, -170269.25, -170404.34, 0.00, 0.00, 0.00
2436.0, -169978.89, -170102.53, -170113.63, -170224.22, -170391.81, -170299.20, -170496.03, -170402.03, 0.00, 0.00, 0.00
2440.0, -170423.00, -170317.73, -170528.53, -170384.59, -170731.48, -170697.92, -171033.47, -170568.22, 0.00, 0.00, 0.00
2444.0, -170886.92, -170411.13, -170556.80, -170418.05, -170721.20, -170638.73, -170841.47, -170505.97, 0.00, 0.00, 0.00
2448.0, -170659.20, -170199.50, -170120.28, -170240.98, -170311.64, -170217.80, -170304.27, -170398.89, 0.00, 0.00, 0.00
2452.0, -170428.61, -170092.56, -170058.08, -170206.58, -170197.94, -170220.02, -170402.14, -170394.70, 0.00, 0.00, 0.00
2456.0, -170610.30, -170299.28, -170476.08, -170360.16, -170536.05, -170653.16, -170974.34, -170537.81, 0.00, 0.00, 0.00
2460.0, -170771.55, -170444.16, -170621.28, -170449.41, -170630.84, -170702.66, -170934.77, -170557.80, 0.00, 0.00, 0.00
2464.0, -170479.47, -170269.13, -170210.41, -170268.03, -170160.98, -170296.64, -170367.72, -170375.23, 0.00, 0.00, 0.00
2468.0, -169994.06, -170071.44, -170010.31, -170189.27, -169661.41, -170149.86, -170319.22, -170380.09, 0.00, 0.00, 0.00
2472.0, -170182.17, -170210.30, -170359.63, -170294.05, -170029.80, -170536.98, -170859.34, -170455.31, 0.00, 0.00, 0.00
2476.0, -170735.78, -170368.83, -170576.06, -170397.80, -170404.69, -170659.27, -170953.33, -170544.63, 0.00, 0.00, 0.00
2480.0, -170735.41, -170230.23, -170210.45, -170247.36, -170268.00, -170269.42, -170389.80, -170357.03, 0.00, 0.00, 0.00
2484.0, -170395.25, -170023.88, -169950.56, -170147.69, -170171.69, -170034.50, -170202.14, -170355.92, 0.00, 0.00, 0.00
2488.0, -170430.30, -170161.64, -170272.67, -170243.44, -170816.58, -170410.28, -170703.27, -170396.42, 0.00, 0.00, 0.00
2492.0, -170663.30, -170378.88, -170590.94, -170392.61, -171386.73, -170652.88, -170984.69, -170527.06, 0.00, 0.00, 0.00
2496.0, -170525.16, -170311.41, -170320.44, -170283.23, -171130.20, -170344.56, -170488.28, -170359.27, 0.00, 0.00, 0.00
2500.0, -169988.72, -170060.31, -169962.30, -170152.11, -170771.81, -170037.14, -170191.09, -170348.98, 0.00, 0.00, 0.00
2504.0, -169962.30, -170105.20, -170189.11, -170210.83, -170910.86, -170351.36, -170611.47, -170364.14, 0.00, 0.00, 0.00
2508.0, -170484.53, -170318.98, -170555.11, -170367.30, -171205.75, -170660.97, -170998.34, -170516.45, 0.00, 0.00, 0.00
2512.0, -170789.58, -170307.91, -170382.52, -170303.44, -171020.50, -170430.77, -170582.67, -170372.33, 0.00, 0.00, 0.00
2516.0, -170487.28, -170065.23, -169975.33, -170154.59, -170624.89, -170057.31, -170182.98, -170339.70, 0.00, 0.00, 0.00
2520.0, -170379.83, -170079.27, -170120.58, -170184.67, -170683.19, -170281.70, -170507.91, -170340.83, 0.00, 0.00, 0.00
2524.0, -170619.38, -170313.73, -170537.03, -170358.03, -171023.19, -170665.64, -170996.92, -170514.50, 0.00, 0.00, 0.00
2528.0, -170657.47, -170367.38, -170481.47, -170351.28, -170939.92, -170535.67, -170700.58, -170417.05, 0.00, 0.00, 0.00
2532.0, -170231.59, -170129.00, -170041.47, -170177.73, -170532.42, -170127.95, -170222.31, -170361.73, 0.00, 0.00, 0.00
2536.0, -169909.55, -170040.98, -170047.47, -170169.80, -170494.11, -170220.36, -170426.95, -170343.48, 0.00, 0.00, 0.00
2540.0, -170320.75, -170252.47, -170460.97, -170327.02, -170832.05, -170631.67, -170968.13, -170503.80, 0.00, 0.00, 0.00
2544.0, -170813.03, -170357.48, -170517.11, -170370.72, -170846.52, -170598.95, -170808.16, -170460.70, 0.00, 0.00, 0.00
2548.0, -170622.58, -170157.30, -170088.67, -170195.72, -170447.05, -170188.09, -170273.92, -170346.06, 0.00, 0.00, 0.00
2552.0, -170382.98, -170039.92, -169998.98, -170160.56, -170318.59, -170167.53, -170351.53, -170344.47, 0.00, 0.00, 0.00
2556.0, -170554.56, -170233.97, -170413.14, -170311.44, -170651.30, -170595.03, -170924.05, -170487.17, 0.00, 0.00, 0.00
2560.0, -170728.55, -170385.75, -170582.19, -170409.22, -170768.50, -170665.55, -170913.61, -170530.66, 0.00, 0.00, 0.00
2564.0, -170471.77, -170227.89, -170186.91, -170233.23, -170401.25, -170278.98, -170352.63, -170340.27, 0.00, 0.00, 0.00
2568.0, -169996.45, -170036.53, -169924.64, -170142.30, -170186.72, -170132.95, -170293.84, -170357.14, 0.00, 0.00, 0.00
2572.0, -170166.89, -170169.17, -170236.22, -170260.86, -170469.53, -170521.00, -170842.92, -170449.81, 0.00, 0.00, 0.00
2576.0, -170763.28, -170344.63, -170490.66, -170397.67, -170664.59, -170678.09, -170970.88, -170574.92, 0.00, 0.00, 0.00
2580.0, -170758.14, -170237.05, -170165.08, -170254.50, -170336.84, -170333.34, -170427.52, -170334.02, 0.00, 0.00, 0.00
2584.0, -170432.77, -170022.11, -169901.97, -170131.06, -169806.23, -170077.56, -170228.02, -170351.22, 0.00, 0.00, 0.00
2588.0, -170460.77, -170120.81, -170218.59, -170213.05, -169903.06, -170415.86, -170721.36, -170389.00, 0.00, 0.00, 0.00
2592.0, -170688.91, -170312.91, -170542.55, -170365.64, -170367.09, -170657.84, -170991.95, -170575.08, 0.00, 0.00, 0.00
2596.0, -170567.63, -170248.78, -170284.53, -170255.00, -170327.78, -170360.52, -170492.81, -170352.70, 0.00, 0.00, 0.00
2600.0, -170045.41, -170004.28, -169911.52, -170111.83, -170166.80, -170014.42, -170156.05, -170333.39, 0.00, 0.00, 0.00
2604.0, -169942.19, -170048.31, -170121.33, -170164.98, -170682.36, -170280.80, -170549.48, -170319.81, 0.00, 0.00, 0.00
2608.0, -170471.58, -170272.98, -170499.55, -170324.53, -171346.88, -170607.19, -170959.72, -170522.09, 0.00, 0.00, 0.00
2612.0, -170782.13, -170279.39, -170354.44, -170275.27, -171206.48, -170401.20, -170571.70, -170349.97, 0.00, 0.00, 0.00
2616.0, -170478.05, -170040.05, -169940.69, -170119.81, -170810.23, -170024.44, -170160.27, -170309.92, 0.00, 0.00, 0.00
2620.0, -170359.31, -170033.45, -170062.70, -170142.64, -170852.48, -170233.55, -170467.34, -170290.81, 0.00, 0.00, 0.00
2624.0, -170598.14, -170256.86, -170486.61, -170321.83, -171199.17, -170632.36, -170967.53, -170509.83, 0.00, 0.00, 0.00
2628.0, -170655.86, -170324.31, -170458.47, -170329.73, -171140.78, -170525.78, -170697.81, -170396.19, 0.00, 0.00, 0.00
2632.0, -170265.66, -170098.58, -170017.06, -170146.48, -170735.63, -170117.64, -170202.31, -170302.16, 0.00, 0.00, 0.00
2636.0, -169907.11, -170007.41, -169990.83, -170123.48, -170680.64, -170179.42, -170382.52, -170292.95, 0.00, 0.00, 0.00
2640.0, -170296.61, -170206.58, -170401.83, -170281.80, -171019.31, -170582.39, -170927.86, -170475.83, 0.00, 0.00, 0.00
2644.0, -170794.61, -170317.56, -170478.14, -170334.77, -171051.44, -170565.19, -170789.92, -170445.92, 0.00, 0.00, 0.00
2648.0, -170604.91, -170124.13, -170054.06, -170155.64, -170656.59, -170156.31, -170242.75, -170298.52, 0.00, 0.00, 0.00
2652.0, -170354.34, -169992.66, -169936.55, -170100.22, -170508.75, -170106.14, -170291.14, -170289.59, 0.00, 0.00, 0.00
2656.0, -170513.08, -170178.39, -170340.78, -170244.61, -170832.95, -170533.92, -170862.09, -170436.34, 0.00, 0.00, 0.00
2660.0, -170698.08, -170336.97, -170530.89, -170355.02, -170967.13, -170625.45, -170881.50, -170503.08, 0.00, 0.00, 0.00
2664.0, -170459.27, -170188.05, -170147.94, -170188.45, -170608.42, -170246.23, -170321.72, -170278.06, 0.00, 0.00, 0.00
2668.0, -169980.52, -169990.00, -169867.91, -170095.11, -170376.81, -170073.80, -170233.77, -170286.05, 0.00, 0.00, 0.00
2672.0, -170113.05, -170116.69, -170166.59, -170205.78, -170647.66, -170459.53, -170777.41, -170380.25, 0.00, 0.00, 0.00
2676.0, -170711.63, -170299.86, -170437.13, -170345.56, -170856.66, -170636.81, -170934.38, -170532.03, 0.00, 0.00, 0.00
2680.0, -170719.69, -170202.98, -170126.59, -170210.56, -170552.77, -170301.72, -170398.94, -170288.70, 0.00, 0.00, 0.00
2684.0, -170389.58, -169982.47, -169850.05, -170084.61, -170241.55, -170032.98, -170176.23, -170301.75, 0.00, 0.00, 0.00
2688.0, -170410.14, -170082.86, -170162.17, -170161.64, -170445.92, -170374.92, -170665.22, -170338.97, 0.00, 0.00, 0.00
2692.0, -170659.50, -170297.23, -170516.88, -170332.30, -170729.81, -170648.36, -170980.00, -170551.53, 0.00, 0.00, 0.00
2696.0, -170577.98, -170261.05, -170294.97, -170242.77, -170503.58, -170383.77, -170509.67, -170316.06, 0.00, 0.00, 0.00
2700.0, -170109.55, -170015.20, -169901.45, -170093.17, -170141.86, -170043.50, -170161.75, -170295.09, 0.00, 0.00, 0.00
2704.0, -169950.45, -170034.45, -170070.44, -170139.11, -170258.91, -170292.66, -170555.47, -170292.14, 0.00, 0.00, 0.00
2708.0, -170490.19, -170247.33, -170458.83, -170309.45, -170576.38, -170624.45, -170972.11, -170535.02, 0.00, 0.00, 0.00
2712.0, -170788.69, -170264.98, -170337.61, -170268.25, -170433.08, -170438.91, -170595.97, -170348.34, 0.00, 0.00, 0.00
2716.0, -170477.78, -170025.36, -169916.70, -170094.00, -169887.27, -170044.88, -170155.28, -170285.86, 0.00, 0.00, 0.00
2720.0, -170338.64, -169995.89, -170005.42, -170108.75, -169671.27, -170182.56, -170431.75, -170272.25, 0.00, 0.00, 0.00
2724.0, -170559.52, -170208.06, -170418.77, -170272.28, -170172.20, -170569.75, -170933.28, -170487.05, 0.00, 0.00, 0.00
2728.0, -170614.75, -170270.16, -170396.48, -170275.00, -170338.80, -170466.56, -170673.06, -170382.67, 0.00, 0.00, 0.00
2732.0, -170200.34, -170036.38, -169949.92, -170087.31, -170131.45, -170034.91, -170148.09, -170268.13, 0.00, 0.00, 0.00
2736.0, -169821.38, -169929.22, -169927.91, -170065.13, -170328.48, -170065.67, -170282.22, -170242.39, 0.00, 0.00, 0.00
2740.0, -170181.75, -170134.28, -170336.56, -170208.14, -171130.73, -170478.67, -170838.59, -170398.92, 0.00, 0.00, 0.00
2744.0, -170698.09, -170257.80, -170432.77, -170268.00, -171275.95, -170481.94, -170742.52, -170385.83, 0.00, 0.00, 0.00
2748.0, -170552.20, -170071.98, -170015.34, -170099.83, -170882.33, -170070.89, -170193.50, -170238.91, 0.00, 0.00, 0.00
2752.0, -170285.02, -169930.41, -169883.41, -170050.75, -170710.02, -170012.84, -170209.06, -170253.77, 0.00, 0.00, 0.00
2756.0, -170430.34, -170114.92, -170278.89, -170188.50, -171023.78, -170448.11, -170785.83, -170371.06, 0.00, 0.00, 0.00
2760.0, -170623.80, -170284.50, -170487.95, -170305.63, -171175.33, -170561.78, -170854.14, -170443.63, 0.00, 0.00, 0.00
2764.0, -170393.89, -170146.30, -170117.38, -170147.42, -170825.80, -170186.56, -170294.06, -170239.33, 0.00, 0.00, 0.00
2768.0, -169899.84, -169936.44, -169858.41, -170052.45, -170573.89, -170001.33, -170171.33, -170248.47, 0.00, 0.00, 0.00
2772.0, -170013.52, -170054.84, -170183.31, -170151.00, -170827.50, -170389.47, -170700.77, -170312.84, 0.00, 0.00, 0.00
2776.0, -170604.41, -170243.20, -170469.63, -170292.69, -171048.53, -170584.81, -170896.38, -170466.36, 0.00, 0.00, 0.00
2780.0, -170668.97, -170157.19, -170169.91, -170164.06, -170755.31, -170259.89, -170371.05, -170234.44, 0.00, 0.00, 0.00
2784.0, -170339.55, -169934.47, -169838.36, -170039.42, -170433.23, -169978.80, -170124.98, -170246.45, 0.00, 0.00, 0.00
2788.0, -170348.34, -170024.70, -170104.72, -170123.50, -170624.50, -170314.52, -170599.89, -170276.75, 0.00, 0.00, 0.00
2792.0, -170598.88, -170239.02, -170470.52, -170296.97, -170920.52, -170604.48, -170934.13, -170491.66, 0.00, 0.00, 0.00
2796.0, -170531.63, -170214.16, -170267.33, -170216.44, -170710.08, -170354.95, -170480.33, -170273.33, 0.00, 0.00, 0.00
2800.0, -170064.31, -169971.47, -169864.67, -170049.97, -170340.58, -170003.66, -170119.48, -170251.42, 0.00, 0.00, 0.00
2804.0, -169890.11, -169980.78, -170014.81, -170085.45, -170439.67, -170233.20, -170494.66, -170241.16, 0.00, 0.00, 0.00
2808.0, -170422.95, -170190.83, -170411.84, -170257.70, -170764.77, -170576.30, -170924.44, -170476.66, 0.00, 0.00, 0.00
2812.0, -170744.70, -170219.75, -170311.39, -170228.52, -170641.69, -170407.44, -170568.69, -170311.88, 0.00, 0.00, 0.00
2816.0, -170440.94, -169985.53, -169882.94, -170054.95, -170240.14, -170011.08, -170110.78, -170240.63, 0.00, 0.00, 0.00
2820.0, -170296.06, -169951.55, -169959.75, -170067.16, -170246.73, -170149.83, -170371.67, -170214.20, 0.00, 0.00, 0.00
2824.0, -170527.16, -170169.19, -170393.31, -170243.08, -170600.38, -170552.16, -170897.39, -170452.20, 0.00, 0.00, 0.00
2828.0, -170614.45, -170257.61, -170411.19, -170272.97, -170582.30, -170485.22, -170678.72, -170366.11, 0.00, 0.00, 0.00
2832.0, -170273.28, -170045.52, -169967.94, -170081.14, -170182.17, -170078.70, -170155.44, -170227.53, 0.00, 0.00, 0.00
2836.0, -169873.30, -169931.45, -169847.02, -170035.09, -170094.17, -170082.98, -170286.84, -170219.22, 0.00, 0.00, 0.00
2840.0, -170202.06, -170114.45, -170227.91, -170188.67, -170427.22, -170492.02, -170845.02, -170409.94, 0.00, 0.00, 0.00
2844.0, -170727.48, -170242.55, -170347.98, -170264.66, -170499.70, -170516.89, -170766.78, -170417.31, 0.00, 0.00, 0.00
2848.0, -170557.59, -170065.56, -169944.64, -170084.61, -170057.61, -170114.30, -170203.30, -170223.81, 0.00, 0.00, 0.00
2852.0, -170281.03, -169903.05, -169820.75, -170014.16, -169575.39, -169994.73, -170189.11, -170204.39, 0.00, 0.00, 0.00
2856.0, -170404.34, -170064.22, -170212.42, -170136.27, -169944.89, -170396.33, -170746.56, -170332.45, 0.00, 0.00, 0.00
2860.0, -170595.86, -170227.58, -170430.09, -170251.48, -170574.72, -170517.47, -170820.39, -170435.27, 0.00, 0.00, 0.00
2864.0, -170379.30, -170099.56, -170072.00, -170100.92, -170513.55, -170149.55, -170263.52, -170212.16, 0.00, 0.00, 0.00
2868.0, -169879.00, -169889.33, -169810.89, -170004.84, -170251.23, -169948.06, -170116.27, -170215.33, 0.00, 0.00, 0.00
2872.0, -169963.13, -170008.22, -170133.92, -170098.33, -170490.25, -170325.89, -170636.47, -170272.63, 0.00, 0.00, 0.00
2876.0, -170553.44, -170206.78, -170436.20, -170246.17, -170726.47, -170538.03, -170855.14, -170449.02, 0.00, 0.00, 0.00
2880.0, -170643.25, -170132.78, -170153.19, -170130.72, -170448.56, -170225.41, -170340.27, -170206.20, 0.00, 0.00, 0.00
2884.0, -170313.27, -169904.13, -169803.89, -170004.70, -170117.02, -169930.03, -170069.67, -170209.33, 0.00, 0.00, 0.00
2888.0, -170307.88, -169986.31, -170048.98, -170074.80, -170293.36, -170249.25, -170527.28, -170232.75, 0.00, 0.00, 0.00
2892.0, -170560.95, -170209.25, -170425.52, -170252.94, -170600.13, -170554.58, -170893.03, -170465.78, 0.00, 0.00, 0.00
2896.0, -170514.28, -170198.56, -170246.08, -170185.55, -170409.16, -170324.80, -170460.23, -170249.13, 0.00, 0.00, 0.00
2900.0, -170069.09, -169950.88, -169832.28, -170015.23, -170032.67, -169962.48, -170072.19, -170212.02, 0.00, 0.00, 0.00
2904.0, -169851.84, -169936.94, -169956.88, -170035.89, -170114.67, -170169.45, -170424.05, -170197.53, 0.00, 0.00, 0.00
2908.0, -170363.25, -170144.64, -170358.17, -170209.63, -170443.98, -170526.64, -170876.84, -170443.53, 0.00, 0.00, 0.00
2912.0, -170710.33, -170185.70, -170280.55, -170191.52, -170337.70, -170375.70, -170548.00, -170285.94, 0.00, 0.00, 0.00
2916.0, -170414.95, -169952.16, -169849.88, -170016.23, -169764.72, -169969.30, -170077.77, -170199.86, 0.00, 0.00, 0.00
2920.0, -170246.48, -169896.55, -169889.09, -170015.05, -169529.69, -170062.48, -170303.20, -170184.61, 0.00, 0.00, 0.00
2924.0, -170456.63, -170104.53, -170302.56, -170174.27, -170041.56, -170459.53, -170827.84, -170389.64, 0.00, 0.00, 0.00
2928.0, -170542.91, -170188.91, -170326.81, -170200.80, -170250.13, -170397.25, -170625.77, -170317.06, 0.00, 0.00, 0.00
2932.0, -170155.95, -169966.22, -169883.33, -170014.34, -170048.05, -169963.75, -170072.78, -170174.78, 0.00, 0.00, 0.00
2936.0, -169737.36, -169829.31, -169813.33, -169976.19, -170180.13, -169945.72, -170147.59, -170171.52, 0.00, 0.00, 0.00
2940.0, -170056.73, -170027.75, -170212.53, -170109.31, -170977.92, -170364.44, -170704.94, -170299.97, 0.00, 0.00, 0.00
2944.0, -170594.94, -170170.89, -170349.66, -170188.19, -171192.42, -170408.70, -170668.44, -170323.80, 0.00, 0.00, 0.00
2948.0, -170488.63, -170002.22, -169947.06, -170026.14, -170810.23, -170004.95, -170118.39, -170171.61, 0.00, 0.00, 0.00
2952.0, -170203.08, -169846.09, -169777.98, -169967.48, -170601.94, -169905.02, -170082.63, -170161.55, 0.00, 0.00, 0.00
2956.0, -170325.11, -170019.70, -170161.23, -170096.92, -170897.61, -170339.11, -170645.38, -170258.81, 0.00, 0.00, 0.00
2960.0, -170537.30, -170202.92, -170409.83, -170229.11, -171085.50, -170493.77, -170768.33, -170375.41, 0.00, 0.00, 0.00
2964.0, -170338.03, -170086.47, -170066.23, -170081.39, -170756.95, -170138.14, -170221.22, -170164.47, 0.00, 0.00, 0.00
2968.0, -169837.69, -169861.41, -169772.42, -169973.36, -170474.61, -169913.33, -170047.39, -170170.44, 0.00, 0.00, 0.00
2972.0, -169898.00, -169957.81, -170068.88, -170061.77, -170701.00, -170276.77, -170555.16, -170210.70, 0.00, 0.00, 0.00
2976.0, -170486.97, -170152.48, -170383.97, -170213.09, -170949.28, -170503.39, -170805.95, -170390.72, 0.00, 0.00, 0.00
2980.0, -170603.63, -170089.42, -170121.09, -170102.77, -170686.70, -170205.64, -170306.66, -170165.28, 0.00, 0.00, 0.00
2984.0, -170271.69, -169859.53, -169765.30, -169957.56, -170341.72, -169894.84, -170013.22, -170165.97, 0.00, 0.00, 0.00
2988.0, -170250.39, -169928.23, -169999.89, -170019.64, -170500.42, -170195.52, -170453.44, -170181.23, 0.00, 0.00, 0.00
2992.0, -170506.30, -170150.56, -170387.95, -170201.75, -170816.98, -170512.28, -170850.05, -170409.97, 0.00, 0.00, 0.00
2996.0, -170473.38, -170152.00, -170228.69, -170145.98, -170644.25, -170297.53, -170439.53, -170214.31, 0.00, 0.00, 0.00
3000.0, -170026.92, -169905.14, -169800.25, -169975.80, -170259.80, -169925.69, -170029.64, -170174.94, 0.00, 0.00, 0.00
3004.0, -169792.34, -169881.56, -169894.17, -169989.19, -170321.73, -170120.44, -170356.52, -170154.73, 0.00, 0.00, 0.00
3008.0, -170285.89, -170088.19, -170299.34, -170161.19, -170654.38, -170483.98, -170832.48, -170387.77, 0.00, 0.00, 0.00
3012.0, -170665.59, -170141.72, -170245.88, -170155.05, -170571.94, -170354.19, -170531.27, -170248.97, 0.00, 0.00, 0.00
3016.0, -170386.42, -169915.42, -169814.42, -169977.98, -170166.73, -169948.05, -170039.38, -170152.78, 0.00, 0.00, 0.00
3020.0, -170213.31, -169856.02, -169839.81, -169968.16, -170134.97, -170036.47, -170246.13, -170144.09, 0.00, 0.00, 0.00
3024.0, -170432.61, -170068.77, -170269.80, -170141.05, -170489.91, -170455.47, -170797.61, -170359.97, 0.00, 0.00, 0.00
3028.0, -170547.67, -170177.95, -170333.50, -170193.86, -170512.64, -170429.50, -170641.50, -170312.00, 0.00, 0.00, 0.00
3032.0, -170233.81, -169977.83, -169901.50, -170002.84, -170115.92, -170022.05, -170094.67, -170135.48, 0.00, 0.00, 0.00
3036.0, -169805.84, -169835.66, -169774.66, -169946.61, -169987.58, -169977.09, -170168.03, -170117.05, 0.00, 0.00, 0.00
3040.0, -170074.80, -170006.83, -170161.50, -170088.31, -170308.59, -170384.08, -170731.05, -170294.89, 0.00, 0.00, 0.00
3044.0, -170628.20, -170151.80, -170324.58, -170184.14, -170418.75, -170449.34, -170715.05, -170344.92, 0.00, 0.00, 0.00
3048.0, -170500.23, -169994.52, -169933.56, -170017.36, -170009.28, -170061.00, -170149.31, -170124.06, 0.00, 0.00, 0.00
3052.0, -170208.23, -169817.50, -169733.23, -169936.16, -169500.67, -169897.30, -170079.92, -170126.25, 0.00, 0.00, 0.00
3056.0, -170307.81, -169968.52, -170091.98, -170049.08, -169797.41, -170285.55, -170626.64, -170228.13, 0.00, 0.00, 0.00
3060.0, -170514.88, -170144.88, -170345.34, -170178.06, -170392.69, -170443.80, -170760.08, -170362.75, 0.00, 0.00, 0.00
3064.0, -170331.02, -170036.17, -170013.44, -170035.59, -170464.92, -170093.81, -170216.70, -170130.94, 0.00, 0.00, 0.00
3068.0, -169829.84, -169810.58, -169712.78, -169921.17, -170194.88, -169851.03, -170016.34, -170147.64, 0.00, 0.00, 0.00
3072.0, -169846.45, -169903.45, -170005.23, -170001.06, -170402.86, -170210.98, -170508.88, -170181.28, 0.00, 0.00, 0.00
3076.0, -170434.08, -170109.20, -170335.98, -170155.98, -170664.86, -170461.39, -170787.73, -170365.44, 0.00, 0.00, 0.00
3080.0, -170579.02, -170059.86, -170092.77, -170059.08, -170419.84, -170179.63, -170302.98, -170132.58, 0.00, 0.00, 0.00
3084.0, -170246.75, -169826.89, -169723.66, -169923.13, -170064.16, -169852.55, -169984.14, -170122.08, 0.00, 0.00, 0.00
3088.0, -170208.89, -169883.41, -169939.66, -169984.63, -170203.88, -170137.16, -170404.38, -170129.27, 0.00, 0.00, 0.00
3092.0, -170463.78, -170106.58, -170336.89, -170165.03, -170528.81, -170471.14, -170816.98, -170373.70, 0.00, 0.00, 0.00
3096.0, -170448.11, -170119.48, -170200.64, -170119.23, -170375.83, -170274.42, -170426.66, -170181.58, 0.00, 0.00, 0.00
3100.0, -170019.56, -169876.27, -169758.92, -169934.08, -169986.75, -169893.03, -169999.58, -170123.45, 0.00, 0.00, 0.00
3104.0, -169756.22, -169841.53, -169787.11, -169939.77, -170030.16, -170058.70, -170305.25, -170100.77, 0.00, 0.00, 0.00
3108.0, -170238.25, -170046.95, -170183.98, -170113.36, -170368.67, -170436.16, -170793.20, -170345.98, 0.00, 0.00, 0.00
3112.0, -170632.73, -170110.72, -170154.13, -170118.52, -170306.58, -170326.75, -170516.94, -170220.38, 0.00, 0.00, 0.00
3116.0, -170357.95, -169888.47, -169732.80, -169936.42, -169771.34, -169914.47, -170009.63, -170103.94, 0.00, 0.00, 0.00
3120.0, -170160.86, -169811.25, -169767.02, -169918.77, -169456.92, -169954.61, -170178.05, -170105.28, 0.00, 0.00, 0.00
3124.0, -170354.70, -170011.28, -170190.95, -170071.38, -169981.45, -170361.56, -170724.83, -170285.39, 0.00, 0.00, 0.00
3128.0, -170473.73, -170121.22, -170267.83, -170123.41, -170512.27, -170346.94, -170592.58, -170251.72, 0.00, 0.00, 0.00
3132.0, -170148.20, -169926.38, -169843.28, -169942.28, -170307.41, -169934.36, -170041.77, -170090.36, 0.00, 0.00, 0.00
3136.0, -169698.44, -169772.36, -169720.64, -169894.75, -170149.83, -169881.64, -170077.13, -170094.58, 0.00, 0.00, 0.00
3140.0, -169973.05, -169945.00, -170107.55, -170026.45, -170458.27, -170300.75, -170639.58, -170219.84, 0.00, 0.00, 0.00
3144.0, -170538.19, -170099.83, -170289.67, -170125.30, -170584.13, -170384.91, -170662.17, -170280.55, 0.00, 0.00, 0.00
3148.0, -170449.75, -169951.69, -169908.52, -169967.02, -170222.03, -169999.67, -170096.61, -170092.81, 0.00, 0.00, 0.00
3152.0, -170148.33, -169768.78, -169692.30, -169887.05, -169982.69, -169836.70, -169998.36, -170100.95, 0.00, 0.00, 0.00
3156.0, -170242.14, -169921.08, -170050.09, -170000.80, -170256.00, -170243.78, -170546.31, -170177.92, 0.00, 0.00, 0.00
3160.0, -170470.02, -170116.11, -170333.63, -170147.55, -170476.80, -170434.38, -170728.98, -170324.41, 0.00, 0.00, 0.00
3164.0, -170305.78, -170023.92, -170022.66, -170015.44, -170176.31, -170103.45, -170195.19, -170085.02, 0.00, 0.00, 0.00
3168.0, -169800.36, -169786.70, -169691.22, -169886.34, -169863.58, -169832.39, -169962.69, -170095.52, 0.00, 0.00, 0.00
3172.0, -169802.58, -169861.16, -169954.05, -169955.22, -170056.80, -170160.05, -170440.05, -170121.88, 0.00, 0.00, 0.00
3176.0, -170392.58, -170067.59, -170296.34, -170112.22, -170329.77, -170421.89, -170751.50, -170324.63, 0.00, 0.00, 0.00
3180.0, -170552.91, -170029.00, -170073.05, -170023.03, -170080.66, -170155.22, -170285.59, -170099.47, 0.00, 0.00, 0.00
3184.0, -170218.16, -169790.23, -169685.70, -169876.45, -169449.94, -169803.73, -169943.45, -170091.22, 0.00, 0.00, 0.00
3188.0, -170150.80, -169820.44, -169862.45, -169916.23, -169494.30, -170041.77, -170324.27, -170092.13, 0.00, 0.00, 0.00
3192.0, -170385.58, -170028.16, -170248.58, -170081.56, -170020.30, -170378.78, -170742.64, -170299.30, 0.00, 0.00, 0.00
3196.0, -170366.11, -170035.89, -170116.81, -170035.23, -170090.28, -170181.02, -170361.17, -170120.00, 0.00, 0.00, 0.00
3200.0, -169883.00, -169783.55, -169686.50, -169865.67, -169881.33, -169769.00, -169903.81, -170058.25, 0.00, 0.00, 0.00
3204.0, -169619.38, -169742.63, -169773.70, -169880.05, -170199.30, -169914.80, -170153.83, -170054.69, 0.00, 0.00, 0.00
3208.0, -170058.03, -169963.91, -170179.88, -170029.56, -170972.73, -170307.39, -170663.19, -170216.83, 0.00, 0.00, 0.00
3212.0, -170502.94, -170039.22, -170167.92, -170036.91, -170989.36, -170213.72, -170425.72, -170129.67, 0.00, 0.00, 0.00
3216.0, -170278.06, -169823.00, -169734.63, -169867.22, -170579.20, -169801.13, -169922.05, -170046.80, 0.00, 0.00, 0.00
3220.0, -170068.52, -169743.83, -169722.78, -169859.44, -170497.73, -169865.08, -170068.63, -170036.78, 0.00, 0.00, 0.00
3224.0, -170264.05, -169951.13, -170149.09, -170018.63, -170839.20, -170297.80, -170636.20, -170190.42, 0.00, 0.00, 0.00
3228.0, -170404.16, -170078.44, -170256.81, -170090.56, -170900.77, -170312.84, -170547.97, -170184.98, 0.00, 0.00, 0.00
3232.0, -170088.86, -169892.34, -169835.52, -169915.56, -170510.13, -169905.94, -169994.27, -170041.52, 0.00, 0.00, 0.00
3236.0, -169632.69, -169725.48, -169673.00, -169855.48, -170335.70, -169828.03, -170002.47, -170025.98, 0.00, 0.00, 0.00
3240.0, -169888.47, -169890.27, -170048.06, -169979.17, -170635.77, -170242.28, -170560.70, -170136.53, 0.00, 0.00, 0.00
3244.0, -170460.56, -170053.14, -170249.03, -170087.67, -170780.44, -170347.25, -170614.22, -170215.97, 0.00, 0.00, 0.00
3248.0, -170406.23, -169916.41, -169883.00, -169931.80, -170431.28, -169973.86, -170061.86, -170028.34, 0.00, 0.00, 0.00
3252.0, -170099.16, -169722.67, -169648.77, -169835.48, -170175.83, -169787.47, -169942.03, -170037.36, 0.00, 0.00, 0.00
3256.0, -170179.19, -169861.70, -169994.44, -169936.27, -170436.00, -170177.39, -170480.03, -170101.95, 0.00, 0.00, 0.00
3260.0, -170411.08, -170059.08, -170292.66, -170085.19, -170670.36, -170381.00, -170690.19, -170262.11, 0.00, 0.00, 0.00
3264.0, -170263.42, -169976.94, -169997.66, -169961.92, -170382.58, -170061.98, -170171.84, -170025.06, 0.00, 0.00, 0.00
3268.0, -169765.78, -169738.38, -169638.53, -169836.13, -170060.50, -169779.78, -169923.59, -170032.16, 0.00, 0.00, 0.00
3272.0, -169727.78, -169803.25, -169869.66, -169902.33, -170240.52, -170094.00, -170384.25, -170048.13, 0.00, 0.00, 0.00
3276.0, -170299.20, -170011.77, -170223.81, -170063.23, -170523.98, -170367.77, -170712.88, -170258.97, 0.00, 0.00, 0.00
3280.0, -170509.63, -169986.95, -170022.34, -169988.36, -170314.81, -170119.03, -170263.16, -170055.52, 0.00, 0.00, 0.00
3284.0, -170182.94, -169749.02, -169635.45, -169836.19, -169942.39, -169769.30, -169896.86, -170037.14, 0.00, 0.00, 0.00
3288.0, -170110.97, -169776.56, -169812.81, -169875.39, -170041.25, -170012.89, -170268.08, -170027.02, 0.00, 0.00, 0.00
3292.0, -170360.86, -169998.48, -170222.19, -170055.23, -170376.81, -170366.48, -170722.08, -170261.44, 0.00, 0.00, 0.00
3296.0, -170375.97, -170035.33, -170130.78, -170031.56, -170262.31, -170206.00, -170379.31, -170097.75, 0.00, 0.00, 0.00
3300.0, -169971.53, -169799.05, -169692.56, -169851.08, -169862.91, -169811.05, -169916.84, -170027.75, 0.00, 0.00, 0.00
3304.0, -169652.73, -169741.20, -169727.72, -169847.59, -169862.28, -169930.89, -170164.39, -170012.73, 0.00, 0.00, 0.00
3308.0, -170085.13, -169942.86, -170140.59, -170006.27, -170201.06, -170319.13, -170679.88, -170222.81, 0.00, 0.00, 0.00
3312.0, -170531.06, -170027.81, -170156.25, -170031.86, -170178.52, -170249.30, -170462.64, -170139.89, 0.00, 0.00, 0.00
3316.0, -170287.78, -169815.61, -169725.69, -169857.52, -169627.00, -169836.06, -169936.55, -170015.05, 0.00, 0.00, 0.00
3320.0, -170063.78, -169710.52, -169677.16, -169826.05, -169289.78, -169826.47, -170048.33, -170018.81, 0.00, 0.00, 0.00
3324.0, -170237.73, -169902.53, -170082.52, -169967.59, -169773.42, -170239.06, -170604.80, -170169.34, 0.00, 0.00, 0.00
3328.0, -170373.03, -170023.75, -170194.92, -170035.77, -170059.59, -170259.92, -170531.73, -170169.72, 0.00, 0.00, 0.00
3332.0, -170054.69, -169834.14, -169771.84, -169858.70, -169876.84, -169840.53, -169962.39, -169992.16, 0.00, 0.00, 0.00
3336.0, -169572.39, -169652.84, -169602.44, -169788.69, -169907.39, -169727.42, -169927.77, -169985.72, 0.00, 0.00, 0.00
3340.0, -169791.63, -169815.05, -169972.19, -169895.47, -170669.11, -170132.94, -170475.47, -170071.20, 0.00, 0.00, 0.00
3344.0, -170359.63, -169987.84, -170190.45, -170004.72, -171018.83, -170258.42, -170570.48, -170163.36, 0.00, 0.00, 0.00
3348.0, -170359.56, -169860.44, -169835.67, -169868.31, -170678.61, -169889.25, -170022.36, -169982.78, 0.00, 0.00, 0.00
3352.0, -170044.48, -169669.42, -169586.13, -169784.05, -170402.88, -169694.59, -169871.73, -169985.92, 0.00, 0.00, 0.00
3356.0, -170106.14, -169806.84, -169920.55, -169881.88, -170644.92, -170093.33, -170393.16, -170033.84, 0.00, 0.00, 0.00
3360.0, -170341.56, -170010.33, -170233.55, -170035.33, -170891.84, -170322.83, -170636.55, -170199.50, 0.00, 0.00, 0.00
3364.0, -170208.39, -169941.78, -169958.05, -169923.25, -170621.34, -170017.95, -170133.00, -169991.58, 0.00, 0.00, 0.00
3368.0, -169701.34, -169701.30, -169599.17, -169793.36, -170284.02, -169718.16, -169858.44, -169996.48, 0.00, 0.00, 0.00
3372.0, -169656.64, -169752.53, -169822.45, -169856.98, -170442.78, -170026.56, -170298.25, -170001.38, 0.00, 0.00, 0.00
3376.0, -170225.27, -169960.80, -170186.48, -170018.63, -170736.08, -170326.14, -170658.22, -170201.20, 0.00, 0.00, 0.00
3380.0, -170460.59, -169948.11, -170005.81, -169951.14, -170544.19, -170093.89, -170227.80, -170016.91, 0.00, 0.00, 0.00
3384.0, -170138.61, -169710.94, -169606.11, -169787.13, -170163.64, -169730.47, -169839.20, -169993.50, 0.00, 0.00, 0.00
3388.0, -170050.20, -169721.48, -169757.09, -169824.39, -170243.00, -169947.28, -170186.63, -169977.91, 0.00, 0.00, 0.00
3392.0, -170295.80, -169936.53, -170170.03, -169999.72, -170582.83, -170311.55, -170658.05, -170200.86, 0.00, 0.00, 0.00
3396.0, -170326.48, -169983.98, -170101.70, -169986.55, -170489.22, -170171.25, -170342.34, -170060.72, 0.00, 0.00, 0.00
3400.0, -169920.34, -169750.89, -169661.61, -169806.67, -170088.05, -169770.45, -169864.47, -169988.08, 0.00, 0.00, 0.00
3404.0, -169589.66, -169676.83, -169673.52, -169794.42, -170066.75, -169866.75, -170084.78, -169970.75, 0.00, 0.00, 0.00
3408.0, -170006.41, -169881.39, -170086.23, -169950.28, -170405.05, -170265.22, -170616.47, -170164.03, 0.00, 0.00, 0.00
3412.0, -170475.94, -169977.23, -170123.75, -169988.30, -170402.70, -170215.41, -170431.39, -170099.20, 0.00, 0.00, 0.00
3416.0, -170255.73, -169773.98, -169693.41, -169816.97, -170001.94, -169805.64, -169897.50, -169963.23, 0.00, 0.00, 0.00
3420.0, -170026.34, -169662.28, -169623.05, -169777.52, -169887.58, -169791.98, -169991.36, -169971.17, 0.00, 0.00, 0.00
3424.0, -170204.14, -169853.89, -170039.08, -169926.77, -170221.45, -170211.52, -170562.73, -170127.70, 0.00, 0.00, 0.00
3428.0, -170369.28, -169998.28, -170192.53, -170021.13, -170324.02, -170267.00, -170533.92, -170160.61, 0.00, 0.00, 0.00
3432.0, -170107.16, -169834.63, -169790.02, -169850.05, -169951.69, -169877.72, -169974.48, -169965.34, 0.00, 0.00, 0.00
3436.0, -169642.77, -169654.11, -169541.19, -169761.47, -169749.72, -169747.61, -169936.53, -169948.00, 0.00, 0.00, 0.00
3440.0, -169817.73, -169797.28, -169862.81, -169875.36, -170038.67, -170143.34, -170489.41, -170066.58, 0.00, 0.00, 0.00
3444.0, -170408.05, -169969.70, -170104.50, -170002.00, -170220.52, -170286.31, -170594.52, -170194.98, 0.00, 0.00, 0.00
3448.0, -170370.80, -169855.59, -169767.80, -169860.25, -169854.36, -169934.98, -170045.86, -169960.95, 0.00, 0.00, 0.00
3452.0, -170046.56, -169642.02, -169514.81, -169750.81, -169278.03, -169684.84, -169860.98, -169973.77, 0.00, 0.00, 0.00
3456.0, -170082.28, -169752.13, -169835.67, -169832.38, -169504.97, -170028.42, -170356.19, -170011.00, 0.00, 0.00, 0.00
3460.0, -170309.88, -169948.59, -170150.95, -169978.39, -169969.28, -170262.58, -170605.30, -170190.41, 0.00, 0.00, 0.00
3464.0, -170176.72, -169876.98, -169880.50, -169870.80, -169919.50, -169954.77, -170098.16, -169970.55, 0.00, 0.00, 0.00
3468.0, -169648.75, -169630.53, -169527.83, -169737.55, -169766.98, -169622.94, -169778.30, -169952.72, 0.00, 0.00, 0.00
3472.0, -169569.20, -169677.19, -169763.48, -169785.55, -170303.14, -169907.03, -170183.25, -169937.31, 0.00, 0.00, 0.00
3476.0, -170105.44, -169894.95, -170135.86, -169938.16, -170945.52, -170221.58, -170573.11, -170135.95, 0.00, 0.00, 0.00
3480.0, -170393.17, -169892.67, -169974.66, -169882.08, -170788.48, -170002.78, -170170.59, -169971.48, 0.00, 0.00, 0.00
3484.0, -170081.56, -169655.61, -169566.09, -169735.20, -170396.55, -169632.20, -169774.70, -169947.39, 0.00, 0.00, 0.00
3488.0, -169970.75, -169664.06, -169700.23, -169764.80, -170449.09, -169852.63, -170092.20, -169948.48, 0.00, 0.00, 0.00
3492.0, -170211.50, -169892.47, -170119.39, -169935.55, -170790.72, -170243.59, -170591.19, -170136.20, 0.00, 0.00, 0.00
3496.0, -170257.56, -169951.95, -170073.97, -169935.38, -170717.39, -170124.67, -170309.53, -170010.78, 0.00, 0.00, 0.00
3500.0, -169849.94, -169722.17, -169630.89, -169759.75, -170313.16, -169720.95, -169819.14, -169926.52, 0.00, 0.00, 0.00
3504.0, -169512.14, -169633.11, -169618.05, -169748.06, -170271.38, -169800.30, -170015.16, -169909.48, 0.00, 0.00, 0.00
3508.0, -169921.73, -169825.95, -170030.55, -169902.20, -170607.33, -170205.75, -170554.53, -170096.23, 0.00, 0.00, 0.00
3512.0, -170408.63, -169929.05, -170092.33, -169951.11, -170625.75, -170177.03, -170399.34, -170054.30, 0.00, 0.00, 0.00
3516.0, -170204.08, -169733.94, -169663.92, -169775.73, -170227.97, -169766.56, -169857.69, -169917.75, 0.00, 0.00, 0.00
3520.0, -169961.30, -169616.36, -169561.44, -169728.69, -170091.92, -169728.06, -169924.91, -169901.59, 0.00, 0.00, 0.00
3524.0, -170129.27, -169809.03, -169971.63, -169872.06, -170420.94, -170154.19, -170494.09, -170056.45, 0.00, 0.00, 0.00
3528.0, -170307.80, -169965.28, -170148.48, -169975.48, -170544.34, -170233.25, -170492.11, -170114.38, 0.00, 0.00, 0.00
3532.0, -170054.80, -169811.98, -169758.08, -169810.42, -170180.45, -169849.20, -169933.64, -169914.09, 0.00, 0.00, 0.00
3536.0, -169574.45, -169611.22, -169519.89, -169718.22, -169957.58, -169696.30, -169863.02, -169917.67, 0.00, 0.00, 0.00
3540.0, -169732.34, -169739.50, -169857.97, -169821.06, -170231.91, -170087.53, -170407.39, -170005.63, 0.00, 0.00, 0.00
3544.0, -170325.58, -169917.95, -170117.89, -169954.23, -170429.86, -170250.39, -170549.75, -170142.88, 0.00, 0.00, 0.00
3548.0, -170334.48, -169815.50, -169794.33, -169821.17, -170117.67, -169909.17, -170008.55, -169907.14, 0.00, 0.00, 0.00
3552.0, -170008.39, -169602.81, -169500.27, -169709.41, -169817.39, -169657.94, -169799.64, -169920.22, 0.00, 0.00, 0.00
3556.0, -170042.95, -169709.81, -169802.33, -169797.17, -170035.14, -170012.23, -170297.78, -169963.16, 0.00, 0.00, 0.00
3560.0, -170291.92, -169920.13, -170148.38, -169964.97, -170313.11, -170273.30, -170592.94, -170172.23, 0.00, 0.00, 0.00
3564.0, -170201.02, -169877.81, -169913.08, -169870.64, -170078.19, -170002.31, -170115.02, -169938.27, 0.00, 0.00, 0.00
3568.0, -169743.33, -169636.09, -169521.41, -169713.86, -169726.11, -169673.88, -169788.41, -169924.48, 0.00, 0.00, 0.00
3572.0, -169589.75, -169662.25, -169697.33, -169754.66, -169855.97, -169924.23, -170197.27, -169922.38, 0.00, 0.00, 0.00
3576.0, -170140.11, -169871.63, -170083.31, -169922.67, -170169.95, -170244.69, -170597.42, -170165.70, 0.00, 0.00, 0.00
3580.0, -170407.56, -169882.70, -169947.22, -169875.94, -170012.92, -170048.64, -170209.56, -169976.34, 0.00, 0.00, 0.00
3584.0, -170086.69, -169643.83, -169529.86, -169710.08, -169420.77, -169659.44, -169777.86, -169923.45, 0.00, 0.00, 0.00
3588.0, -169956.88, -169624.77, -169633.03, -169724.75, -169276.08, -169810.27, -170068.66, -169906.73, 0.00, 0.00, 0.00
3592.0, -170182.25, -169836.53, -170045.34, -169888.86, -169801.84, -170189.13, -170558.80, -170126.55, 0.00, 0.00, 0.00
3596.0, -170230.02, -169892.94, -170010.38, -169889.45, -169958.72, -170074.55, -170281.94, -170002.36, 0.00, 0.00, 0.00
3600.0, -169806.08, -169658.20, -169565.84, -169707.83, -169752.75, -169648.08, -169768.47, -169883.80, 0.00, 0.00, 0.00
3604.0, -169441.91, -169561.05, -169557.78, -169686.72, -169969.14, -169687.84, -169918.72, -169871.33, 0.00, 0.00, 0.00
3608.0, -169817.34, -169764.75, -169967.95, -169829.11, -170764.97, -170099.97, -170467.83, -170035.34, 0.00, 0.00, 0.00
3612.0, -170326.56, -169881.50, -170050.39, -169884.00, -170889.08, -170091.41, -170350.55, -170009.91, 0.00, 0.00, 0.00
3616.0, -170162.73, -169690.91, -169626.73, -169717.64, -170491.13, -169678.52, -169806.53, -169861.97, 0.00, 0.00, 0.00
3620.0, -169905.13, -169559.67, -169510.50, -169679.44, -170332.56, -169640.25, -169843.25, -169867.58, 0.00, 0.00, 0.00
3624.0, -170058.92, -169748.66, -169913.80, -169818.47, -170651.81, -170074.17, -170418.19, -169994.83, 0.00, 0.00, 0.00
3628.0, -170246.33, -169912.38, -170109.95, -169924.86, -170792.48, -170172.75, -170457.84, -170065.08, 0.00, 0.00, 0.00
3632.0, -170005.59, -169767.80, -169731.78, -169761.69, -170438.28, -169795.27, -169900.70, -169872.84, 0.00, 0.00, 0.00
3636.0, -169514.48, -169560.59, -169479.06, -169671.02, -170196.41, -169627.14, -169798.94, -169877.31, 0.00, 0.00, 0.00
3640.0, -169646.94, -169685.36, -169810.05, -169774.48, -170456.13, -170019.14, -170332.41, -169946.14, 0.00, 0.00, 0.00
3644.0, -170232.95, -169871.11, -170085.70, -169910.73, -170667.23, -170200.30, -170505.03, -170091.06, 0.00, 0.00, 0.00
3648.0, -170286.58, -169777.39, -169774.70, -169782.69, -170365.02, -169866.03, -169974.91, -169864.20, 0.00, 0.00, 0.00
3652.0, -169959.16, -169559.03, -169462.98, -169662.70, -170050.17, -169599.42, -169745.94, -169873.34, 0.00, 0.00, 0.00
3656.0, -169976.77, -169660.42, -169747.41, -169735.91, -170249.97, -169947.95, -170227.69, -169901.08, 0.00, 0.00, 0.00
3660.0, -170226.95, -169877.75, -170105.47, -169908.81, -170538.48, -170228.11, -170548.45, -170110.94, 0.00, 0.00, 0.00
3664.0, -170151.39, -169847.08, -169892.30, -169825.36, -170319.59, -169971.91, -170086.42, -169896.63, 0.00, 0.00, 0.00
3668.0, -169679.33, -169599.75, -169475.19, -169666.09, -169956.77, -169629.19, -169735.20, -169880.58, 0.00, 0.00, 0.00
3672.0, -169528.28, -169607.80, -169584.25, -169704.88, -170069.81, -169864.58, -170124.63, -169868.80, 0.00, 0.00, 0.00
3676.0, -170070.59, -169816.09, -169966.84, -169875.70, -170390.09, -170196.14, -170543.98, -170103.23, 0.00, 0.00, 0.00
3680.0, -170372.95, -169838.14, -169852.17, -169839.39, -170253.95, -170015.34, -170176.77, -169924.53, 0.00, 0.00, 0.00
3684.0, -170063.11, -169602.95, -169448.39, -169665.42, -169853.63, -169622.59, -169734.47, -169858.75, 0.00, 0.00, 0.00
3688.0, -169925.64, -169577.52, -169570.09, -169674.08, -169870.81, -169773.66, -170006.98, -169842.89, 0.00, 0.00, 0.00
3692.0, -170159.28, -169797.88, -170003.20, -169849.94, -170222.09, -170170.91, -170524.78, -170072.83, 0.00, 0.00, 0.00
3696.0, -170237.73, -169880.83, -170007.39, -169874.69, -170191.89, -170092.02, -170292.39, -169977.08, 0.00, 0.00, 0.00
3700.0, -169878.89, -169662.88, -169566.39, -169690.92, -169788.06, -169683.27, -169780.31, -169852.42, 0.00, 0.00, 0.00
3704.0, -169484.20, -169551.78, -169511.73, -169663.34, -169706.84, -169707.48, -169922.14, -169855.22, 0.00, 0.00, 0.00
3708.0, -169833.22, -169737.23, -169921.53, -169810.73, -170038.92, -170118.25, -170470.17, -170029.14, 0.00, 0.00, 0.00
3712.0, -170350.70, -169859.97, -170025.98, -169875.16, -170096.59, -170127.97, -170369.38, -170018.06, 0.00, 0.00, 0.00
3716.0, -170174.98, -169677.00, -169609.95, -169700.39, -169638.77, -169723.03, -169809.48, -169838.30, 0.00, 0.00, 0.00
3720.0, -169905.70, -169521.34, -169462.69, -169642.00, -169171.14, -169621.58, -169810.88, -169837.88, 0.00, 0.00, 0.00
3724.0, -170036.00, -169692.61, -169846.52, -169765.78, -169551.20, -170023.75, -170369.55, -169958.66, 0.00, 0.00, 0.00
3728.0, -170217.41, -169849.05, -170046.86, -169870.61, -169916.75, -170126.09, -170423.42, -170039.64, 0.00, 0.00, 0.00
3732.0, -169968.50, -169699.16, -169666.88, -169711.92, -169775.03, -169735.16, -169851.39, -169822.47, 0.00, 0.00, 0.00
3736.0, -169448.61, -169487.53, -169415.36, -169621.92, -169724.55, -169523.16, -169701.02, -169828.75, 0.00, 0.00, 0.00
3740.0, -169555.70, -169615.45, -169743.44, -169716.31, -170418.75, -169899.09, -170214.14, -169870.50, 0.00, 0.00, 0.00
3744.0, -170129.58, -169814.17, -170029.80, -169851.80, -170885.34, -170099.55, -170425.39, -170014.31, 0.00, 0.00, 0.00
3748.0, -170230.19, -169731.30, -169734.05, -169730.41, -170599.73, -169774.48, -169909.11, -169827.66, 0.00, 0.00, 0.00
3752.0, -169900.23, -169508.31, -169409.03, -169609.59, -170268.81, -169498.28, -169656.53, -169833.80, 0.00, 0.00, 0.00
3756.0, -169901.45, -169596.94, -169679.06, -169689.59, -170450.13, -169847.69, -170123.38, -169856.91, 0.00, 0.00, 0.00
3760.0, -170153.59, -169813.59, -170048.44, -169859.91, -170748.64, -170150.39, -170484.06, -170044.28, 0.00, 0.00, 0.00
3764.0, -170089.80, -169792.47, -169851.73, -169782.64, -170543.63, -169905.06, -170045.03, -169844.50, 0.00, 0.00, 0.00
3768.0, -169605.19, -169544.38, -169437.86, -169620.77, -170167.20, -169550.09, -169682.02, -169832.69, 0.00, 0.00, 0.00
3772.0, -169441.59, -169543.70, -169578.09, -169653.22, -170255.27, -169786.89, -170041.52, -169831.83, 0.00, 0.00, 0.00
3776.0, -169968.53, -169752.59, -169975.53, -169818.94, -170577.33, -170137.72, -170483.09, -170032.23, 0.00, 0.00, 0.00
3780.0, -170302.56, -169783.42, -169880.88, -169793.59, -170458.95, -169973.64, -170139.39, -169880.45, 0.00, 0.00, 0.00
3784.0, -170003.36, -169551.08, -169452.48, -169624.30, -170055.63, -169573.94, -169679.81, -169814.78, 0.00, 0.00, 0.00
3788.0, -169853.00, -169518.66, -169521.30, -169629.02, -170055.67, -169705.48, -169931.83, -169780.52, 0.00, 0.00, 0.00
3792.0, -170083.22, -169737.67, -169953.41, -169805.81, -170410.00, -170112.89, -170464.44, -170008.48, 0.00, 0.00, 0.00
3796.0, -170174.47, -169829.42, -169977.91, -169840.06, -170397.94, -170051.80, -170256.66, -169934.39, 0.00, 0.00, 0.00
3800.0, -169816.55, -169616.92, -169537.44, -169651.95, -169994.72, -169640.59, -169724.33, -169804.09, 0.00, 0.00, 0.00
3804.0, -169411.63, -169495.66, -169454.47, -169614.06, -169894.70, -169641.55, -169838.19, -169781.13, 0.00, 0.00, 0.00
3808.0, -169746.39, -169682.72, -169856.95, -169757.31, -170220.80, -170053.05, -170394.97, -169953.11, 0.00, 0.00, 0.00
3812.0, -170277.73, -169813.73, -169982.63, -169830.77, -170296.33, -170082.11, -170328.09, -169963.78, 0.00, 0.00, 0.00
3816.0, -170129.02, -169639.81, -169573.36, -169657.25, -169913.55, -169679.84, -169764.52, -169773.67, 0.00, 0.00, 0.00
3820.0, -169854.19, -169481.06, -169403.86, -169594.61, -169724.70, -169577.30, -169745.41, -169777.67, 0.00, 0.00, 0.00
3824.0, -169986.98, -169651.83, -169788.56, -169729.02, -170031.14, -169997.06, -170313.17, -169901.59, 0.00, 0.00, 0.00
3828.0, -170192.97, -169827.03, -170022.27, -169857.69, -170205.83, -170133.94, -170405.73, -170014.83, 0.00, 0.00, 0.00
3832.0, -169989.30, -169701.69, -169668.55, -169702.80, -169869.66, -169772.77, -169851.09, -169796.50, 0.00, 0.00, 0.00
3836.0, -169502.23, -169484.27, -169384.94, -169589.45, -169598.97, -169552.75, -169695.42, -169796.72, 0.00, 0.00, 0.00
3840.0, -169556.03, -169585.78, -169685.61, -169684.20, -169835.17, -169910.05, -170211.52, -169849.22, 0.00, 0.00, 0.00
3844.0, -170151.89, -169776.61, -169990.64, -169832.70, -170074.64, -170123.17, -170442.14, -170028.70, 0.00, 0.00, 0.00
3848.0, -170235.86, -169705.75, -169714.88, -169716.64, -169784.34, -169815.83, -169930.39, -169791.64, 0.00, 0.00, 0.00
3852.0, -169900.86, -169476.78, -169371.75, -169579.13, -169188.94, -169504.52, -169645.42, -169786.55, 0.00, 0.00, 0.00
3856.0, -169879.48, -169549.80, -169611.78, -169639.16, -169272.91, -169796.00, -170085.50, -169790.53, 0.00, 0.00, 0.00
3860.0, -170116.97, -169759.38, -169975.42, -169799.16, -169887.53, -170092.44, -170446.38, -170010.30, 0.00, 0.00, 0.00
3864.0, -170062.19, -169742.06, -169793.81, -169729.67, -170170.17, -169856.31, -170013.44, -169811.36, 0.00, 0.00, 0.00
3868.0, -169589.42, -169494.19, -169389.50, -169579.33, -169863.47, -169490.67, -169618.28, -169786.84, 0.00, 0.00, 0.00
3872.0, -169383.23, -169486.77, -169531.81, -169605.45, -169929.22, -169710.28, -169952.80, -169774.84, 0.00, 0.00, 0.00
3876.0, -169885.59, -169705.59, -169934.23, -169769.34, -170256.05, -170072.50, -170420.44, -169974.42, 0.00, 0.00, 0.00
3880.0, -170251.28, -169749.27, -169862.41, -169753.09, -170157.88, -169927.03, -170102.95, -169836.80, 0.00, 0.00, 0.00
3884.0, -169965.94, -169519.38, -169427.98, -169581.55, -169750.58, -169522.02, -169625.34, -169767.14, 0.00, 0.00, 0.00
3888.0, -169800.66, -169471.91, -169467.44, -169584.56, -169729.39, -169639.61, -169849.88, -169754.05, 0.00, 0.00, 0.00
3892.0, -170020.48, -169685.77, -169895.73, -169755.38, -170080.31, -170055.91, -170397.72, -169951.34, 0.00, 0.00, 0.00
3896.0, -170123.97, -169785.66, -169941.72, -169796.89, -170085.91, -170013.67, -170221.31, -169891.67, 0.00, 0.00, 0.00
3900.0, -169779.52, -169577.92, -169505.50, -169608.42, -169683.28, -169600.14, -169684.63, -169753.02, 0.00, 0.00, 0.00
3904.0, -169358.06, -169442.94, -169405.59, -169568.53, -169562.41, -169578.14, -169769.92, -169754.72, 0.00, 0.00, 0.00
3908.0, -169670.91, -169622.67, -169803.27, -169708.31, -169884.45, -169991.53, -170329.03, -169899.00, 0.00, 0.00, 0.00
3912.0, -170214.27, -169761.22, -169948.80, -169791.59, -169978.34, -170039.61, -170292.03, -169925.73, 0.00, 0.00, 0.00
3916.0, -170083.61, -169595.44, -169546.63, -169620.59, -169516.61, -169639.83, -169732.91, -169739.20, 0.00, 0.00, 0.00
3920.0, -169792.42, -169425.64, -169357.84, -169549.63, -169015.09, -169494.91, -169683.52, -169762.55, 0.00, 0.00, 0.00
3924.0, -169896.08, -169581.25, -169724.30, -169663.56, -169392.48, -169892.00, -170232.58, -169842.00, 0.00, 0.00, 0.00
3928.0, -170091.78, -169748.38, -169959.86, -169781.05, -169788.11, -170033.22, -170349.55, -169941.05, 0.00, 0.00, 0.00
3932.0, -169865.97, -169617.39, -169603.89, -169629.06, -169663.61, -169655.50, -169789.45, -169726.11, 0.00, 0.00, 0.00
3936.0, -169330.94, -169391.19, -169317.08, -169519.11, -169568.13, -169403.86, -169587.75, -169722.28, 0.00, 0.00, 0.00
3940.0, -169400.22, -169497.00, -169618.86, -169597.44, -170211.36, -169762.39, -170074.11, -169740.27, 0.00, 0.00, 0.00
3944.0, -169950.52, -169702.39, -169931.98, -169737.27, -170744.98, -170001.86, -170352.67, -169894.91, 0.00, 0.00, 0.00
3948.0, -170130.45, -169640.08, -169670.05, -169636.53, -170491.23, -169699.09, -169861.94, -169722.17, 0.00, 0.00, 0.00
3952.0, -169804.78, -169411.13, -169315.83, -169514.64, -170135.03, -169393.58, -169561.27, -169712.97, 0.00, 0.00, 0.00
3956.0, -169771.13, -169483.08, -169553.56, -169572.52, -170279.45, -169714.20, -169986.38, -169724.14, 0.00, 0.00, 0.00
3960.0, -170021.38, -169706.55, -169940.39, -169746.23, -170592.91, -170043.22, -170387.03, -169908.36, 0.00, 0.00, 0.00
3964.0, -169986.22, -169706.78, -169783.67, -169689.94, -170421.34, -169827.63, -169983.33, -169756.59, 0.00, 0.00, 0.00
