%OpenBCI Raw EEG Data
%
%Sample Rate = 250.0 Hz
%First Column = Time (ms)
%Other Columns = EEG data in microvolts followed by Accel Data (in G) interleaved with Aux Data
0.0, 0.00, 0.00, 0.00, 0.00, 0.00, 0.00, 0.00, 0.00, 64724.19, 56622.31, 77466.25, 80113.86, 0.00, 0.00, 0.00, 0.00, 0.00, 0.00, 0.00
4.0, 156459.61, 168253.63, 97239.38, 176145.17, 153604.16, 146319.16, 134403.34, 175776.69, 64724.19, 56622.31, 77466.25, 80113.86, 0.00, 0.00, 0.00, 0.00, 0.00, 0.00, 0.00
8.0, 156459.61, 168253.63, 97239.38, 176145.17, 153604.16, 146319.16, 134403.34, 175776.69, 129502.29, 113238.74, 154971.17, 160293.36, 0.00, 0.00, 0.00, 0.00, 0.00, 0.00, 0.00
12.0, 156460.91, 168246.97, 97232.74, 176158.16, 153605.00, 146334.72, 134409.31, 175788.59, 129502.29, 113238.74, 154971.17, 160293.36, 0.00, 0.00, 0.00, 0.00, 0.00, 0.00, 0.00
16.0, 156460.91, 168246.97, 97232.74, 176158.16, 153605.00, 146334.72, 134409.31, 175788.59, 129465.73, 113266.39, 154926.34, 160241.42, 0.00, 0.00, 0.00, 0.00, 0.00, 0.00, 0.00
20.0, 156466.91, 168252.30, 97238.94, 176152.06, 153607.89, 146319.81, 134420.33, 175787.30, 129465.73, 113266.39, 154926.34, 160241.42, 0.00, 0.00, 0.00, 0.00, 0.00, 0.00, 0.00
24.0, 156466.91, 168252.30, 97238.94, 176152.06, 153607.89, 146319.81, 134420.33, 175787.30, 129508.41, 113250.83, 154973.61, 160295.38, 0.00, 0.00, 0.00, 0.00, 0.00, 0.00, 0.00
28.0, 156476.94, 168258.05, 97249.04, 176164.39, 153615.11, 146347.95, 134419.05, 175802.13, 129508.41, 113250.83, 154973.61, 160295.38, 0.00, 0.00, 0.00, 0.00, 0.00, 0.00, 0.00
32.0, 156476.94, 168258.05, 97249.04, 176164.39, 153615.11, 146347.95, 134419.05, 175802.13, 129465.37, 113267.13, 154935.14, 160234.52, 0.00, 0.00, 0.00, 0.00, 0.00, 0.00, 0.00
36.0, 156458.81, 168259.48, 97233.86, 176141.33, 153599.17, 146309.47, 134420.19, 175786.88, 129465.37, 113267.13, 154935.14, 160234.52, 0.00, 0.00, 0.00, 0.00, 0.00, 0.00, 0.00
40.0, 156458.81, 168259.48, 97233.86, 176141.33, 153599.17, 146309.47, 134420.19, 175786.88, 129505.38, 113248.73, 154973.13, 160304.02, 0.00, 0.00, 0.00, 0.00, 0.00, 0.00, 0.00
44.0, 156471.17, 168264.78, 97259.77, 176161.73, 153625.55, 146349.97, 134421.84, 175806.48, 129505.38, 113248.73, 154973.13, 160304.02, 0.00, 0.00, 0.00, 0.00, 0.00, 0.00, 0.00
48.0, 156471.17, 168264.78, 97259.77, 176161.73, 153625.55, 146349.97, 134421.84, 175806.48, 129466.98, 113261.13, 154935.77, 160248.39, 0.00, 0.00, 0.00, 0.00, 0.00, 0.00, 0.00
52.0, 156456.31, 168255.48, 97236.12, 176148.06, 153602.34, 146312.23, 134430.78, 175789.53, 129466.98, 113261.13, 154935.77, 160248.39, 0.00, 0.00, 0.00, 0.00, 0.00, 0.00, 0.00
56.0, 156456.31, 168255.48, 97236.12, 176148.06, 153602.34, 146312.23, 134430.78, 175789.53, 129506.52, 113254.03, 154975.45, 160284.23, 0.00, 0.00, 0.00, 0.00, 0.00, 0.00, 0.00
60.0, 156462.05, 168253.13, 97259.63, 176154.25, 153625.48, 146349.05, 134418.41, 175799.92, 129506.52, 113254.03, 154975.45, 160284.23, 0.00, 0.00, 0.00, 0.00, 0.00, 0.00, 0.00
64.0, 156462.05, 168253.13, 97259.63, 176154.25, 153625.48, 146349.05, 134418.41, 175799.92, 129457.74, 113246.96, 154928.97, 160251.19, 0.00, 0.00, 0.00, 0.00, 0.00, 0.00, 0.00
68.0, 156431.70, 168234.02, 97215.16, 176128.56, 153583.09, 146290.13, 134420.75, 175777.58, 129457.74, 113246.96, 154928.97, 160251.19, 0.00, 0.00, 0.00, 0.00, 0.00, 0.00, 0.00
72.0, 156431.70, 168234.02, 97215.16, 176128.56, 153583.09, 146290.13, 134420.75, 175777.58, 129490.60, 113240.23, 154954.22, 160275.23, 0.00, 0.00, 0.00, 0.00, 0.00, 0.00, 0.00
76.0, 156464.31, 168259.95, 97264.22, 176154.47, 153628.58, 146356.84, 134421.48, 175802.39, 129490.60, 113240.23, 154954.22, 160275.23, 0.00, 0.00, 0.00, 0.00, 0.00, 0.00, 0.00
80.0, 156464.31, 168259.95, 97264.22, 176154.47, 153628.58, 146356.84, 134421.48, 175802.39, 129474.94, 113255.73, 154933.34, 160248.97, 0.00, 0.00, 0.00, 0.00, 0.00, 0.00, 0.00
84.0, 156450.72, 168238.61, 97218.46, 176135.67, 153580.11, 146297.30, 134432.84, 175784.03, 129474.94, 113255.73, 154933.34, 160248.97, 0.00, 0.00, 0.00, 0.00, 0.00, 0.00, 0.00
88.0, 156450.72, 168238.61, 97218.46, 176135.67, 153580.11, 146297.30, 134432.84, 175784.03, 129495.61, 113253.96, 154957.73, 160290.19, 0.00, 0.00, 0.00, 0.00, 0.00, 0.00, 0.00
92.0, 156477.97, 168266.63, 97273.73, 176156.17, 153629.72, 146364.52, 134430.14, 175811.08, 129495.61, 113253.96, 154957.73, 160290.19, 0.00, 0.00, 0.00, 0.00, 0.00, 0.00, 0.00
96.0, 156477.97, 168266.63, 97273.73, 176156.17, 153629.72, 146364.52, 134430.14, 175811.08, 129487.61, 113260.95, 154941.23, 160274.61, 0.00, 0.00, 0.00, 0.00, 0.00, 0.00, 0.00
100.0, 156451.72, 168245.84, 97220.81, 176137.06, 153584.78, 146303.42, 134441.63, 175790.61, 129487.61, 113260.95, 154941.23, 160274.61, 0.00, 0.00, 0.00, 0.00, 0.00, 0.00, 0.00
104.0, 156451.72, 168245.84, 97220.81, 176137.06, 153584.78, 146303.42, 134441.63, 175790.61, 129488.88, 113255.03, 154950.53, 160264.39, 0.00, 0.00, 0.00, 0.00, 0.00, 0.00, 0.00
108.0, 156475.61, 168270.39, 97281.90, 176157.42, 153637.11, 146365.31, 134438.92, 175814.44, 129488.88, 113255.03, 154950.53, 160264.39, 0.00, 0.00, 0.00, 0.00, 0.00, 0.00, 0.00
112.0, 156475.61, 168270.39, 97281.90, 176157.42, 153637.11, 146365.31, 134438.92, 175814.44, 129494.11, 113262.56, 154956.03, 160282.41, 0.00, 0.00, 0.00, 0.00, 0.00, 0.00, 0.00
116.0, 156447.77, 168245.13, 97225.66, 176141.33, 153589.61, 146308.25, 134450.97, 175804.17, 129494.11, 113262.56, 154956.03, 160282.41, 0.00, 0.00, 0.00, 0.00, 0.00, 0.00, 0.00
120.0, 156447.77, 168245.13, 97225.66, 176141.33, 153589.61, 146308.25, 134450.97, 175804.17, 129493.11, 113274.86, 154957.00, 160282.44, 0.00, 0.00, 0.00, 0.00, 0.00, 0.00, 0.00
124.0, 156478.30, 168275.61, 97290.28, 176162.89, 153648.30, 146371.88, 134451.23, 175825.16, 129493.11, 113274.86, 154957.00, 160282.44, 0.00, 0.00, 0.00, 0.00, 0.00, 0.00, 0.00
128.0, 156478.30, 168275.61, 97290.28, 176162.89, 153648.30, 146371.88, 134451.23, 175825.16, 129505.38, 113264.11, 154969.05, 160293.72, 0.00, 0.00, 0.00, 0.00, 0.00, 0.00, 0.00
132.0, 156446.22, 168250.98, 97229.34, 176144.09, 153592.69, 146310.73, 134450.64, 175800.22, 129505.38, 113264.11, 154969.05, 160293.72, 0.00, 0.00, 0.00, 0.00, 0.00, 0.00, 0.00
136.0, 156446.22, 168250.98, 97229.34, 176144.09, 153592.69, 146310.73, 134450.64, 175800.22, 129472.23, 113252.38, 154944.30, 160252.45, 0.00, 0.00, 0.00, 0.00, 0.00, 0.00, 0.00
140.0, 156465.02, 168264.91, 97277.67, 176142.94, 153633.33, 146351.66, 134441.11, 175813.11, 129472.23, 113252.38, 154944.30, 160252.45, 0.00, 0.00, 0.00, 0.00, 0.00, 0.00, 0.00
144.0, 156465.02, 168264.91, 97277.67, 176142.94, 153633.33, 146351.66, 134441.11, 175813.11, 129490.38, 113241.45, 154958.38, 160281.77, 0.00, 0.00, 0.00, 0.00, 0.00, 0.00, 0.00
148.0, 156435.86, 168239.47, 97221.26, 176133.03, 153581.48, 146304.77, 134441.58, 175792.83, 129490.38, 113241.45, 154958.38, 160281.77, 0.00, 0.00, 0.00, 0.00, 0.00, 0.00, 0.00
152.0, 156435.86, 168239.47, 97221.26, 176133.03, 153581.48, 146304.77, 134441.58, 175792.83, 129469.88, 113252.02, 154938.84, 160245.06, 0.00, 0.00, 0.00, 0.00, 0.00, 0.00, 0.00
156.0, 156461.98, 168260.53, 97279.66, 176147.09, 153632.31, 146357.83, 134450.66, 175817.98, 129469.88, 113252.02, 154938.84, 160245.06, 0.00, 0.00, 0.00, 0.00, 0.00, 0.00, 0.00
160.0, 156461.98, 168260.53, 97279.66, 176147.09, 153632.31, 146357.83, 134450.66, 175817.98, 129508.75, 113257.85, 154970.70, 160294.39, 0.00, 0.00, 0.00, 0.00, 0.00, 0.00, 0.00
164.0, 156438.84, 168238.16, 97233.70, 176133.78, 153593.14, 146312.38, 134453.25, 175811.31, 129508.75, 113257.85, 154970.70, 160294.39, 0.00, 0.00, 0.00, 0.00, 0.00, 0.00, 0.00
168.0, 156438.84, 168238.16, 97233.70, 176133.78, 153593.14, 146312.38, 134453.25, 175811.31, 129456.05, 113257.60, 154934.95, 160248.38, 0.00, 0.00, 0.00, 0.00, 0.00, 0.00, 0.00
172.0, 156451.77, 168262.23, 97275.41, 176136.45, 153623.13, 146338.00, 134450.09, 175817.34, 129456.05, 113257.60, 154934.95, 160248.38, 0.00, 0.00, 0.00, 0.00, 0.00, 0.00, 0.00
176.0, 156451.77, 168262.23, 97275.41, 176136.45, 153623.13, 146338.00, 134450.09, 175817.34, 129504.41, 113248.30, 154980.00, 160304.30, 0.00, 0.00, 0.00, 0.00, 0.00, 0.00, 0.00
180.0, 156459.81, 168266.30, 97258.65, 176147.08, 153605.30, 146332.89, 134463.08, 175821.25, 129504.41, 113248.30, 154980.00, 160304.30, 0.00, 0.00, 0.00, 0.00, 0.00, 0.00, 0.00
184.0, 156459.81, 168266.30, 97258.65, 176147.08, 153605.30, 146332.89, 134463.08, 175821.25, 129465.34, 113267.80, 154946.88, 160247.11, 0.00, 0.00, 0.00, 0.00, 0.00, 0.00, 0.00
188.0, 156474.56, 168275.44, 97285.80, 176147.70, 153626.27, 146346.86, 134465.98, 175823.59, 129465.34, 113267.80, 154946.88, 160247.11, 0.00, 0.00, 0.00, 0.00, 0.00, 0.00, 0.00
192.0, 156474.56, 168275.44, 97285.80, 176147.70, 153626.27, 146346.86, 134465.98, 175823.59, 129507.79, 113242.80, 154982.61, 160309.45, 0.00, 0.00, 0.00, 0.00, 0.00, 0.00, 0.00
196.0, 156461.41, 168260.39, 97261.87, 176145.02, 153603.70, 146339.34, 134461.45, 175822.23, 129507.79, 113242.80, 154982.61, 160309.45, 0.00, 0.00, 0.00, 0.00, 0.00, 0.00, 0.00
200.0, 156461.41, 168260.39, 97261.87, 176145.02, 153603.70, 146339.34, 134461.45, 175822.23, 129466.46, 113263.68, 154940.70, 160243.05, 0.00, 0.00, 0.00, 0.00, 0.00, 0.00, 0.00
204.0, 156463.33, 168269.41, 97280.02, 176142.02, 153619.38, 146336.59, 134471.94, 175826.14, 129466.46, 113263.68, 154940.70, 160243.05, 0.00, 0.00, 0.00, 0.00, 0.00, 0.00, 0.00
208.0, 156463.33, 168269.41, 97280.02, 176142.02, 153619.38, 146336.59, 134471.94, 175826.14, 129510.41, 113240.75, 154982.23, 160297.61, 0.00, 0.00, 0.00, 0.00, 0.00, 0.00, 0.00
212.0, 156456.69, 168261.42, 97266.41, 176138.02, 153604.20, 146338.91, 134455.02, 175816.52, 129510.41, 113240.75, 154982.23, 160297.61, 0.00, 0.00, 0.00, 0.00, 0.00, 0.00, 0.00
216.0, 156456.69, 168261.42, 97266.41, 176138.02, 153604.20, 146338.91, 134455.02, 175816.52, 129454.05, 113246.23, 154932.30, 160236.61, 0.00, 0.00, 0.00, 0.00, 0.00, 0.00, 0.00
220.0, 156456.42, 168263.66, 97272.09, 176132.03, 153607.86, 146319.19, 134467.11, 175819.13, 129454.05, 113246.23, 154932.30, 160236.61, 0.00, 0.00, 0.00, 0.00, 0.00, 0.00, 0.00
224.0, 156456.42, 168263.66, 97272.09, 176132.03, 153607.86, 146319.19, 134467.11, 175819.13, 129504.80, 113239.12, 154982.98, 160295.66, 0.00, 0.00, 0.00, 0.00, 0.00, 0.00, 0.00
228.0, 156459.48, 168266.08, 97284.00, 176143.81, 153619.25, 146353.08, 134465.70, 175835.94, 129504.80, 113239.12, 154982.98, 160295.66, 0.00, 0.00, 0.00, 0.00, 0.00, 0.00, 0.00
232.0, 156459.48, 168266.08, 97284.00, 176143.81, 153619.25, 146353.08, 134465.70, 175835.94, 129467.02, 113263.95, 154945.13, 160242.16, 0.00, 0.00, 0.00, 0.00, 0.00, 0.00, 0.00
236.0, 156456.53, 168261.38, 97268.80, 176131.88, 153602.25, 146316.19, 134474.42, 175820.16, 129467.02, 113263.95, 154945.13, 160242.16, 0.00, 0.00, 0.00, 0.00, 0.00, 0.00, 0.00
240.0, 156456.53, 168261.38, 97268.80, 176131.88, 153602.25, 146316.19, 134474.42, 175820.16, 129504.75, 113236.80, 154979.22, 160295.23, 0.00, 0.00, 0.00, 0.00, 0.00, 0.00, 0.00
244.0, 156477.00, 168274.88, 97298.17, 176152.14, 153630.08, 146366.03, 134474.95, 175841.48, 129504.75, 113236.80, 154979.22, 160295.23, 0.00, 0.00, 0.00, 0.00, 0.00, 0.00, 0.00
248.0, 156477.00, 168274.88, 97298.17, 176152.14, 153630.08, 146366.03, 134474.95, 175841.48, 129477.59, 113270.50, 154955.41, 160258.11, 0.00, 0.00, 0.00, 0.00, 0.00, 0.00, 0.00
252.0, 156472.91, 168287.63, 97283.17, 176146.00, 153616.30, 146325.94, 134498.69, 175840.67, 129477.59, 113270.50, 154955.41, 160258.11, 0.00, 0.00, 0.00, 0.00, 0.00, 0.00, 0.00
256.0, 156472.91, 168287.63, 97283.17, 176146.00, 153616.30, 146325.94, 134498.69, 175840.67, 129524.58, 113265.78, 154996.72, 160302.53, 0.00, 0.00, 0.00, 0.00, 0.00, 0.00, 0.00
260.0, 156483.02, 168288.88, 97314.02, 176156.38, 153643.73, 146377.50, 134481.64, 175844.78, 129524.58, 113265.78, 154996.72, 160302.53, 0.00, 0.00, 0.00, 0.00, 0.00, 0.00, 0.00
264.0, 156483.02, 168288.88, 97314.02, 176156.38, 153643.73, 146377.50, 134481.64, 175844.78, 129474.87, 113251.70, 154961.28, 160260.42, 0.00, 0.00, 0.00, 0.00, 0.00, 0.00, 0.00
268.0, 156458.50, 168259.02, 97265.98, 176133.75, 153596.91, 146307.56, 134487.11, 175827.44, 129474.87, 113251.70, 154961.28, 160260.42, 0.00, 0.00, 0.00, 0.00, 0.00, 0.00, 0.00
272.0, 156458.50, 168259.02, 97265.98, 176133.75, 153596.91, 146307.56, 134487.11, 175827.44, 129493.30, 113236.91, 154978.78, 160280.63, 0.00, 0.00, 0.00, 0.00, 0.00, 0.00, 0.00
276.0, 156471.75, 168273.11, 97312.27, 176151.45, 153637.97, 146370.97, 134476.83, 175840.72, 129493.30, 113236.91, 154978.78, 160280.63, 0.00, 0.00, 0.00, 0.00, 0.00, 0.00, 0.00
280.0, 156471.75, 168273.11, 97312.27, 176151.45, 153637.97, 146370.97, 134476.83, 175840.72, 129476.16, 113251.46, 154956.86, 160251.05, 0.00, 0.00, 0.00, 0.00, 0.00, 0.00, 0.00
284.0, 156455.72, 168261.58, 97262.90, 176130.91, 153595.73, 146301.28, 134489.69, 175823.91, 129476.16, 113251.46, 154956.86, 160251.05, 0.00, 0.00, 0.00, 0.00, 0.00, 0.00, 0.00
288.0, 156455.72, 168261.58, 97262.90, 176130.91, 153595.73, 146301.28, 134489.69, 175823.91, 129487.56, 113241.04, 154974.81, 160273.22, 0.00, 0.00, 0.00, 0.00, 0.00, 0.00, 0.00
292.0, 156473.77, 168280.16, 97316.50, 176147.16, 153638.00, 146370.33, 134478.39, 175838.42, 129487.56, 113241.04, 154974.81, 160273.22, 0.00, 0.00, 0.00, 0.00, 0.00, 0.00, 0.00
296.0, 156473.77, 168280.16, 97316.50, 176147.16, 153638.00, 146370.33, 134478.39, 175838.42, 129485.04, 113257.83, 154961.48, 160274.72, 0.00, 0.00, 0.00, 0.00, 0.00, 0.00, 0.00
300.0, 156445.91, 168258.42, 97258.78, 176127.81, 153587.34, 146302.20, 134493.17, 175827.69, 129485.04, 113257.83, 154961.48, 160274.72, 0.00, 0.00, 0.00, 0.00, 0.00, 0.00, 0.00
304.0, 156445.91, 168258.42, 97258.78, 176127.81, 153587.34, 146302.20, 134493.17, 175827.69, 129477.62, 113235.66, 154964.91, 160252.13, 0.00, 0.00, 0.00, 0.00, 0.00, 0.00, 0.00
308.0, 156467.06, 168276.94, 97316.38, 176142.98, 153637.84, 146369.77, 134483.31, 175842.16, 129477.62, 113235.66, 154964.91, 160252.13, 0.00, 0.00, 0.00, 0.00, 0.00, 0.00, 0.00
312.0, 156467.06, 168276.94, 97316.38, 176142.98, 153637.84, 146369.77, 134483.31, 175842.16, 129493.71, 113245.94, 154965.28, 160273.52, 0.00, 0.00, 0.00, 0.00, 0.00, 0.00, 0.00
316.0, 156454.27, 168260.42, 97267.77, 176136.48, 153596.41, 146311.23, 134502.67, 175830.80, 129493.71, 113245.94, 154965.28, 160273.52, 0.00, 0.00, 0.00, 0.00, 0.00, 0.00, 0.00
320.0, 156454.27, 168260.42, 97267.77, 176136.48, 153596.41, 146311.23, 134502.67, 175830.80, 129487.72, 113253.94, 154964.61, 160266.66, 0.00, 0.00, 0.00, 0.00, 0.00, 0.00, 0.00
324.0, 156481.50, 168287.39, 97333.30, 176155.97, 153646.33, 146376.72, 134502.41, 175857.95, 129487.72, 113253.94, 154964.61, 160266.66, 0.00, 0.00, 0.00, 0.00, 0.00, 0.00, 0.00
328.0, 156481.50, 168287.39, 97333.30, 176155.97, 153646.33, 146376.72, 134502.41, 175857.95, 129502.45, 113245.87, 154976.08, 160279.23, 0.00, 0.00, 0.00, 0.00, 0.00, 0.00, 0.00
332.0, 156450.98, 168252.44, 97267.39, 176130.06, 153590.47, 146304.36, 134496.36, 175828.05, 129502.45, 113245.87, 154976.08, 160279.23, 0.00, 0.00, 0.00, 0.00, 0.00, 0.00, 0.00
336.0, 156450.98, 168252.44, 97267.39, 176130.06, 153590.47, 146304.36, 134496.36, 175828.05, 129470.69, 113240.70, 154951.19, 160231.78, 0.00, 0.00, 0.00, 0.00, 0.00, 0.00, 0.00
340.0, 156472.98, 168274.59, 97323.23, 176142.45, 153637.30, 146362.91, 134493.81, 175840.39, 129470.69, 113240.70, 154951.19, 160231.78, 0.00, 0.00, 0.00, 0.00, 0.00, 0.00, 0.00
344.0, 156472.98, 168274.59, 97323.23, 176142.45, 153637.30, 146362.91, 134493.81, 175840.39, 129514.52, 113251.08, 154982.88, 160291.95, 0.00, 0.00, 0.00, 0.00, 0.00, 0.00, 0.00
348.0, 156457.98, 168263.08, 97281.67, 176142.05, 153597.16, 146321.75, 134508.28, 175835.48, 129514.52, 113251.08, 154982.88, 160291.95, 0.00, 0.00, 0.00, 0.00, 0.00, 0.00, 0.00
352.0, 156457.98, 168263.08, 97281.67, 176142.05, 153597.16, 146321.75, 134508.28, 175835.48, 129469.86, 113250.72, 154956.64, 160242.44, 0.00, 0.00, 0.00, 0.00, 0.00, 0.00, 0.00
356.0, 156486.39, 168286.66, 97331.47, 176146.81, 153638.20, 146359.16, 134512.72, 175852.44, 129469.86, 113250.72, 154956.64, 160242.44, 0.00, 0.00, 0.00, 0.00, 0.00, 0.00, 0.00
360.0, 156486.39, 168286.66, 97331.47, 176146.81, 153638.20, 146359.16, 134512.72, 175852.44, 129509.20, 113240.68, 154981.61, 160278.56, 0.00, 0.00, 0.00, 0.00, 0.00, 0.00, 0.00
364.0, 156461.73, 168260.53, 97284.40, 176139.23, 153601.31, 146320.92, 134509.02, 175839.02, 129509.20, 113240.68, 154981.61, 160278.56, 0.00, 0.00, 0.00, 0.00, 0.00, 0.00, 0.00
368.0, 156461.73, 168260.53, 97284.40, 176139.23, 153601.31, 146320.92, 134509.02, 175839.02, 129461.68, 113245.47, 154945.28, 160233.81, 0.00, 0.00, 0.00, 0.00, 0.00, 0.00, 0.00
372.0, 156469.83, 168276.64, 97323.56, 176140.19, 153625.69, 146342.72, 134507.14, 175843.17, 129461.68, 113245.47, 154945.28, 160233.81, 0.00, 0.00, 0.00, 0.00, 0.00, 0.00, 0.00
376.0, 156469.83, 168276.64, 97323.56, 176140.19, 153625.69, 146342.72, 134507.14, 175843.17, 129512.71, 113241.96, 154987.30, 160297.59, 0.00, 0.00, 0.00, 0.00, 0.00, 0.00, 0.00
380.0, 156464.03, 168259.34, 97297.54, 176147.19, 153610.23, 146334.56, 134515.97, 175848.25, 129512.71, 113241.96, 154987.30, 160297.59, 0.00, 0.00, 0.00, 0.00, 0.00, 0.00, 0.00
384.0, 156464.03, 168259.34, 97297.54, 176147.19, 153610.23, 146334.56, 134515.97, 175848.25, 129469.62, 113256.15, 154948.19, 160219.94, 0.00, 0.00, 0.00, 0.00, 0.00, 0.00, 0.00
388.0, 156470.55, 168274.39, 97322.51, 176142.67, 153628.58, 146340.59, 134520.45, 175852.83, 129469.62, 113256.15, 154948.19, 160219.94, 0.00, 0.00, 0.00, 0.00, 0.00, 0.00, 0.00
392.0, 156470.55, 168274.39, 97322.51, 176142.67, 153628.58, 146340.59, 134520.45, 175852.83, 129516.42, 113247.52, 154994.13, 160306.86, 0.00, 0.00, 0.00, 0.00, 0.00, 0.00, 0.00
396.0, 156469.53, 168270.75, 97308.34, 176149.02, 153615.89, 146341.92, 134517.20, 175849.70, 129516.42, 113247.52, 154994.13, 160306.86, 0.00, 0.00, 0.00, 0.00, 0.00, 0.00, 0.00
400.0, 156469.53, 168270.75, 97308.34, 176149.02, 153615.89, 146341.92, 134517.20, 175849.70, 129469.10, 113258.50, 154947.98, 160240.98, 0.00, 0.00, 0.00, 0.00, 0.00, 0.00, 0.00
404.0, 156473.05, 168282.80, 97320.34, 176142.02, 153624.70, 146328.70, 134525.27, 175853.50, 129469.10, 113258.50, 154947.98, 160240.98, 0.00, 0.00, 0.00, 0.00, 0.00, 0.00, 0.00
408.0, 156473.05, 168282.80, 97320.34, 176142.02, 153624.70, 146328.70, 134525.27, 175853.50, 129509.36, 113256.38, 154995.95, 160289.98, 0.00, 0.00, 0.00, 0.00, 0.00, 0.00, 0.00
412.0, 156470.13, 168283.22, 97323.07, 176155.13, 153626.31, 146347.14, 134527.05, 175862.33, 129509.36, 113256.38, 154995.95, 160289.98, 0.00, 0.00, 0.00, 0.00, 0.00, 0.00, 0.00
416.0, 156470.13, 168283.22, 97323.07, 176155.13, 153626.31, 146347.14, 134527.05, 175862.33, 129471.89, 113255.32, 154961.05, 160241.78, 0.00, 0.00, 0.00, 0.00, 0.00, 0.00, 0.00
420.0, 156474.45, 168281.42, 97322.29, 176148.09, 153622.17, 146323.72, 134538.63, 175858.48, 129471.89, 113255.32, 154961.05, 160241.78, 0.00, 0.00, 0.00, 0.00, 0.00, 0.00, 0.00
424.0, 156474.45, 168281.42, 97322.29, 176148.09, 153622.17, 146323.72, 134538.63, 175858.48, 129502.67, 113241.58, 154997.58, 160290.48, 0.00, 0.00, 0.00, 0.00, 0.00, 0.00, 0.00
428.0, 156466.52, 168269.11, 97320.25, 176144.48, 153624.86, 146339.81, 134517.39, 175856.97, 129502.67, 113241.58, 154997.58, 160290.48, 0.00, 0.00, 0.00, 0.00, 0.00, 0.00, 0.00
432.0, 156466.52, 168269.11, 97320.25, 176144.48, 153624.86, 146339.81, 134517.39, 175856.97, 129452.96, 113243.23, 154942.88, 160216.19, 0.00, 0.00, 0.00, 0.00, 0.00, 0.00, 0.00
436.0, 156453.17, 168265.17, 97297.32, 176131.38, 153601.16, 146299.72, 134529.33, 175845.58, 129452.96, 113243.23, 154942.88, 160216.19, 0.00, 0.00, 0.00, 0.00, 0.00, 0.00, 0.00
440.0, 156453.17, 168265.17, 97297.32, 176131.38, 153601.16, 146299.72, 134529.33, 175845.58, 129493.51, 113235.92, 154981.69, 160285.09, 0.00, 0.00, 0.00, 0.00, 0.00, 0.00, 0.00
444.0, 156471.27, 168273.42, 97327.96, 176149.88, 153631.31, 146351.17, 134528.53, 175866.97, 129493.51, 113235.92, 154981.69, 160285.09, 0.00, 0.00, 0.00, 0.00, 0.00, 0.00, 0.00
448.0, 156471.27, 168273.42, 97327.96, 176149.88, 153631.31, 146351.17, 134528.53, 175866.97, 129478.33, 113264.45, 154953.39, 160253.98, 0.00, 0.00, 0.00, 0.00, 0.00, 0.00, 0.00
452.0, 156467.25, 168270.77, 97303.64, 176145.58, 153605.23, 146307.39, 134542.86, 175859.34, 129478.33, 113264.45, 154953.39, 160253.98, 0.00, 0.00, 0.00, 0.00, 0.00, 0.00, 0.00
456.0, 156467.25, 168270.77, 97303.64, 176145.58, 153605.23, 146307.39, 134542.86, 175859.34, 129489.06, 113236.66, 154974.47, 160261.78, 0.00, 0.00, 0.00, 0.00, 0.00, 0.00, 0.00
460.0, 156467.19, 168267.19, 97327.31, 176144.38, 153626.94, 146344.20, 134522.89, 175861.17, 129489.06, 113236.66, 154974.47, 160261.78, 0.00, 0.00, 0.00, 0.00, 0.00, 0.00, 0.00
464.0, 156467.19, 168267.19, 97327.31, 176144.38, 153626.94, 146344.20, 134522.89, 175861.17, 129464.97, 113242.83, 154944.98, 160243.63, 0.00, 0.00, 0.00, 0.00, 0.00, 0.00, 0.00
468.0, 156437.94, 168245.63, 97285.16, 176129.08, 153585.31, 146284.97, 134533.47, 175845.64, 129464.97, 113242.83, 154944.98, 160243.63, 0.00, 0.00, 0.00, 0.00, 0.00, 0.00, 0.00
472.0, 156437.94, 168245.63, 97285.16, 176129.08, 153585.31, 146284.97, 134533.47, 175845.64, 129476.95, 113237.15, 154967.91, 160263.39, 0.00, 0.00, 0.00, 0.00, 0.00, 0.00, 0.00
476.0, 156463.97, 168267.19, 97335.79, 176142.95, 153635.06, 146339.61, 134525.84, 175865.27, 129476.95, 113237.15, 154967.91, 160263.39, 0.00, 0.00, 0.00, 0.00, 0.00, 0.00, 0.00
480.0, 156463.97, 168267.19, 97335.79, 176142.95, 153635.06, 146339.61, 134525.84, 175865.27, 129469.41, 113248.87, 154955.20, 160253.31, 0.00, 0.00, 0.00, 0.00, 0.00, 0.00, 0.00
484.0, 156456.78, 168272.94, 97301.77, 176142.94, 153600.47, 146292.81, 134550.81, 175859.78, 129469.41, 113248.87, 154955.20, 160253.31, 0.00, 0.00, 0.00, 0.00, 0.00, 0.00, 0.00
488.0, 156456.78, 168272.94, 97301.77, 176142.94, 153600.47, 146292.81, 134550.81, 175859.78, 129483.65, 113243.86, 154978.92, 160267.50, 0.00, 0.00, 0.00, 0.00, 0.00, 0.00, 0.00
492.0, 156483.80, 168290.19, 97358.61, 176162.00, 153645.02, 146353.20, 134548.75, 175878.56, 129483.65, 113243.86, 154978.92, 160267.50, 0.00, 0.00, 0.00, 0.00, 0.00, 0.00, 0.00
496.0, 156483.80, 168290.19, 97358.61, 176162.00, 153645.02, 146353.20, 134548.75, 175878.56, 129479.05, 113249.55, 154977.27, 160261.69, 0.00, 0.00, 0.00, 0.00, 0.00, 0.00, 0.00
500.0, 156459.81, 168264.89, 97299.94, 176143.91, 153602.45, 146290.38, 134553.72, 175858.80, 129479.05, 113249.55, 154977.27, 160261.69, 0.00, 0.00, 0.00, 0.00, 0.00, 0.00, 0.00
504.0, 156459.81, 168264.89, 97299.94, 176143.91, 153602.45, 146290.38, 134553.72, 175858.80, 129471.29, 113244.35, 154965.31, 160246.77, 0.00, 0.00, 0.00, 0.00, 0.00, 0.00, 0.00
508.0, 156485.72, 168295.00, 97361.89, 176162.58, 153643.86, 146349.34, 134550.17, 175877.11, 129471.29, 113244.35, 154965.31, 160246.77, 0.00, 0.00, 0.00, 0.00, 0.00, 0.00, 0.00
512.0, 156485.72, 168295.00, 97361.89, 176162.58, 153643.86, 146349.34, 134550.17, 175877.11, 129498.90, 113253.98, 154992.72, 160286.70, 0.00, 0.00, 0.00, 0.00, 0.00, 0.00, 0.00
516.0, 156497.86, 168294.77, 97352.21, 176194.61, 153634.16, 146330.30, 134594.02, 175885.63, 129498.90, 113253.98, 154992.72, 160286.70, 0.00, 0.00, 0.00, 0.00, 0.00, 0.00, 0.00
520.0, 156497.86, 168294.77, 97352.21, 176194.61, 153634.16, 146330.30, 134594.02, 175885.63, 129491.16, 113274.81, 155035.88, 160273.30, 0.00, 0.00, 0.00, 0.00, 0.00, 0.00, 0.00
524.0, 156486.41, 168297.83, 97378.39, 176147.59, 153661.23, 146344.06, 134562.02, 175885.64, 129491.16, 113274.81, 155035.88, 160273.30, 0.00, 0.00, 0.00, 0.00, 0.00, 0.00, 0.00
528.0, 156486.41, 168297.83, 97378.39, 176147.59, 153661.23, 146344.06, 134562.02, 175885.64, 129477.17, 113242.02, 154987.89, 160264.66, 0.00, 0.00, 0.00, 0.00, 0.00, 0.00, 0.00
532.0, 156444.09, 168260.95, 97300.41, 176092.95, 153594.83, 146281.19, 134549.81, 175862.58, 129477.17, 113242.02, 154987.89, 160264.66, 0.00, 0.00, 0.00, 0.00, 0.00, 0.00, 0.00
536.0, 156444.09, 168260.95, 97300.41, 176092.95, 153594.83, 146281.19, 134549.81, 175862.58, 129453.01, 113240.02, 155000.92, 160237.23, 0.00, 0.00, 0.00, 0.00, 0.00, 0.00, 0.00
540.0, 156459.84, 168280.95, 97349.00, 176069.98, 153620.94, 146310.73, 134543.66, 175867.36, 129453.01, 113240.02, 155000.92, 160237.23, 0.00, 0.00, 0.00, 0.00, 0.00, 0.00, 0.00
544.0, 156459.84, 168280.95, 97349.00, 176069.98, 153620.94, 146310.73, 134543.66, 175867.36, 129471.29, 113226.65, 155045.58, 160266.25, 0.00, 0.00, 0.00, 0.00, 0.00, 0.00, 0.00
548.0, 156422.23, 168259.77, 97300.63, 176021.34, 153578.08, 146257.47, 134535.48, 175847.20, 129471.29, 113226.65, 155045.58, 160266.25, 0.00, 0.00, 0.00, 0.00, 0.00, 0.00, 0.00
552.0, 156422.23, 168259.77, 97300.63, 176021.34, 153578.08, 146257.47, 134535.48, 175847.20, 129429.78, 113217.10, 155031.00, 160192.59, 0.00, 0.00, 0.00, 0.00, 0.00, 0.00, 0.00
556.0, 156425.73, 168263.84, 97321.57, 175982.55, 153591.33, 146265.14, 134517.55, 175842.52, 129429.78, 113217.10, 155031.00, 160192.59, 0.00, 0.00, 0.00, 0.00, 0.00, 0.00, 0.00
560.0, 156425.73, 168263.84, 97321.57, 175982.55, 153591.33, 146265.14, 134517.55, 175842.52, 129454.28, 113208.16, 155076.28, 160263.55, 0.00, 0.00, 0.00, 0.00, 0.00, 0.00, 0.00
564.0, 156424.41, 168268.73, 97312.90, 175995.31, 153575.59, 146253.67, 134536.11, 175850.73, 129454.28, 113208.16, 155076.28, 160263.55, 0.00, 0.00, 0.00, 0.00, 0.00, 0.00, 0.00
568.0, 156424.41, 168268.73, 97312.90, 175995.31, 153575.59, 146253.67, 134536.11, 175850.73, 129415.73, 113224.70, 155084.75, 160216.58, 0.00, 0.00, 0.00, 0.00, 0.00, 0.00, 0.00
572.0, 156436.81, 168287.48, 97346.70, 175984.23, 153600.28, 146260.38, 134540.73, 175857.38, 129415.73, 113224.70, 155084.75, 160216.58, 0.00, 0.00, 0.00, 0.00, 0.00, 0.00, 0.00
576.0, 156436.81, 168287.48, 97346.70, 175984.23, 153600.28, 146260.38, 134540.73, 175857.38, 129456.20, 113215.27, 155117.22, 160250.02, 0.00, 0.00, 0.00, 0.00, 0.00, 0.00, 0.00
580.0, 156434.59, 168284.61, 97329.39, 175997.45, 153588.16, 146264.06, 134545.27, 175860.22, 129456.20, 113215.27, 155117.22, 160250.02, 0.00, 0.00, 0.00, 0.00, 0.00, 0.00, 0.00
584.0, 156434.59, 168284.61, 97329.39, 175997.45, 153588.16, 146264.06, 134545.27, 175860.22, 129425.11, 113227.01, 155084.11, 160212.69, 0.00, 0.00, 0.00, 0.00, 0.00, 0.00, 0.00
588.0, 156448.77, 168295.36, 97354.90, 175998.34, 153604.02, 146266.44, 134553.86, 175862.69, 129425.11, 113227.01, 155084.11, 160212.69, 0.00, 0.00, 0.00, 0.00, 0.00, 0.00, 0.00
592.0, 156448.77, 168295.36, 97354.90, 175998.34, 153604.02, 146266.44, 134553.86, 175862.69, 129469.79, 113222.18, 155129.58, 160275.64, 0.00, 0.00, 0.00, 0.00, 0.00, 0.00, 0.00
596.0, 156452.27, 168295.98, 97351.48, 176018.50, 153607.13, 146283.41, 134560.89, 175872.80, 129469.79, 113222.18, 155129.58, 160275.64, 0.00, 0.00, 0.00, 0.00, 0.00, 0.00, 0.00
600.0, 156452.27, 168295.98, 97351.48, 176018.50, 153607.13, 146283.41, 134560.89, 175872.80, 129436.22, 113236.03, 155094.66, 160211.27, 0.00, 0.00, 0.00, 0.00, 0.00, 0.00, 0.00
604.0, 156455.20, 168299.59, 97353.34, 176005.86, 153603.95, 146262.38, 134561.94, 175861.73, 129436.22, 113236.03, 155094.66, 160211.27, 0.00, 0.00, 0.00, 0.00, 0.00, 0.00, 0.00
608.0, 156455.20, 168299.59, 97353.34, 176005.86, 153603.95, 146262.38, 134561.94, 175861.73, 129467.47, 113218.84, 155128.83, 160278.98, 0.00, 0.00, 0.00, 0.00, 0.00, 0.00, 0.00
612.0, 156443.97, 168294.50, 97351.79, 176016.83, 153603.66, 146277.83, 134553.86, 175862.52, 129467.47, 113218.84, 155128.83, 160278.98, 0.00, 0.00, 0.00, 0.00, 0.00, 0.00, 0.00
616.0, 156443.97, 168294.50, 97351.79, 176016.83, 153603.66, 146277.83, 134553.86, 175862.52, 129423.39, 113221.15, 155076.48, 160214.73, 0.00, 0.00, 0.00, 0.00, 0.00, 0.00, 0.00
620.0, 156424.08, 168272.16, 97331.41, 175999.95, 153590.59, 146249.27, 134558.02, 175850.69, 129423.39, 113221.15, 155076.48, 160214.73, 0.00, 0.00, 0.00, 0.00, 0.00, 0.00, 0.00
624.0, 156424.08, 168272.16, 97331.41, 175999.95, 153590.59, 146249.27, 134558.02, 175850.69, 129463.80, 113219.07, 155119.02, 160257.39, 0.00, 0.00, 0.00, 0.00, 0.00, 0.00, 0.00
628.0, 156436.20, 168284.92, 97358.54, 176021.03, 153612.92, 146288.14, 134561.72, 175867.31, 129463.80, 113219.07, 155119.02, 160257.39, 0.00, 0.00, 0.00, 0.00, 0.00, 0.00, 0.00
632.0, 156436.20, 168284.92, 97358.54, 176021.03, 153612.92, 146288.14, 134561.72, 175867.31, 129426.88, 113227.54, 155089.63, 160223.83, 0.00, 0.00, 0.00, 0.00, 0.00, 0.00, 0.00
636.0, 156429.97, 168279.02, 97338.63, 176006.84, 153593.94, 146251.22, 134569.50, 175853.94, 129426.88, 113227.54, 155089.63, 160223.83, 0.00, 0.00, 0.00, 0.00, 0.00, 0.00, 0.00
640.0, 156429.97, 168279.02, 97338.63, 176006.84, 153593.94, 146251.22, 134569.50, 175853.94, 129450.50, 113211.05, 155122.94, 160259.88, 0.00, 0.00, 0.00, 0.00, 0.00, 0.00, 0.00
644.0, 156434.52, 168286.03, 97365.11, 176018.39, 153615.16, 146289.03, 134560.36, 175866.30, 129450.50, 113211.05, 155122.94, 160259.88, 0.00, 0.00, 0.00, 0.00, 0.00, 0.00, 0.00
648.0, 156434.52, 168286.03, 97365.11, 176018.39, 153615.16, 146289.03, 134560.36, 175866.30, 129426.50, 113222.71, 155085.89, 160213.92, 0.00, 0.00, 0.00, 0.00, 0.00, 0.00, 0.00
652.0, 156414.89, 168270.66, 97326.06, 176002.17, 153584.08, 146246.13, 134568.11, 175850.47, 129426.50, 113222.71, 155085.89, 160213.92, 0.00, 0.00, 0.00, 0.00, 0.00, 0.00, 0.00
656.0, 156414.89, 168270.66, 97326.06, 176002.17, 153584.08, 146246.13, 134568.11, 175850.47, 129447.38, 113211.58, 155112.78, 160254.27, 0.00, 0.00, 0.00, 0.00, 0.00, 0.00, 0.00
660.0, 156428.75, 168287.06, 97367.08, 176016.27, 153615.98, 146287.78, 134559.00, 175860.39, 129447.38, 113211.58, 155112.78, 160254.27, 0.00, 0.00, 0.00, 0.00, 0.00, 0.00, 0.00
664.0, 156428.75, 168287.06, 97367.08, 176016.27, 153615.98, 146287.78, 134559.00, 175860.39, 129428.76, 113221.66, 155091.11, 160228.09, 0.00, 0.00, 0.00, 0.00, 0.00, 0.00, 0.00
668.0, 156414.80, 168278.81, 97329.73, 176004.41, 153585.38, 146245.02, 134574.28, 175851.16, 129428.76, 113221.66, 155091.11, 160228.09, 0.00, 0.00, 0.00, 0.00, 0.00, 0.00, 0.00
672.0, 156414.80, 168278.81, 97329.73, 176004.41, 153585.38, 146245.02, 134574.28, 175851.16, 129443.35, 113213.39, 155111.28, 160233.25, 0.00, 0.00, 0.00, 0.00, 0.00, 0.00, 0.00
676.0, 156448.95, 168313.38, 97389.23, 176030.08, 153631.98, 146307.67, 134580.03, 175877.59, 129443.35, 113213.39, 155111.28, 160233.25, 0.00, 0.00, 0.00, 0.00, 0.00, 0.00, 0.00
680.0, 156448.95, 168313.38, 97389.23, 176030.08, 153631.98, 146307.67, 134580.03, 175877.59, 129456.02, 113244.69, 155119.17, 160257.11, 0.00, 0.00, 0.00, 0.00, 0.00, 0.00, 0.00
684.0, 156443.09, 168299.95, 97351.66, 176025.69, 153606.92, 146266.86, 134597.84, 175872.08, 129456.02, 113244.69, 155119.17, 160257.11, 0.00, 0.00, 0.00, 0.00, 0.00, 0.00, 0.00
688.0, 156443.09, 168299.95, 97351.66, 176025.69, 153606.92, 146266.86, 134597.84, 175872.08, 129449.19, 113226.45, 155119.73, 160247.08, 0.00, 0.00, 0.00, 0.00, 0.00, 0.00, 0.00
692.0, 156449.75, 168308.66, 97394.95, 176030.86, 153630.28, 146304.75, 134578.66, 175871.23, 129449.19, 113226.45, 155119.73, 160247.08, 0.00, 0.00, 0.00, 0.00, 0.00, 0.00, 0.00
696.0, 156449.75, 168308.66, 97394.95, 176030.86, 153630.28, 146304.75, 134578.66, 175871.23, 129441.43, 113223.25, 155107.89, 160239.05, 0.00, 0.00, 0.00, 0.00, 0.00, 0.00, 0.00
700.0, 156435.81, 168298.84, 97344.66, 176014.02, 153589.77, 146255.28, 134585.61, 175857.78, 129441.43, 113223.25, 155107.89, 160239.05, 0.00, 0.00, 0.00, 0.00, 0.00, 0.00, 0.00
704.0, 156435.81, 168298.84, 97344.66, 176014.02, 153589.77, 146255.28, 134585.61, 175857.78, 129439.51, 113222.65, 155111.48, 160240.70, 0.00, 0.00, 0.00, 0.00, 0.00, 0.00, 0.00
708.0, 156464.22, 168327.81, 97408.07, 176036.25, 153638.80, 146312.59, 134591.52, 175881.89, 129439.51, 113222.65, 155111.48, 160240.70, 0.00, 0.00, 0.00, 0.00, 0.00, 0.00, 0.00
712.0, 156464.22, 168327.81, 97408.07, 176036.25, 153638.80, 146312.59, 134591.52, 175881.89, 129464.63, 113238.07, 155127.05, 160276.28, 0.00, 0.00, 0.00, 0.00, 0.00, 0.00, 0.00
716.0, 156441.11, 168306.34, 97359.57, 176030.80, 153607.59, 146279.94, 134607.91, 175877.44, 129464.63, 113238.07, 155127.05, 160276.28, 0.00, 0.00, 0.00, 0.00, 0.00, 0.00, 0.00
720.0, 156441.11, 168306.34, 97359.57, 176030.80, 153607.59, 146279.94, 134607.91, 175877.44, 129445.99, 113234.94, 155105.72, 160237.70, 0.00, 0.00, 0.00, 0.00, 0.00, 0.00, 0.00
724.0, 156445.38, 168310.16, 97393.21, 176023.80, 153633.22, 146303.09, 134589.14, 175875.14, 129445.99, 113234.94, 155105.72, 160237.70, 0.00, 0.00, 0.00, 0.00, 0.00, 0.00, 0.00
728.0, 156445.38, 168310.16, 97393.21, 176023.80, 153633.22, 146303.09, 134589.14, 175875.14, 129460.45, 113222.02, 155108.97, 160263.98, 0.00, 0.00, 0.00, 0.00, 0.00, 0.00, 0.00
732.0, 156422.55, 168286.75, 97346.36, 176014.86, 153597.22, 146266.03, 134595.09, 175862.02, 129460.45, 113222.02, 155108.97, 160263.98, 0.00, 0.00, 0.00, 0.00, 0.00, 0.00, 0.00
736.0, 156422.55, 168286.75, 97346.36, 176014.86, 153597.22, 146266.03, 134595.09, 175862.02, 129436.66, 113227.43, 155092.33, 160236.80, 0.00, 0.00, 0.00, 0.00, 0.00, 0.00, 0.00
740.0, 156445.64, 168301.75, 97388.47, 176013.45, 153626.70, 146292.20, 134589.66, 175865.70, 129436.66, 113227.43, 155092.33, 160236.80, 0.00, 0.00, 0.00, 0.00, 0.00, 0.00, 0.00
744.0, 156445.64, 168301.75, 97388.47, 176013.45, 153626.70, 146292.20, 134589.66, 175865.70, 129458.48, 113211.85, 155117.64, 160264.02, 0.00, 0.00, 0.00, 0.00, 0.00, 0.00, 0.00
748.0, 156418.39, 168294.09, 97353.96, 176014.58, 153598.14, 146270.73, 134598.78, 175862.42, 129458.48, 113211.85, 155117.64, 160264.02, 0.00, 0.00, 0.00, 0.00, 0.00, 0.00, 0.00
752.0, 156418.39, 168294.09, 97353.96, 176014.58, 153598.14, 146270.73, 134598.78, 175862.42, 129431.33, 113226.98, 155093.20, 160236.03, 0.00, 0.00, 0.00, 0.00, 0.00, 0.00, 0.00
756.0, 156438.25, 168311.78, 97393.09, 176013.88, 153627.36, 146288.31, 134597.64, 175869.16, 129431.33, 113226.98, 155093.20, 160236.03, 0.00, 0.00, 0.00, 0.00, 0.00, 0.00, 0.00
760.0, 156438.25, 168311.78, 97393.09, 176013.88, 153627.36, 146288.31, 134597.64, 175869.16, 129474.09, 113219.56, 155133.23, 160281.50, 0.00, 0.00, 0.00, 0.00, 0.00, 0.00, 0.00
764.0, 156428.97, 168302.08, 97369.78, 176023.89, 153612.66, 146283.73, 134606.89, 175871.44, 129474.09, 113219.56, 155133.23, 160281.50, 0.00, 0.00, 0.00, 0.00, 0.00, 0.00, 0.00
768.0, 156428.97, 168302.08, 97369.78, 176023.89, 153612.66, 146283.73, 134606.89, 175871.44, 129443.62, 113239.81, 155095.73, 160240.39, 0.00, 0.00, 0.00, 0.00, 0.00, 0.00, 0.00
772.0, 156457.42, 168327.81, 97408.32, 176032.36, 153644.13, 146300.95, 134623.72, 175887.64, 129443.62, 113239.81, 155095.73, 160240.39, 0.00, 0.00, 0.00, 0.00, 0.00, 0.00, 0.00
776.0, 156457.42, 168327.81, 97408.32, 176032.36, 153644.13, 146300.95, 134623.72, 175887.64, 129502.52, 113252.04, 155159.02, 160313.30, 0.00, 0.00, 0.00, 0.00, 0.00, 0.00, 0.00
780.0, 156473.92, 168342.97, 97412.68, 176059.70, 153649.17, 146317.13, 134647.95, 175907.50, 129502.52, 113252.04, 155159.02, 160313.30, 0.00, 0.00, 0.00, 0.00, 0.00, 0.00, 0.00
784.0, 156473.92, 168342.97, 97412.68, 176059.70, 153649.17, 146317.13, 134647.95, 175907.50, 129452.67, 113253.49, 155117.81, 160267.13, 0.00, 0.00, 0.00, 0.00, 0.00, 0.00, 0.00
788.0, 156442.06, 168328.08, 97396.70, 176017.44, 153626.11, 146274.73, 134614.50, 175868.91, 129452.67, 113253.49, 155117.81, 160267.13, 0.00, 0.00, 0.00, 0.00, 0.00, 0.00, 0.00
792.0, 156442.06, 168328.08, 97396.70, 176017.44, 153626.11, 146274.73, 134614.50, 175868.91, 129444.60, 113189.32, 155122.17, 160246.80, 0.00, 0.00, 0.00, 0.00, 0.00, 0.00, 0.00
796.0, 156411.31, 168287.34, 97360.98, 175998.08, 153594.39, 146257.78, 134583.09, 175845.84, 129444.60, 113189.32, 155122.17, 160246.80, 0.00, 0.00, 0.00, 0.00, 0.00, 0.00, 0.00
800.0, 156411.31, 168287.34, 97360.98, 175998.08, 153594.39, 146257.78, 134583.09, 175845.84, 129406.60, 113206.84, 155078.72, 160225.95, 0.00, 0.00, 0.00, 0.00, 0.00, 0.00, 0.00
804.0, 156425.34, 168297.91, 97373.70, 176002.03, 153606.84, 146253.89, 134603.45, 175854.89, 129406.60, 113206.84, 155078.72, 160225.95, 0.00, 0.00, 0.00, 0.00, 0.00, 0.00, 0.00
808.0, 156425.34, 168297.91, 97373.70, 176002.03, 153606.84, 146253.89, 134603.45, 175854.89, 129457.37, 113208.70, 155128.05, 160272.70, 0.00, 0.00, 0.00, 0.00, 0.00, 0.00, 0.00
812.0, 156430.98, 168301.64, 97383.17, 176015.72, 153621.66, 146286.39, 134602.95, 175868.06, 129457.37, 113208.70, 155128.05, 160272.70, 0.00, 0.00, 0.00, 0.00, 0.00, 0.00, 0.00
816.0, 156430.98, 168301.64, 97383.17, 176015.72, 153621.66, 146286.39, 134602.95, 175868.06, 129421.05, 113216.72, 155093.34, 160237.69, 0.00, 0.00, 0.00, 0.00, 0.00, 0.00, 0.00
820.0, 156420.92, 168306.63, 97375.88, 176004.73, 153609.36, 146261.89, 134617.53, 175864.84, 129421.05, 113216.72, 155093.34, 160237.69, 0.00, 0.00, 0.00, 0.00, 0.00, 0.00, 0.00
824.0, 156420.92, 168306.63, 97375.88, 176004.73, 153609.36, 146261.89, 134617.53, 175864.84, 129463.55, 113216.74, 155137.28, 160271.28, 0.00, 0.00, 0.00, 0.00, 0.00, 0.00, 0.00
828.0, 156430.56, 168314.22, 97397.97, 176021.20, 153634.63, 146297.77, 134614.94, 175878.86, 129463.55, 113216.74, 155137.28, 160271.28, 0.00, 0.00, 0.00, 0.00, 0.00, 0.00, 0.00
832.0, 156430.56, 168314.22, 97397.97, 176021.20, 153634.63, 146297.77, 134614.94, 175878.86, 129429.02, 113221.51, 155091.22, 160255.39, 0.00, 0.00, 0.00, 0.00, 0.00, 0.00, 0.00
836.0, 156411.44, 168302.34, 97368.64, 176002.33, 153608.06, 146255.48, 134624.17, 175864.64, 129429.02, 113221.51, 155091.22, 160255.39, 0.00, 0.00, 0.00, 0.00, 0.00, 0.00, 0.00
840.0, 156411.44, 168302.34, 97368.64, 176002.33, 153608.06, 146255.48, 134624.17, 175864.64, 129464.20, 113221.35, 155133.22, 160282.03, 0.00, 0.00, 0.00, 0.00, 0.00, 0.00, 0.00
844.0, 156439.19, 168319.47, 97411.65, 176030.02, 153644.03, 146311.41, 134624.91, 175884.64, 129464.20, 113221.35, 155133.22, 160282.03, 0.00, 0.00, 0.00, 0.00, 0.00, 0.00, 0.00
848.0, 156439.19, 168319.47, 97411.65, 176030.02, 153644.03, 146311.41, 134624.91, 175884.64, 129444.40, 113232.95, 155107.11, 160252.55, 0.00, 0.00, 0.00, 0.00, 0.00, 0.00, 0.00
852.0, 156422.89, 168314.28, 97379.62, 176013.77, 153611.31, 146262.91, 134638.83, 175871.63, 129444.40, 113232.95, 155107.11, 160252.55, 0.00, 0.00, 0.00, 0.00, 0.00, 0.00, 0.00
856.0, 156422.89, 168314.28, 97379.62, 176013.77, 153611.31, 146262.91, 134638.83, 175871.63, 129460.72, 113220.48, 155130.88, 160271.25, 0.00, 0.00, 0.00, 0.00, 0.00, 0.00, 0.00
860.0, 156439.94, 168321.13, 97413.21, 176024.66, 153641.81, 146306.33, 134623.02, 175881.11, 129460.72, 113220.48, 155130.88, 160271.25, 0.00, 0.00, 0.00, 0.00, 0.00, 0.00, 0.00
864.0, 156439.94, 168321.13, 97413.21, 176024.66, 153641.81, 146306.33, 134623.02, 175881.11, 129433.94, 113216.25, 155093.30, 160253.73, 0.00, 0.00, 0.00, 0.00, 0.00, 0.00, 0.00
868.0, 156405.30, 168296.63, 97358.92, 175997.09, 153594.30, 146244.75, 134626.47, 175855.81, 129433.94, 113216.25, 155093.30, 160253.73, 0.00, 0.00, 0.00, 0.00, 0.00, 0.00, 0.00
872.0, 156405.30, 168296.63, 97358.92, 175997.09, 153594.30, 146244.75, 134626.47, 175855.81, 129437.09, 113197.88, 155109.45, 160246.83, 0.00, 0.00, 0.00, 0.00, 0.00, 0.00, 0.00
876.0, 156418.86, 168306.16, 97408.43, 176012.94, 153636.72, 146298.52, 134617.36, 175871.39, 129437.09, 113197.88, 155109.45, 160246.83, 0.00, 0.00, 0.00, 0.00, 0.00, 0.00, 0.00
880.0, 156418.86, 168306.16, 97408.43, 176012.94, 153636.72, 146298.52, 134617.36, 175871.39, 129437.12, 113212.05, 155102.28, 160241.89, 0.00, 0.00, 0.00, 0.00, 0.00, 0.00, 0.00
884.0, 156404.22, 168291.48, 97364.91, 176003.52, 153596.09, 146255.03, 134637.72, 175862.41, 129437.12, 113212.05, 155102.28, 160241.89, 0.00, 0.00, 0.00, 0.00, 0.00, 0.00, 0.00
888.0, 156404.22, 168291.48, 97364.91, 176003.52, 153596.09, 146255.03, 134637.72, 175862.41, 129445.70, 113211.00, 155111.38, 160258.97, 0.00, 0.00, 0.00, 0.00, 0.00, 0.00, 0.00
892.0, 156438.95, 168318.89, 97421.75, 176022.22, 153649.34, 146312.03, 134633.84, 175882.70, 129445.70, 113211.00, 155111.38, 160258.97, 0.00, 0.00, 0.00, 0.00, 0.00, 0.00, 0.00
896.0, 156438.95, 168318.89, 97421.75, 176022.22, 153649.34, 146312.03, 134633.84, 175882.70, 129454.48, 113220.81, 155124.91, 160271.14, 0.00, 0.00, 0.00, 0.00, 0.00, 0.00, 0.00
900.0, 156430.44, 168322.17, 97406.33, 176039.19, 153631.05, 146272.97, 134668.31, 175885.14, 129454.48, 113220.81, 155124.91, 160271.14, 0.00, 0.00, 0.00, 0.00, 0.00, 0.00, 0.00
904.0, 156430.44, 168322.17, 97406.33, 176039.19, 153631.05, 146272.97, 134668.31, 175885.14, 129462.06, 113239.99, 155151.33, 160266.11, 0.00, 0.00, 0.00, 0.00, 0.00, 0.00, 0.00
908.0, 156467.70, 168338.80, 97448.62, 176053.69, 153658.66, 146324.11, 134652.45, 175891.59, 129462.06, 113239.99, 155151.33, 160266.11, 0.00, 0.00, 0.00, 0.00, 0.00, 0.00, 0.00
912.0, 156467.70, 168338.80, 97448.62, 176053.69, 153658.66, 146324.11, 134652.45, 175891.59, 129470.40, 113223.79, 155073.89, 160276.95, 0.00, 0.00, 0.00, 0.00, 0.00, 0.00, 0.00
916.0, 156429.77, 168303.78, 97371.64, 176023.48, 153591.39, 146265.72, 134644.25, 175864.97, 129470.40, 113223.79, 155073.89, 160276.95, 0.00, 0.00, 0.00, 0.00, 0.00, 0.00, 0.00
920.0, 156429.77, 168303.78, 97371.64, 176023.48, 153591.39, 146265.72, 134644.25, 175864.97, 129440.63, 113214.89, 155048.33, 160248.30, 0.00, 0.00, 0.00, 0.00, 0.00, 0.00, 0.00
924.0, 156448.84, 168317.95, 97421.28, 176037.33, 153629.77, 146297.69, 134624.31, 175862.88, 129440.63, 113214.89, 155048.33, 160248.30, 0.00, 0.00, 0.00, 0.00, 0.00, 0.00, 0.00
928.0, 156448.84, 168317.95, 97421.28, 176037.33, 153629.77, 146297.69, 134624.31, 175862.88, 129458.05, 113202.41, 155042.36, 160264.59, 0.00, 0.00, 0.00, 0.00, 0.00, 0.00, 0.00
932.0, 156432.14, 168301.80, 97375.73, 176041.70, 153597.06, 146268.48, 134643.69, 175863.67, 129458.05, 113202.41, 155042.36, 160264.59, 0.00, 0.00, 0.00, 0.00, 0.00, 0.00, 0.00
936.0, 156432.14, 168301.80, 97375.73, 176041.70, 153597.06, 146268.48, 134643.69, 175863.67, 129437.36, 113219.05, 155024.41, 160223.25, 0.00, 0.00, 0.00, 0.00, 0.00, 0.00, 0.00
940.0, 156453.25, 168325.08, 97424.73, 176057.95, 153634.75, 146302.80, 134638.03, 175870.61, 129437.36, 113219.05, 155024.41, 160223.25, 0.00, 0.00, 0.00, 0.00, 0.00, 0.00, 0.00
944.0, 156453.25, 168325.08, 97424.73, 176057.95, 153634.75, 146302.80, 134638.03, 175870.61, 129475.98, 113215.63, 155050.02, 160294.88, 0.00, 0.00, 0.00, 0.00, 0.00, 0.00, 0.00
948.0, 156434.11, 168305.30, 97382.55, 176055.94, 153603.06, 146279.64, 134647.13, 175867.25, 129475.98, 113215.63, 155050.02, 160294.88, 0.00, 0.00, 0.00, 0.00, 0.00, 0.00, 0.00
952.0, 156434.11, 168305.30, 97382.55, 176055.94, 153603.06, 146279.64, 134647.13, 175867.25, 129441.65, 113224.61, 155017.77, 160231.94, 0.00, 0.00, 0.00, 0.00, 0.00, 0.00, 0.00
956.0, 156466.41, 168333.75, 97430.13, 176065.92, 153646.73, 146307.81, 134655.06, 175880.64, 129441.65, 113224.61, 155017.77, 160231.94, 0.00, 0.00, 0.00, 0.00, 0.00, 0.00, 0.00
960.0, 156466.41, 168333.75, 97430.13, 176065.92, 153646.73, 146307.81, 134655.06, 175880.64, 129490.22, 113218.82, 155065.84, 160288.22, 0.00, 0.00, 0.00, 0.00, 0.00, 0.00, 0.00
964.0, 156440.88, 168319.05, 97399.78, 176065.98, 153619.16, 146296.44, 134654.45, 175872.80, 129490.22, 113218.82, 155065.84, 160288.22, 0.00, 0.00, 0.00, 0.00, 0.00, 0.00, 0.00
968.0, 156440.88, 168319.05, 97399.78, 176065.98, 153619.16, 146296.44, 134654.45, 175872.80, 129442.28, 113233.89, 155018.08, 160243.73, 0.00, 0.00, 0.00, 0.00, 0.00, 0.00, 0.00
972.0, 156446.78, 168323.36, 97425.62, 176067.88, 153639.05, 146302.20, 134663.89, 175879.44, 129442.28, 113233.89, 155018.08, 160243.73, 0.00, 0.00, 0.00, 0.00, 0.00, 0.00, 0.00
976.0, 156446.78, 168323.36, 97425.62, 176067.88, 153639.05, 146302.20, 134663.89, 175879.44, 129483.31, 113219.20, 155066.73, 160307.33, 0.00, 0.00, 0.00, 0.00, 0.00, 0.00, 0.00
980.0, 156435.39, 168310.73, 97405.28, 176071.28, 153632.31, 146295.94, 134664.14, 175882.63, 129483.31, 113219.20, 155066.73, 160307.33, 0.00, 0.00, 0.00, 0.00, 0.00, 0.00, 0.00
984.0, 156435.39, 168310.73, 97405.28, 176071.28, 153632.31, 146295.94, 134664.14, 175882.63, 129436.76, 113228.39, 155021.19, 160234.39, 0.00, 0.00, 0.00, 0.00, 0.00, 0.00, 0.00
988.0, 156442.92, 168323.83, 97420.61, 176065.64, 153642.89, 146285.55, 134671.89, 175882.16, 129436.76, 113228.39, 155021.19, 160234.39, 0.00, 0.00, 0.00, 0.00, 0.00, 0.00, 0.00
992.0, 156442.92, 168323.83, 97420.61, 176065.64, 153642.89, 146285.55, 134671.89, 175882.16, 129494.76, 113230.45, 155078.98, 160315.72, 0.00, 0.00, 0.00, 0.00, 0.00, 0.00, 0.00
996.0, 156453.98, 168329.19, 97427.00, 176088.69, 153647.70, 146315.72, 134676.34, 175893.58, 129494.76, 113230.45, 155078.98, 160315.72, 0.00, 0.00, 0.00, 0.00, 0.00, 0.00, 0.00
1000.0, 156453.98, 168329.19, 97427.00, 176088.69, 153647.70, 146315.72, 134676.34, 175893.58, 129441.23, 113229.09, 155024.42, 160252.56, 0.00, 0.00, 0.00, 0.00, 0.00, 0.00, 0.00
1004.0, 156444.25, 168320.70, 97412.54, 176066.78, 153630.52, 146281.77, 134673.34, 175877.02, 129441.23, 113229.09, 155024.42, 160252.56, 0.00, 0.00, 0.00, 0.00, 0.00, 0.00, 0.00
1008.0, 156444.25, 168320.70, 97412.54, 176066.78, 153630.52, 146281.77, 134673.34, 175877.02, 129481.98, 113213.41, 155064.95, 160296.88, 0.00, 0.00, 0.00, 0.00, 0.00, 0.00, 0.00
1012.0, 156442.22, 168316.81, 97424.77, 176082.13, 153643.94, 146316.64, 134667.78, 175886.66, 129481.98, 113213.41, 155064.95, 160296.88, 0.00, 0.00, 0.00, 0.00, 0.00, 0.00, 0.00
1016.0, 156442.22, 168316.81, 97424.77, 176082.13, 153643.94, 146316.64, 134667.78, 175886.66, 129451.29, 113240.37, 155025.92, 160242.80, 0.00, 0.00, 0.00, 0.00, 0.00, 0.00, 0.00
1020.0, 156447.98, 168325.23, 97417.68, 176078.39, 153638.44, 146289.25, 134691.67, 175890.45, 129451.29, 113240.37, 155025.92, 160242.80, 0.00, 0.00, 0.00, 0.00, 0.00, 0.00, 0.00
1024.0, 156447.98, 168325.23, 97417.68, 176078.39, 153638.44, 146289.25, 134691.67, 175890.45, 129488.23, 113225.53, 155075.81, 160320.45, 0.00, 0.00, 0.00, 0.00, 0.00, 0.00, 0.00
1028.0, 156462.14, 168333.02, 97445.94, 176092.78, 153659.28, 146328.69, 134676.75, 175893.67, 129488.23, 113225.53, 155075.81, 160320.45, 0.00, 0.00, 0.00, 0.00, 0.00, 0.00, 0.00
1032.0, 156462.14, 168333.02, 97445.94, 176092.78, 153659.28, 146328.69, 134676.75, 175893.67, 129448.56, 113230.20, 155033.91, 160251.41, 0.00, 0.00, 0.00, 0.00, 0.00, 0.00, 0.00
1036.0, 156446.50, 168322.11, 97413.86, 176074.86, 153630.38, 146281.67, 134692.39, 175881.69, 129448.56, 113230.20, 155033.91, 160251.41, 0.00, 0.00, 0.00, 0.00, 0.00, 0.00, 0.00
1040.0, 156446.50, 168322.11, 97413.86, 176074.86, 153630.38, 146281.67, 134692.39, 175881.69, 129478.53, 113221.48, 155068.84, 160277.38, 0.00, 0.00, 0.00, 0.00, 0.00, 0.00, 0.00
1044.0, 156451.00, 168326.28, 97445.06, 176084.25, 153655.88, 146324.86, 134670.80, 175883.19, 129478.53, 113221.48, 155068.84, 160277.38, 0.00, 0.00, 0.00, 0.00, 0.00, 0.00, 0.00
1048.0, 156451.00, 168326.28, 97445.06, 176084.25, 153655.88, 146324.86, 134670.80, 175883.19, 129438.68, 113217.55, 155023.05, 160258.53, 0.00, 0.00, 0.00, 0.00, 0.00, 0.00, 0.00
1052.0, 156433.23, 168312.55, 97401.48, 176060.95, 153618.86, 146265.91, 134686.83, 175871.44, 129438.68, 113217.55, 155023.05, 160258.53, 0.00, 0.00, 0.00, 0.00, 0.00, 0.00, 0.00
1056.0, 156433.23, 168312.55, 97401.48, 176060.95, 153618.86, 146265.91, 134686.83, 175871.44, 129464.61, 113210.45, 155053.98, 160276.67, 0.00, 0.00, 0.00, 0.00, 0.00, 0.00, 0.00
1060.0, 156460.44, 168326.95, 97453.42, 176085.11, 153666.06, 146327.28, 134677.58, 175887.34, 129464.61, 113210.45, 155053.98, 160276.67, 0.00, 0.00, 0.00, 0.00, 0.00, 0.00, 0.00
1064.0, 156460.44, 168326.95, 97453.42, 176085.11, 153666.06, 146327.28, 134677.58, 175887.34, 129456.70, 113227.77, 155037.80, 160259.97, 0.00, 0.00, 0.00, 0.00, 0.00, 0.00, 0.00
1068.0, 156425.53, 168309.23, 97396.78, 176062.47, 153620.27, 146264.64, 134692.17, 175873.06, 129456.70, 113227.77, 155037.80, 160259.97, 0.00, 0.00, 0.00, 0.00, 0.00, 0.00, 0.00
1072.0, 156425.53, 168309.23, 97396.78, 176062.47, 153620.27, 146264.64, 134692.17, 175873.06, 129465.05, 113218.96, 155045.27, 160269.88, 0.00, 0.00, 0.00, 0.00, 0.00, 0.00, 0.00
1076.0, 156461.88, 168335.88, 97460.58, 176088.17, 153668.80, 146330.50, 134685.27, 175893.89, 129465.05, 113218.96, 155045.27, 160269.88, 0.00, 0.00, 0.00, 0.00, 0.00, 0.00, 0.00
1080.0, 156461.88, 168335.88, 97460.58, 176088.17, 153668.80, 146330.50, 134685.27, 175893.89, 129464.18, 113225.75, 155045.13, 160282.92, 0.00, 0.00, 0.00, 0.00, 0.00, 0.00, 0.00
1084.0, 156427.92, 168308.86, 97398.64, 176068.81, 153618.11, 146267.11, 134702.09, 175878.27, 129464.18, 113225.75, 155045.13, 160282.92, 0.00, 0.00, 0.00, 0.00, 0.00, 0.00, 0.00
1088.0, 156427.92, 168308.86, 97398.64, 176068.81, 153618.11, 146267.11, 134702.09, 175878.27, 129462.23, 113223.59, 155042.88, 160260.58, 0.00, 0.00, 0.00, 0.00, 0.00, 0.00, 0.00
1092.0, 156461.52, 168337.03, 97465.25, 176093.00, 153673.78, 146336.42, 134694.41, 175899.11, 129462.23, 113223.59, 155042.88, 160260.58, 0.00, 0.00, 0.00, 0.00, 0.00, 0.00, 0.00
1096.0, 156461.52, 168337.03, 97465.25, 176093.00, 153673.78, 146336.42, 134694.41, 175899.11, 129476.43, 113228.63, 155048.59, 160283.48, 0.00, 0.00, 0.00, 0.00, 0.00, 0.00, 0.00
1100.0, 156431.70, 168312.50, 97398.70, 176071.33, 153621.52, 146269.45, 134704.48, 175881.06, 129476.43, 113228.63, 155048.59, 160283.48, 0.00, 0.00, 0.00, 0.00, 0.00, 0.00, 0.00
1104.0, 156431.70, 168312.50, 97398.70, 176071.33, 153621.52, 146269.45, 134704.48, 175881.06, 129455.47, 113229.13, 155035.83, 160266.45, 0.00, 0.00, 0.00, 0.00, 0.00, 0.00, 0.00
1108.0, 156463.17, 168341.53, 97463.57, 176091.47, 153672.08, 146329.20, 134696.38, 175895.28, 129455.47, 113229.13, 155035.83, 160266.45, 0.00, 0.00, 0.00, 0.00, 0.00, 0.00, 0.00
1112.0, 156463.17, 168341.53, 97463.57, 176091.47, 153672.08, 146329.20, 134696.38, 175895.28, 129467.45, 113215.31, 155046.27, 160278.45, 0.00, 0.00, 0.00, 0.00, 0.00, 0.00, 0.00
1116.0, 156420.19, 168302.97, 97392.45, 176066.86, 153616.45, 146265.20, 134697.89, 175872.30, 129467.45, 113215.31, 155046.27, 160278.45, 0.00, 0.00, 0.00, 0.00, 0.00, 0.00, 0.00
1120.0, 156420.19, 168302.97, 97392.45, 176066.86, 153616.45, 146265.20, 134697.89, 175872.30, 129443.10, 113219.49, 155025.97, 160232.55, 0.00, 0.00, 0.00, 0.00, 0.00, 0.00, 0.00
1124.0, 156461.16, 168338.67, 97461.91, 176085.53, 153670.52, 146323.56, 134702.41, 175892.31, 129443.10, 113219.49, 155025.97, 160232.55, 0.00, 0.00, 0.00, 0.00, 0.00, 0.00, 0.00
1128.0, 156461.16, 168338.67, 97461.91, 176085.53, 153670.52, 146323.56, 134702.41, 175892.31, 129484.37, 113221.69, 155079.75, 160299.00, 0.00, 0.00, 0.00, 0.00, 0.00, 0.00, 0.00
1132.0, 156449.00, 168337.53, 97440.99, 176103.33, 153650.02, 146299.34, 134729.73, 175894.31, 129484.37, 113221.69, 155079.75, 160299.00, 0.00, 0.00, 0.00, 0.00, 0.00, 0.00, 0.00
1136.0, 156449.00, 168337.53, 97440.99, 176103.33, 153650.02, 146299.34, 134729.73, 175894.31, 129457.41, 113235.77, 155062.58, 160247.11, 0.00, 0.00, 0.00, 0.00, 0.00, 0.00, 0.00
1140.0, 156459.56, 168348.22, 97462.37, 176065.27, 153659.09, 146311.75, 134701.80, 175890.03, 129457.41, 113235.77, 155062.58, 160247.11, 0.00, 0.00, 0.00, 0.00, 0.00, 0.00, 0.00
1144.0, 156459.56, 168348.22, 97462.37, 176065.27, 153659.09, 146311.75, 134701.80, 175890.03, 129488.68, 113222.65, 155069.77, 160307.67, 0.00, 0.00, 0.00, 0.00, 0.00, 0.00, 0.00
1148.0, 156450.98, 168339.05, 97431.16, 176060.55, 153622.86, 146283.95, 134704.48, 175883.92, 129488.68, 113222.65, 155069.77, 160307.67, 0.00, 0.00, 0.00, 0.00, 0.00, 0.00, 0.00
1152.0, 156450.98, 168339.05, 97431.16, 176060.55, 153622.86, 146283.95, 134704.48, 175883.92, 129442.14, 113223.56, 155059.55, 160224.73, 0.00, 0.00, 0.00, 0.00, 0.00, 0.00, 0.00
1156.0, 156461.53, 168353.09, 97466.41, 176045.28, 153643.30, 146294.47, 134696.70, 175878.97, 129442.14, 113223.56, 155059.55, 160224.73, 0.00, 0.00, 0.00, 0.00, 0.00, 0.00, 0.00
1160.0, 156461.53, 168353.09, 97466.41, 176045.28, 153643.30, 146294.47, 134696.70, 175878.97, 129482.65, 113207.78, 155101.59, 160301.44, 0.00, 0.00, 0.00, 0.00, 0.00, 0.00, 0.00
1164.0, 156451.41, 168344.64, 97451.21, 176052.33, 153625.44, 146285.72, 134702.66, 175879.33, 129482.65, 113207.78, 155101.59, 160301.44, 0.00, 0.00, 0.00, 0.00, 0.00, 0.00, 0.00
1168.0, 156451.41, 168344.64, 97451.21, 176052.33, 153625.44, 146285.72, 134702.66, 175879.33, 129430.61, 113223.20, 155057.64, 160228.45, 0.00, 0.00, 0.00, 0.00, 0.00, 0.00, 0.00
1172.0, 156458.09, 168352.59, 97471.91, 176042.56, 153641.28, 146279.02, 134708.45, 175880.81, 129430.61, 113223.20, 155057.64, 160228.45, 0.00, 0.00, 0.00, 0.00, 0.00, 0.00, 0.00
1176.0, 156458.09, 168352.59, 97471.91, 176042.56, 153641.28, 146279.02, 134708.45, 175880.81, 129482.24, 113209.37, 155106.45, 160298.55, 0.00, 0.00, 0.00, 0.00, 0.00, 0.00, 0.00
1180.0, 156455.92, 168342.05, 97459.15, 176058.25, 153635.30, 146293.13, 134709.13, 175887.33, 129482.24, 113209.37, 155106.45, 160298.55, 0.00, 0.00, 0.00, 0.00, 0.00, 0.00, 0.00
1184.0, 156455.92, 168342.05, 97459.15, 176058.25, 153635.30, 146293.13, 134709.13, 175887.33, 129437.52, 113224.99, 155058.03, 160238.00, 0.00, 0.00, 0.00, 0.00, 0.00, 0.00, 0.00
1188.0, 156464.98, 168354.97, 97473.49, 176054.06, 153643.50, 146278.30, 134719.61, 175885.58, 129437.52, 113224.99, 155058.03, 160238.00, 0.00, 0.00, 0.00, 0.00, 0.00, 0.00, 0.00
1192.0, 156464.98, 168354.97, 97473.49, 176054.06, 153643.50, 146278.30, 134719.61, 175885.58, 129486.29, 113212.66, 155107.17, 160292.58, 0.00, 0.00, 0.00, 0.00, 0.00, 0.00, 0.00
1196.0, 156463.91, 168347.36, 97474.73, 176067.52, 153647.14, 146303.38, 134714.50, 175891.80, 129486.29, 113212.66, 155107.17, 160292.58, 0.00, 0.00, 0.00, 0.00, 0.00, 0.00, 0.00
1200.0, 156463.91, 168347.36, 97474.73, 176067.52, 153647.14, 146303.38, 134714.50, 175891.80, 129442.66, 113225.04, 155060.17, 160245.89, 0.00, 0.00, 0.00, 0.00, 0.00, 0.00, 0.00
1204.0, 156461.95, 168348.75, 97466.74, 176052.45, 153637.69, 146270.66, 134726.50, 175884.03, 129442.66, 113225.04, 155060.17, 160245.89, 0.00, 0.00, 0.00, 0.00, 0.00, 0.00, 0.00
1208.0, 156461.95, 168348.75, 97466.74, 176052.45, 153637.69, 146270.66, 134726.50, 175884.03, 129481.91, 113212.25, 155105.61, 160295.84, 0.00, 0.00, 0.00, 0.00, 0.00, 0.00, 0.00
1212.0, 156465.16, 168355.95, 97486.02, 176066.09, 153655.98, 146305.70, 134718.19, 175891.22, 129481.91, 113212.25, 155105.61, 160295.84, 0.00, 0.00, 0.00, 0.00, 0.00, 0.00, 0.00
1216.0, 156465.16, 168355.95, 97486.02, 176066.09, 153655.98, 146305.70, 134718.19, 175891.22, 129438.14, 113215.98, 155063.14, 160225.39, 0.00, 0.00, 0.00, 0.00, 0.00, 0.00, 0.00
1220.0, 156452.59, 168347.52, 97463.57, 176052.23, 153634.31, 146259.06, 134730.98, 175880.58, 129438.14, 113215.98, 155063.14, 160225.39, 0.00, 0.00, 0.00, 0.00, 0.00, 0.00, 0.00
1224.0, 156452.59, 168347.52, 97463.57, 176052.23, 153634.31, 146259.06, 134730.98, 175880.58, 129485.22, 113220.63, 155107.91, 160291.02, 0.00, 0.00, 0.00, 0.00, 0.00, 0.00, 0.00
1228.0, 156468.44, 168362.45, 97502.40, 176078.39, 153669.44, 146315.72, 134729.63, 175902.34, 129485.22, 113220.63, 155107.91, 160291.02, 0.00, 0.00, 0.00, 0.00, 0.00, 0.00, 0.00
1232.0, 156468.44, 168362.45, 97502.40, 176078.39, 153669.44, 146315.72, 134729.63, 175902.34, 129457.21, 113237.64, 155074.41, 160270.08, 0.00, 0.00, 0.00, 0.00, 0.00, 0.00, 0.00
1236.0, 156457.33, 168354.11, 97464.29, 176060.03, 153637.33, 146253.66, 134742.45, 175887.80, 129457.21, 113237.64, 155074.41, 160270.08, 0.00, 0.00, 0.00, 0.00, 0.00, 0.00, 0.00
1240.0, 156457.33, 168354.11, 97464.29, 176060.03, 153637.33, 146253.66, 134742.45, 175887.80, 129479.36, 113218.38, 155101.97, 160283.28, 0.00, 0.00, 0.00, 0.00, 0.00, 0.00, 0.00
1244.0, 156488.89, 168366.95, 97509.91, 176080.63, 153673.95, 146315.70, 134732.33, 175899.34, 129479.36, 113218.38, 155101.97, 160283.28, 0.00, 0.00, 0.00, 0.00, 0.00, 0.00, 0.00
1248.0, 156488.89, 168366.95, 97509.91, 176080.63, 153673.95, 146315.70, 134732.33, 175899.34, 129454.84, 113222.83, 155073.36, 160246.72, 0.00, 0.00, 0.00, 0.00, 0.00, 0.00, 0.00
1252.0, 156443.20, 168336.56, 97454.27, 176052.14, 153626.16, 146252.33, 134742.56, 175880.38, 129454.84, 113222.83, 155073.36, 160246.72, 0.00, 0.00, 0.00, 0.00, 0.00, 0.00, 0.00
1256.0, 156443.20, 168336.56, 97454.27, 176052.14, 153626.16, 146252.33, 134742.56, 175880.38, 129464.88, 113215.47, 155084.89, 160280.91, 0.00, 0.00, 0.00, 0.00, 0.00, 0.00, 0.00
1260.0, 156463.39, 168354.72, 97508.54, 176070.72, 153675.75, 146320.22, 134733.19, 175899.44, 129464.88, 113215.47, 155084.89, 160280.91, 0.00, 0.00, 0.00, 0.00, 0.00, 0.00, 0.00
1264.0, 156463.39, 168354.72, 97508.54, 176070.72, 153675.75, 146320.22, 134733.19, 175899.44, 129461.92, 113222.38, 155075.95, 160266.47, 0.00, 0.00, 0.00, 0.00, 0.00, 0.00, 0.00
1268.0, 156444.30, 168338.11, 97456.84, 176057.13, 153628.19, 146255.50, 134749.28, 175885.14, 129461.92, 113222.38, 155075.95, 160266.47, 0.00, 0.00, 0.00, 0.00, 0.00, 0.00, 0.00
1272.0, 156444.30, 168338.11, 97456.84, 176057.13, 153628.19, 146255.50, 134749.28, 175885.14, 129472.03, 113220.27, 155089.97, 160266.88, 0.00, 0.00, 0.00, 0.00, 0.00, 0.00, 0.00
1276.0, 156477.11, 168370.16, 97522.65, 176079.58, 153683.89, 146328.38, 134746.45, 175907.33, 129472.03, 113220.27, 155089.97, 160266.88, 0.00, 0.00, 0.00, 0.00, 0.00, 0.00, 0.00
1280.0, 156477.11, 168370.16, 97522.65, 176079.58, 153683.89, 146328.38, 134746.45, 175907.33, 129481.55, 113241.04, 155093.14, 160296.83, 0.00, 0.00, 0.00, 0.00, 0.00, 0.00, 0.00
1284.0, 156452.55, 168352.23, 97467.17, 176065.98, 153637.95, 146268.05, 134761.44, 175892.31, 129481.55, 113241.04, 155093.14, 160296.83, 0.00, 0.00, 0.00, 0.00, 0.00, 0.00, 0.00
1288.0, 156452.55, 168352.23, 97467.17, 176065.98, 153637.95, 146268.05, 134761.44, 175892.31, 129462.51, 113220.48, 155083.61, 160261.59, 0.00, 0.00, 0.00, 0.00, 0.00, 0.00, 0.00
1292.0, 156480.53, 168373.77, 97524.34, 176073.42, 153681.58, 146319.59, 134745.66, 175900.88, 129462.51, 113220.48, 155083.61, 160261.59, 0.00, 0.00, 0.00, 0.00, 0.00, 0.00, 0.00
1296.0, 156480.53, 168373.77, 97524.34, 176073.42, 153681.58, 146319.59, 134745.66, 175900.88, 129476.43, 113219.85, 155087.17, 160269.98, 0.00, 0.00, 0.00, 0.00, 0.00, 0.00, 0.00
1300.0, 156443.77, 168343.98, 97461.94, 176058.09, 153632.23, 146263.34, 134752.09, 175882.11, 129476.43, 113219.85, 155087.17, 160269.98, 0.00, 0.00, 0.00, 0.00, 0.00, 0.00, 0.00
1304.0, 156443.77, 168343.98, 97461.94, 176058.09, 153632.23, 146263.34, 134752.09, 175882.11, 129457.23, 113217.39, 155073.80, 160259.45, 0.00, 0.00, 0.00, 0.00, 0.00, 0.00, 0.00
1308.0, 156471.66, 168366.00, 97522.22, 176073.42, 153683.34, 146319.91, 134748.05, 175894.97, 129457.23, 113217.39, 155073.80, 160259.45, 0.00, 0.00, 0.00, 0.00, 0.00, 0.00, 0.00
1312.0, 156471.66, 168366.00, 97522.22, 176073.42, 153683.34, 146319.91, 134748.05, 175894.97, 129474.38, 113212.72, 155092.98, 160283.42, 0.00, 0.00, 0.00, 0.00, 0.00, 0.00, 0.00
1316.0, 156446.73, 168341.83, 97462.34, 176055.20, 153635.36, 146262.23, 134753.52, 175882.98, 129474.38, 113212.72, 155092.98, 160283.42, 0.00, 0.00, 0.00, 0.00, 0.00, 0.00, 0.00
1320.0, 156446.73, 168341.83, 97462.34, 176055.20, 153635.36, 146262.23, 134753.52, 175882.98, 129445.43, 113212.63, 155064.28, 160235.83, 0.00, 0.00, 0.00, 0.00, 0.00, 0.00, 0.00
1324.0, 156466.66, 168365.83, 97520.13, 176068.53, 153679.89, 146308.23, 134753.28, 175893.41, 129445.43, 113212.63, 155064.28, 160235.83, 0.00, 0.00, 0.00, 0.00, 0.00, 0.00, 0.00
1328.0, 156466.66, 168365.83, 97520.13, 176068.53, 153679.89, 146308.23, 134753.28, 175893.41, 129484.16, 113217.82, 155097.23, 160300.33, 0.00, 0.00, 0.00, 0.00, 0.00, 0.00, 0.00
1332.0, 156452.64, 168349.16, 97479.15, 176070.09, 153647.89, 146283.41, 134765.69, 175893.02, 129484.16, 113217.82, 155097.23, 160300.33, 0.00, 0.00, 0.00, 0.00, 0.00, 0.00, 0.00
1336.0, 156452.64, 168349.16, 97479.15, 176070.09, 153647.89, 146283.41, 134765.69, 175893.02, 129455.78, 113233.11, 155070.30, 160238.16, 0.00, 0.00, 0.00, 0.00, 0.00, 0.00, 0.00
1340.0, 156473.94, 168371.95, 97522.96, 176075.55, 153684.17, 146314.63, 134770.23, 175903.63, 129455.78, 113233.11, 155070.30, 160238.16, 0.00, 0.00, 0.00, 0.00, 0.00, 0.00, 0.00
1344.0, 156473.94, 168371.95, 97522.96, 176075.55, 153684.17, 146314.63, 134770.23, 175903.63, 129496.26, 113225.46, 155100.22, 160317.75, 0.00, 0.00, 0.00, 0.00, 0.00, 0.00, 0.00
1348.0, 156442.05, 168347.59, 97480.65, 176072.86, 153655.72, 146291.20, 134769.84, 175897.25, 129496.26, 113225.46, 155100.22, 160317.75, 0.00, 0.00, 0.00, 0.00, 0.00, 0.00, 0.00
1352.0, 156442.05, 168347.59, 97480.65, 176072.86, 153655.72, 146291.20, 134769.84, 175897.25, 129450.98, 113233.46, 155061.06, 160251.45, 0.00, 0.00, 0.00, 0.00, 0.00, 0.00, 0.00
1356.0, 156457.91, 168362.20, 97512.09, 176071.13, 153679.81, 146304.19, 134772.05, 175900.67, 129450.98, 113233.46, 155061.06, 160251.45, 0.00, 0.00, 0.00, 0.00, 0.00, 0.00, 0.00
1360.0, 156457.91, 168362.20, 97512.09, 176071.13, 153679.81, 146304.19, 134772.05, 175900.67, 129497.51, 113221.70, 155107.64, 160308.73, 0.00, 0.00, 0.00, 0.00, 0.00, 0.00, 0.00
1364.0, 156443.00, 168347.97, 97488.78, 176072.73, 153662.05, 146298.78, 134768.14, 175898.14, 129497.51, 113221.70, 155107.64, 160308.73, 0.00, 0.00, 0.00, 0.00, 0.00, 0.00, 0.00
1368.0, 156443.00, 168347.97, 97488.78, 176072.73, 153662.05, 146298.78, 134768.14, 175898.14, 129448.91, 113223.43, 155051.75, 160222.11, 0.00, 0.00, 0.00, 0.00, 0.00, 0.00, 0.00
1372.0, 156446.47, 168356.28, 97503.05, 176061.67, 153664.81, 146288.81, 134766.86, 175889.36, 129448.91, 113223.43, 155051.75, 160222.11, 0.00, 0.00, 0.00, 0.00, 0.00, 0.00, 0.00
1376.0, 156446.47, 168356.28, 97503.05, 176061.67, 153664.81, 146288.81, 134766.86, 175889.36, 129490.80, 113214.47, 155105.13, 160305.61, 0.00, 0.00, 0.00, 0.00, 0.00, 0.00, 0.00
1380.0, 156457.52, 168363.73, 97505.57, 176077.38, 153670.83, 146300.98, 134776.52, 175904.28, 129490.80, 113214.47, 155105.13, 160305.61, 0.00, 0.00, 0.00, 0.00, 0.00, 0.00, 0.00
1384.0, 156457.52, 168363.73, 97505.57, 176077.38, 153670.83, 146300.98, 134776.52, 175904.28, 129442.52, 113232.19, 155065.11, 160242.13, 0.00, 0.00, 0.00, 0.00, 0.00, 0.00, 0.00
1388.0, 156447.81, 168362.25, 97505.26, 176063.56, 153668.11, 146278.81, 134780.45, 175899.03, 129442.52, 113232.19, 155065.11, 160242.13, 0.00, 0.00, 0.00, 0.00, 0.00, 0.00, 0.00
1392.0, 156447.81, 168362.25, 97505.26, 176063.56, 153668.11, 146278.81, 134780.45, 175899.03, 129483.70, 113216.30, 155104.56, 160301.45, 0.00, 0.00, 0.00, 0.00, 0.00, 0.00, 0.00
1396.0, 156448.64, 168357.58, 97507.63, 176071.61, 153671.91, 146302.17, 134771.63, 175900.53, 129483.70, 113216.30, 155104.56, 160301.45, 0.00, 0.00, 0.00, 0.00, 0.00, 0.00, 0.00
1400.0, 156448.64, 168357.58, 97507.63, 176071.61, 153671.91, 146302.17, 134771.63, 175900.53, 129437.85, 113221.77, 155054.66, 160240.95, 0.00, 0.00, 0.00, 0.00, 0.00, 0.00, 0.00
1404.0, 156429.08, 168352.73, 97493.48, 176049.95, 153657.28, 146262.91, 134777.84, 175889.45, 129437.85, 113221.77, 155054.66, 160240.95, 0.00, 0.00, 0.00, 0.00, 0.00, 0.00, 0.00
1408.0, 156429.08, 168352.73, 97493.48, 176049.95, 153657.28, 146262.91, 134777.84, 175889.45, 129478.84, 113206.46, 155098.84, 160279.34, 0.00, 0.00, 0.00, 0.00, 0.00, 0.00, 0.00
1412.0, 156453.02, 168366.19, 97522.85, 176076.78, 153682.31, 146310.14, 134778.89, 175905.00, 129478.84, 113206.46, 155098.84, 160279.34, 0.00, 0.00, 0.00, 0.00, 0.00, 0.00, 0.00
1416.0, 156453.02, 168366.19, 97522.85, 176076.78, 153682.31, 146310.14, 134778.89, 175905.00, 129452.74, 113231.63, 155066.67, 160245.53, 0.00, 0.00, 0.00, 0.00, 0.00, 0.00, 0.00
1420.0, 156450.78, 168362.78, 97501.19, 176065.63, 153665.63, 146272.20, 134796.34, 175899.80, 129452.74, 113231.63, 155066.67, 160245.53, 0.00, 0.00, 0.00, 0.00, 0.00, 0.00, 0.00
1424.0, 156450.78, 168362.78, 97501.19, 176065.63, 153665.63, 146272.20, 134796.34, 175899.80, 129489.17, 113224.92, 155102.55, 160301.31, 0.00, 0.00, 0.00, 0.00, 0.00, 0.00, 0.00
1428.0, 156461.84, 168371.33, 97530.31, 176078.34, 153693.25, 146319.28, 134784.08, 175910.72, 129489.17, 113224.92, 155102.55, 160301.31, 0.00, 0.00, 0.00, 0.00, 0.00, 0.00, 0.00
1432.0, 156461.84, 168371.33, 97530.31, 176078.34, 153693.25, 146319.28, 134784.08, 175910.72, 129454.88, 113225.89, 155058.67, 160244.25, 0.00, 0.00, 0.00, 0.00, 0.00, 0.00, 0.00
1436.0, 156432.44, 168348.03, 97484.13, 176051.70, 153648.52, 146256.20, 134785.59, 175886.92, 129454.88, 113225.89, 155058.67, 160244.25, 0.00, 0.00, 0.00, 0.00, 0.00, 0.00, 0.00
1440.0, 156432.44, 168348.03, 97484.13, 176051.70, 153648.52, 146256.20, 134785.59, 175886.92, 129470.38, 113208.03, 155079.86, 160267.41, 0.00, 0.00, 0.00, 0.00, 0.00, 0.00, 0.00
1444.0, 156454.03, 168362.86, 97527.59, 176069.63, 153688.58, 146316.08, 134783.14, 175907.59, 129470.38, 113208.03, 155079.86, 160267.41, 0.00, 0.00, 0.00, 0.00, 0.00, 0.00, 0.00
1448.0, 156454.03, 168362.86, 97527.59, 176069.63, 153688.58, 146316.08, 134783.14, 175907.59, 129464.79, 113235.56, 155060.66, 160271.05, 0.00, 0.00, 0.00, 0.00, 0.00, 0.00, 0.00
1452.0, 156431.70, 168352.13, 97482.19, 176049.91, 153653.55, 146258.25, 134797.98, 175899.66, 129464.79, 113235.56, 155060.66, 160271.05, 0.00, 0.00, 0.00, 0.00, 0.00, 0.00, 0.00
1456.0, 156431.70, 168352.13, 97482.19, 176049.91, 153653.55, 146258.25, 134797.98, 175899.66, 129471.58, 113216.88, 155085.11, 160279.25, 0.00, 0.00, 0.00, 0.00, 0.00, 0.00, 0.00
1460.0, 156468.91, 168372.16, 97542.52, 176077.78, 153697.11, 146319.66, 134794.56, 175912.92, 129471.58, 113216.88, 155085.11, 160279.25, 0.00, 0.00, 0.00, 0.00, 0.00, 0.00, 0.00
1464.0, 156468.91, 168372.16, 97542.52, 176077.78, 153697.11, 146319.66, 134794.56, 175912.92, 129472.27, 113228.81, 155074.83, 160256.59, 0.00, 0.00, 0.00, 0.00, 0.00, 0.00, 0.00
1468.0, 156448.06, 168357.95, 97494.35, 176067.30, 153654.77, 146268.06, 134808.11, 175898.03, 129472.27, 113228.81, 155074.83, 160256.59, 0.00, 0.00, 0.00, 0.00, 0.00, 0.00, 0.00
1472.0, 156448.06, 168357.95, 97494.35, 176067.30, 153654.77, 146268.06, 134808.11, 175898.03, 129471.27, 113230.13, 155082.28, 160278.45, 0.00, 0.00, 0.00, 0.00, 0.00, 0.00, 0.00
1476.0, 156468.27, 168379.33, 97545.60, 176078.92, 153698.55, 146320.77, 134798.27, 175913.52, 129471.27, 113230.13, 155082.28, 160278.45, 0.00, 0.00, 0.00, 0.00, 0.00, 0.00, 0.00
1480.0, 156468.27, 168379.33, 97545.60, 176078.92, 153698.55, 146320.77, 134798.27, 175913.52, 129475.76, 113232.88, 155081.89, 160282.80, 0.00, 0.00, 0.00, 0.00, 0.00, 0.00, 0.00
1484.0, 156443.61, 168363.06, 97493.63, 176064.94, 153651.86, 146269.20, 134810.45, 175902.72, 129475.76, 113232.88, 155081.89, 160282.80, 0.00, 0.00, 0.00, 0.00, 0.00, 0.00, 0.00
1488.0, 156443.61, 168363.06, 97493.63, 176064.94, 153651.86, 146269.20, 134810.45, 175902.72, 129472.90, 113239.08, 155074.91, 160268.70, 0.00, 0.00, 0.00, 0.00, 0.00, 0.00, 0.00
1492.0, 156482.66, 168390.92, 97557.56, 176089.63, 153708.63, 146332.31, 134813.06, 175923.84, 129472.90, 113239.08, 155074.91, 160268.70, 0.00, 0.00, 0.00, 0.00, 0.00, 0.00, 0.00
1496.0, 156482.66, 168390.92, 97557.56, 176089.63, 153708.63, 146332.31, 134813.06, 175923.84, 129489.35, 113240.21, 155093.92, 160299.67, 0.00, 0.00, 0.00, 0.00, 0.00, 0.00, 0.00
1500.0, 156453.64, 168363.55, 97499.55, 176071.86, 153656.17, 146275.98, 134816.05, 175906.20, 129489.35, 113240.21, 155093.92, 160299.67, 0.00, 0.00, 0.00, 0.00, 0.00, 0.00, 0.00
1504.0, 156453.64, 168363.55, 97499.55, 176071.86, 153656.17, 146275.98, 134816.05, 175906.20, 129457.55, 113226.55, 155071.92, 160251.14, 0.00, 0.00, 0.00, 0.00, 0.00, 0.00, 0.00
1508.0, 156474.03, 168390.22, 97556.20, 176082.08, 153699.83, 146319.67, 134810.86, 175915.23, 129457.55, 113226.55, 155071.92, 160251.14, 0.00, 0.00, 0.00, 0.00, 0.00, 0.00, 0.00
1512.0, 156474.03, 168390.22, 97556.20, 176082.08, 153699.83, 146319.67, 134810.86, 175915.23, 129489.30, 113232.19, 155102.34, 160289.34, 0.00, 0.00, 0.00, 0.00, 0.00, 0.00, 0.00
1516.0, 156454.83, 168373.27, 97515.02, 176080.95, 153663.59, 146287.78, 134822.13, 175907.06, 129489.30, 113232.19, 155102.34, 160289.34, 0.00, 0.00, 0.00, 0.00, 0.00, 0.00, 0.00
1520.0, 156454.83, 168373.27, 97515.02, 176080.95, 153663.59, 146287.78, 134822.13, 175907.06, 129459.16, 113235.25, 155067.02, 160264.08, 0.00, 0.00, 0.00, 0.00, 0.00, 0.00, 0.00
1524.0, 156477.05, 168390.86, 97556.47, 176085.86, 153698.72, 146318.09, 134819.30, 175913.77, 129459.16, 113235.25, 155067.02, 160264.08, 0.00, 0.00, 0.00, 0.00, 0.00, 0.00, 0.00
1528.0, 156477.05, 168390.86, 97556.47, 176085.86, 153698.72, 146318.09, 134819.30, 175913.77, 129489.59, 113223.98, 155092.52, 160285.78, 0.00, 0.00, 0.00, 0.00, 0.00, 0.00, 0.00
1532.0, 156458.41, 168367.70, 97513.10, 176076.67, 153662.63, 146287.52, 134822.08, 175906.09, 129489.59, 113223.98, 155092.52, 160285.78, 0.00, 0.00, 0.00, 0.00, 0.00, 0.00, 0.00
1536.0, 156458.41, 168367.70, 97513.10, 176076.67, 153662.63, 146287.52, 134822.08, 175906.09, 129454.88, 113233.62, 155050.94, 160251.55, 0.00, 0.00, 0.00, 0.00, 0.00, 0.00, 0.00
1540.0, 156465.17, 168370.67, 97545.22, 176078.03, 153691.89, 146312.22, 134823.02, 175912.72, 129454.88, 113233.62, 155050.94, 160251.55, 0.00, 0.00, 0.00, 0.00, 0.00, 0.00, 0.00
1544.0, 156465.17, 168370.67, 97545.22, 176078.03, 153691.89, 146312.22, 134823.02, 175912.72, 129498.65, 113223.38, 155084.94, 160312.94, 0.00, 0.00, 0.00, 0.00, 0.00, 0.00, 0.00
1548.0, 156435.25, 168345.98, 97502.38, 176065.84, 153662.84, 146288.00, 134817.30, 175904.94, 129498.65, 113223.38, 155084.94, 160312.94, 0.00, 0.00, 0.00, 0.00, 0.00, 0.00, 0.00
1552.0, 156435.25, 168345.98, 97502.38, 176065.84, 153662.84, 146288.00, 134817.30, 175904.94, 129444.45, 113225.26, 155035.22, 160230.02, 0.00, 0.00, 0.00, 0.00, 0.00, 0.00, 0.00
1556.0, 156454.52, 168356.89, 97528.75, 176068.13, 153688.67, 146302.02, 134825.09, 175913.63, 129444.45, 113225.26, 155035.22, 160230.02, 0.00, 0.00, 0.00, 0.00, 0.00, 0.00, 0.00
1560.0, 156454.52, 168356.89, 97528.75, 176068.13, 153688.67, 146302.02, 134825.09, 175913.63, 129502.12, 113230.85, 155083.64, 160310.89, 0.00, 0.00, 0.00, 0.00, 0.00, 0.00, 0.00
1564.0, 156447.16, 168359.95, 97514.42, 176076.91, 153675.09, 146306.92, 134829.31, 175915.58, 129502.12, 113230.85, 155083.64, 160310.89, 0.00, 0.00, 0.00, 0.00, 0.00, 0.00, 0.00
1568.0, 156447.16, 168359.95, 97514.42, 176076.91, 153675.09, 146306.92, 134829.31, 175915.58, 129449.23, 113234.54, 155035.27, 160254.17, 0.00, 0.00, 0.00, 0.00, 0.00, 0.00, 0.00
1572.0, 156436.08, 168355.88, 97516.43, 176057.53, 153676.42, 146287.95, 134824.56, 175903.53, 129449.23, 113234.54, 155035.27, 160254.17, 0.00, 0.00, 0.00, 0.00, 0.00, 0.00, 0.00
1576.0, 156436.08, 168355.88, 97516.43, 176057.53, 153676.42, 146287.95, 134824.56, 175903.53, 129493.44, 113213.98, 155075.09, 160294.53, 0.00, 0.00, 0.00, 0.00, 0.00, 0.00, 0.00
1580.0, 156429.27, 168342.67, 97506.02, 176063.20, 153671.75, 146304.34, 134814.97, 175905.30, 129493.44, 113213.98, 155075.09, 160294.53, 0.00, 0.00, 0.00, 0.00, 0.00, 0.00, 0.00
1584.0, 156429.27, 168342.67, 97506.02, 176063.20, 153671.75, 146304.34, 134814.97, 175905.30, 129452.27, 113230.20, 155026.94, 160236.19, 0.00, 0.00, 0.00, 0.00, 0.00, 0.00, 0.00
1588.0, 156437.91, 168360.47, 97515.78, 176061.33, 153678.00, 146286.66, 134836.16, 175913.05, 129452.27, 113230.20, 155026.94, 160236.19, 0.00, 0.00, 0.00, 0.00, 0.00, 0.00, 0.00
1592.0, 156437.91, 168360.47, 97515.78, 176061.33, 153678.00, 146286.66, 134836.16, 175913.05, 129495.25, 113231.45, 155078.70, 160319.25, 0.00, 0.00, 0.00, 0.00, 0.00, 0.00, 0.00
1596.0, 156458.66, 168366.70, 97535.56, 176082.64, 153694.13, 146315.81, 134837.00, 175920.45, 129495.25, 113231.45, 155078.70, 160319.25, 0.00, 0.00, 0.00, 0.00, 0.00, 0.00, 0.00
1600.0, 156458.66, 168366.70, 97535.56, 176082.64, 153694.13, 146315.81, 134837.00, 175920.45, 129452.09, 113240.41, 155041.06, 160254.42, 0.00, 0.00, 0.00, 0.00, 0.00, 0.00, 0.00
1604.0, 156442.98, 168363.70, 97518.69, 176063.67, 153678.52, 146278.53, 134845.00, 175911.28, 129452.09, 113240.41, 155041.06, 160254.42, 0.00, 0.00, 0.00, 0.00, 0.00, 0.00, 0.00
1608.0, 156442.98, 168363.70, 97518.69, 176063.67, 153678.52, 146278.53, 134845.00, 175911.28, 129490.65, 113223.31, 155084.36, 160307.23, 0.00, 0.00, 0.00, 0.00, 0.00, 0.00, 0.00
1612.0, 156456.44, 168372.69, 97549.98, 176087.44, 153699.48, 146324.42, 134839.42, 175922.59, 129490.65, 113223.31, 155084.36, 160307.23, 0.00, 0.00, 0.00, 0.00, 0.00, 0.00, 0.00
1616.0, 156456.44, 168372.69, 97549.98, 176087.44, 153699.48, 146324.42, 134839.42, 175922.59, 129458.46, 113238.98, 155048.55, 160255.77, 0.00, 0.00, 0.00, 0.00, 0.00, 0.00, 0.00
1620.0, 156440.92, 168366.08, 97521.13, 176069.89, 153676.13, 146274.97, 134850.84, 175911.27, 129458.46, 113238.98, 155048.55, 160255.77, 0.00, 0.00, 0.00, 0.00, 0.00, 0.00, 0.00
1624.0, 156440.92, 168366.08, 97521.13, 176069.89, 153676.13, 146274.97, 134850.84, 175911.27, 129487.65, 113232.57, 155083.50, 160294.41, 0.00, 0.00, 0.00, 0.00, 0.00, 0.00, 0.00
1628.0, 156463.91, 168378.95, 97562.81, 176094.81, 153717.75, 146334.56, 134850.14, 175933.81, 129487.65, 113232.57, 155083.50, 160294.41, 0.00, 0.00, 0.00, 0.00, 0.00, 0.00, 0.00
1632.0, 156463.91, 168378.95, 97562.81, 176094.81, 153717.75, 146334.56, 134850.14, 175933.81, 129464.72, 113243.86, 155051.36, 160282.80, 0.00, 0.00, 0.00, 0.00, 0.00, 0.00, 0.00
1636.0, 156443.56, 168360.52, 97515.09, 176069.92, 153676.44, 146273.63, 134855.72, 175911.73, 129464.72, 113243.86, 155051.36, 160282.80, 0.00, 0.00, 0.00, 0.00, 0.00, 0.00, 0.00
1640.0, 156443.56, 168360.52, 97515.09, 176069.92, 153676.44, 146273.63, 134855.72, 175911.73, 129478.66, 113224.95, 155076.91, 160278.56, 0.00, 0.00, 0.00, 0.00, 0.00, 0.00, 0.00
1644.0, 156460.95, 168376.00, 97562.97, 176087.78, 153716.70, 146330.09, 134845.83, 175926.06, 129478.66, 113224.95, 155076.91, 160278.56, 0.00, 0.00, 0.00, 0.00, 0.00, 0.00, 0.00
1648.0, 156460.95, 168376.00, 97562.97, 176087.78, 153716.70, 146330.09, 134845.83, 175926.06, 129459.84, 113229.35, 155046.14, 160268.58, 0.00, 0.00, 0.00, 0.00, 0.00, 0.00, 0.00
1652.0, 156431.00, 168347.55, 97503.70, 176062.19, 153666.38, 146264.05, 134852.45, 175905.78, 129459.84, 113229.35, 155046.14, 160268.58, 0.00, 0.00, 0.00, 0.00, 0.00, 0.00, 0.00
1656.0, 156431.00, 168347.55, 97503.70, 176062.19, 153666.38, 146264.05, 134852.45, 175905.78, 129469.79, 113218.38, 155064.48, 160280.95, 0.00, 0.00, 0.00, 0.00, 0.00, 0.00, 0.00
1660.0, 156448.80, 168365.22, 97556.60, 176076.89, 153712.41, 146321.05, 134839.89, 175917.92, 129469.79, 113218.38, 155064.48, 160280.95, 0.00, 0.00, 0.00, 0.00, 0.00, 0.00, 0.00
1664.0, 156448.80, 168365.22, 97556.60, 176076.89, 153712.41, 146321.05, 134839.89, 175917.92, 129465.30, 113227.98, 155046.16, 160277.58, 0.00, 0.00, 0.00, 0.00, 0.00, 0.00, 0.00
1668.0, 156416.31, 168343.39, 97498.44, 176058.50, 153661.58, 146263.64, 134855.89, 175905.97, 129465.30, 113227.98, 155046.16, 160277.58, 0.00, 0.00, 0.00, 0.00, 0.00, 0.00, 0.00
1672.0, 156416.31, 168343.39, 97498.44, 176058.50, 153661.58, 146263.64, 134855.89, 175905.97, 129466.51, 113222.24, 155052.66, 160272.98, 0.00, 0.00, 0.00, 0.00, 0.00, 0.00, 0.00
1676.0, 156440.81, 168370.61, 97558.39, 176076.23, 153711.41, 146325.33, 134846.33, 175918.81, 129466.51, 113222.24, 155052.66, 160272.98, 0.00, 0.00, 0.00, 0.00, 0.00, 0.00, 0.00
1680.0, 156440.81, 168370.61, 97558.39, 176076.23, 153711.41, 146325.33, 134846.33, 175918.81, 129473.44, 113223.14, 155052.61, 160273.36, 0.00, 0.00, 0.00, 0.00, 0.00, 0.00, 0.00
1684.0, 156427.03, 168357.69, 97507.27, 176067.75, 153668.73, 146274.44, 134862.44, 175911.36, 129473.44, 113223.14, 155052.61, 160273.36, 0.00, 0.00, 0.00, 0.00, 0.00, 0.00, 0.00
1688.0, 156427.03, 168357.69, 97507.27, 176067.75, 153668.73, 146274.44, 134862.44, 175911.36, 129471.42, 113234.67, 155058.83, 160278.03, 0.00, 0.00, 0.00, 0.00, 0.00, 0.00, 0.00
1692.0, 156473.72, 168392.58, 97581.39, 176096.98, 153728.13, 146340.98, 134866.42, 175933.44, 129471.42, 113234.67, 155058.83, 160278.03, 0.00, 0.00, 0.00, 0.00, 0.00, 0.00, 0.00
1696.0, 156473.72, 168392.58, 97581.39, 176096.98, 153728.13, 146340.98, 134866.42, 175933.44, 129494.02, 113234.45, 155074.56, 160297.50, 0.00, 0.00, 0.00, 0.00, 0.00, 0.00, 0.00
1700.0, 156442.45, 168359.44, 97517.62, 176074.25, 153672.19, 146281.34, 134866.80, 175915.70, 129494.02, 113234.45, 155074.56, 160297.50, 0.00, 0.00, 0.00, 0.00, 0.00, 0.00, 0.00
1704.0, 156442.45, 168359.44, 97517.62, 176074.25, 153672.19, 146281.34, 134866.80, 175915.70, 129463.18, 113227.36, 155045.84, 160271.75, 0.00, 0.00, 0.00, 0.00, 0.00, 0.00, 0.00
1708.0, 156471.14, 168387.94, 97575.66, 176085.09, 153716.66, 146327.72, 134861.33, 175928.30, 129463.18, 113227.36, 155045.84, 160271.75, 0.00, 0.00, 0.00, 0.00, 0.00, 0.00, 0.00
1712.0, 156471.14, 168387.94, 97575.66, 176085.09, 153716.66, 146327.72, 134861.33, 175928.30, 129491.66, 113229.38, 155075.22, 160309.05, 0.00, 0.00, 0.00, 0.00, 0.00, 0.00, 0.00
1716.0, 156456.63, 168370.09, 97527.88, 176079.14, 153677.14, 146290.08, 134871.09, 175919.95, 129491.66, 113229.38, 155075.22, 160309.05, 0.00, 0.00, 0.00, 0.00, 0.00, 0.00, 0.00
1720.0, 156456.63, 168370.09, 97527.88, 176079.14, 153677.14, 146290.08, 134871.09, 175919.95, 129459.02, 113232.37, 155041.84, 160256.28, 0.00, 0.00, 0.00, 0.00, 0.00, 0.00, 0.00
1724.0, 156468.58, 168395.42, 97580.63, 176087.59, 153715.95, 146326.27, 134871.63, 175928.25, 129459.02, 113232.37, 155041.84, 160256.28, 0.00, 0.00, 0.00, 0.00, 0.00, 0.00, 0.00
1728.0, 156468.58, 168395.42, 97580.63, 176087.59, 153715.95, 146326.27, 134871.63, 175928.25, 129495.85, 113224.50, 155081.27, 160324.30, 0.00, 0.00, 0.00, 0.00, 0.00, 0.00, 0.00
1732.0, 156444.34, 168365.92, 97536.75, 176082.88, 153683.77, 146295.05, 134876.56, 175923.84, 129495.85, 113224.50, 155081.27, 160324.30, 0.00, 0.00, 0.00, 0.00, 0.00, 0.00, 0.00
1736.0, 156444.34, 168365.92, 97536.75, 176082.88, 153683.77, 146295.05, 134876.56, 175923.84, 129449.16, 113223.45, 155037.34, 160243.81, 0.00, 0.00, 0.00, 0.00, 0.00, 0.00, 0.00
1740.0, 156453.13, 168374.64, 97563.82, 176075.03, 153707.28, 146309.78, 134870.16, 175924.20, 129449.16, 113223.45, 155037.34, 160243.81, 0.00, 0.00, 0.00, 0.00, 0.00, 0.00, 0.00
1744.0, 156453.13, 168374.64, 97563.82, 176075.03, 153707.28, 146309.78, 134870.16, 175924.20, 129498.72, 113214.45, 155076.20, 160308.66, 0.00, 0.00, 0.00, 0.00, 0.00, 0.00, 0.00
1748.0, 156439.41, 168364.36, 97537.73, 176082.92, 153690.02, 146302.63, 134878.52, 175926.80, 129498.72, 113214.45, 155076.20, 160308.66, 0.00, 0.00, 0.00, 0.00, 0.00, 0.00, 0.00
1752.0, 156439.41, 168364.36, 97537.73, 176082.92, 153690.02, 146302.63, 134878.52, 175926.80, 129460.59, 113242.25, 155031.83, 160273.06, 0.00, 0.00, 0.00, 0.00, 0.00, 0.00, 0.00
1756.0, 156436.28, 168368.73, 97553.00, 176069.67, 153704.52, 146301.13, 134880.55, 175929.56, 129460.59, 113242.25, 155031.83, 160273.06, 0.00, 0.00, 0.00, 0.00, 0.00, 0.00, 0.00
1760.0, 156436.28, 168368.73, 97553.00, 176069.67, 153704.52, 146301.13, 134880.55, 175929.56, 129508.06, 113222.60, 155076.59, 160321.14, 0.00, 0.00, 0.00, 0.00, 0.00, 0.00, 0.00
1764.0, 156432.45, 168361.11, 97540.23, 176083.13, 153700.17, 146309.89, 134882.22, 175929.56, 129508.06, 113222.60, 155076.59, 160321.14, 0.00, 0.00, 0.00, 0.00, 0.00, 0.00, 0.00
1768.0, 156432.45, 168361.11, 97540.23, 176083.13, 153700.17, 146309.89, 134882.22, 175929.56, 129460.45, 113234.41, 155025.48, 160246.09, 0.00, 0.00, 0.00, 0.00, 0.00, 0.00, 0.00
1772.0, 156434.89, 168355.92, 97537.58, 176065.22, 153696.53, 146291.36, 134881.73, 175921.36, 129460.45, 113234.41, 155025.48, 160246.09, 0.00, 0.00, 0.00, 0.00, 0.00, 0.00, 0.00
1776.0, 156434.89, 168355.92, 97537.58, 176065.22, 153696.53, 146291.36, 134881.73, 175921.36, 129506.74, 113220.90, 155067.72, 160329.95, 0.00, 0.00, 0.00, 0.00, 0.00, 0.00, 0.00
1780.0, 156414.59, 168348.89, 97533.69, 176073.02, 153692.11, 146310.47, 134870.59, 175920.81, 129506.74, 113220.90, 155067.72, 160329.95, 0.00, 0.00, 0.00, 0.00, 0.00, 0.00, 0.00
1784.0, 156414.59, 168348.89, 97533.69, 176073.02, 153692.11, 146310.47, 134870.59, 175920.81, 129445.23, 113224.30, 155016.98, 160246.02, 0.00, 0.00, 0.00, 0.00, 0.00, 0.00, 0.00
1788.0, 156410.13, 168349.94, 97526.60, 176054.22, 153681.88, 146269.56, 134879.42, 175910.56, 129445.23, 113224.30, 155016.98, 160246.02, 0.00, 0.00, 0.00, 0.00, 0.00, 0.00, 0.00
1792.0, 156410.13, 168349.94, 97526.60, 176054.22, 153681.88, 146269.56, 134879.42, 175910.56, 129490.06, 113215.13, 155066.70, 160305.75, 0.00, 0.00, 0.00, 0.00, 0.00, 0.00, 0.00
1796.0, 156426.59, 168360.84, 97550.01, 176072.22, 153708.53, 146309.84, 134879.00, 175925.95, 129490.06, 113215.13, 155066.70, 160305.75, 0.00, 0.00, 0.00, 0.00, 0.00, 0.00, 0.00
1800.0, 156426.59, 168360.84, 97550.01, 176072.22, 153708.53, 146309.84, 134879.00, 175925.95, 129446.88, 113228.73, 155026.67, 160259.14, 0.00, 0.00, 0.00, 0.00, 0.00, 0.00, 0.00
1804.0, 156419.53, 168355.59, 97530.85, 176057.36, 153686.03, 146268.83, 134890.30, 175916.06, 129446.88, 113228.73, 155026.67, 160259.14, 0.00, 0.00, 0.00, 0.00, 0.00, 0.00, 0.00
1808.0, 156419.53, 168355.59, 97530.85, 176057.36, 153686.03, 146268.83, 134890.30, 175916.06, 129496.66, 113221.70, 155070.39, 160312.09, 0.00, 0.00, 0.00, 0.00, 0.00, 0.00, 0.00
1812.0, 156435.52, 168363.13, 97566.21, 176081.84, 153715.27, 146325.00, 134885.63, 175930.42, 129496.66, 113221.70, 155070.39, 160312.09, 0.00, 0.00, 0.00, 0.00, 0.00, 0.00, 0.00
1816.0, 156435.52, 168363.13, 97566.21, 176081.84, 153715.27, 146325.00, 134885.63, 175930.42, 129457.14, 113225.55, 155027.02, 160255.20, 0.00, 0.00, 0.00, 0.00, 0.00, 0.00, 0.00
1820.0, 156420.59, 168344.95, 97527.30, 176054.92, 153677.92, 146260.25, 134891.39, 175909.34, 129457.14, 113225.55, 155027.02, 160255.20, 0.00, 0.00, 0.00, 0.00, 0.00, 0.00, 0.00
1824.0, 156420.59, 168344.95, 97527.30, 176054.92, 153677.92, 146260.25, 134891.39, 175909.34, 129483.96, 113211.91, 155060.84, 160290.88, 0.00, 0.00, 0.00, 0.00, 0.00, 0.00, 0.00
1828.0, 156433.95, 168363.33, 97574.03, 176078.75, 153721.23, 146323.75, 134885.20, 175932.03, 129483.96, 113211.91, 155060.84, 160290.88, 0.00, 0.00, 0.00, 0.00, 0.00, 0.00, 0.00
1832.0, 156433.95, 168363.33, 97574.03, 176078.75, 153721.23, 146323.75, 134885.20, 175932.03, 129465.79, 113227.34, 155032.36, 160276.75, 0.00, 0.00, 0.00, 0.00, 0.00, 0.00, 0.00
1836.0, 156406.03, 168343.41, 97522.80, 176056.77, 153674.08, 146256.83, 134898.11, 175913.28, 129465.79, 113227.34, 155032.36, 160276.75, 0.00, 0.00, 0.00, 0.00, 0.00, 0.00, 0.00
1840.0, 156406.03, 168343.41, 97522.80, 176056.77, 153674.08, 146256.83, 134898.11, 175913.28, 129482.80, 113222.31, 155047.03, 160280.11, 0.00, 0.00, 0.00, 0.00, 0.00, 0.00, 0.00
1844.0, 156433.02, 168359.14, 97570.03, 176077.38, 153717.20, 146325.22, 134888.92, 175930.34, 129482.80, 113222.31, 155047.03, 160280.11, 0.00, 0.00, 0.00, 0.00, 0.00, 0.00, 0.00
1848.0, 156433.02, 168359.14, 97570.03, 176077.38, 153717.20, 146325.22, 134888.92, 175930.34, 129465.73, 113223.77, 155022.23, 160281.97, 0.00, 0.00, 0.00, 0.00, 0.00, 0.00, 0.00
1852.0, 156398.34, 168320.59, 97503.54, 176048.75, 153663.98, 146248.89, 134893.80, 175907.78, 129465.73, 113223.77, 155022.23, 160281.97, 0.00, 0.00, 0.00, 0.00, 0.00, 0.00, 0.00
1856.0, 156398.34, 168320.59, 97503.54, 176048.75, 153663.98, 146248.89, 134893.80, 175907.78, 129472.85, 113215.91, 155026.78, 160277.64, 0.00, 0.00, 0.00, 0.00, 0.00, 0.00, 0.00
1860.0, 156436.72, 168339.20, 97564.63, 176074.92, 153720.39, 146324.64, 134889.20, 175930.39, 129472.85, 113215.91, 155026.78, 160277.64, 0.00, 0.00, 0.00, 0.00, 0.00, 0.00, 0.00
1864.0, 156436.72, 168339.20, 97564.63, 176074.92, 153720.39, 146324.64, 134889.20, 175930.39, 129479.77, 113224.52, 155023.56, 160271.56, 0.00, 0.00, 0.00, 0.00, 0.00, 0.00, 0.00
1868.0, 156396.09, 168312.08, 97501.13, 176056.11, 153666.78, 146256.48, 134901.28, 175913.20, 129479.77, 113224.52, 155023.56, 160271.56, 0.00, 0.00, 0.00, 0.00, 0.00, 0.00, 0.00
1872.0, 156396.09, 168312.08, 97501.13, 176056.11, 153666.78, 146256.48, 134901.28, 175913.20, 129475.65, 113222.40, 155016.41, 160282.09, 0.00, 0.00, 0.00, 0.00, 0.00, 0.00, 0.00
1876.0, 156416.23, 168329.11, 97558.90, 176067.36, 153711.89, 146313.89, 134885.78, 175923.59, 129475.65, 113222.40, 155016.41, 160282.09, 0.00, 0.00, 0.00, 0.00, 0.00, 0.00, 0.00
1880.0, 156416.23, 168329.11, 97558.90, 176067.36, 153711.89, 146313.89, 134885.78, 175923.59, 129480.74, 113217.59, 155025.92, 160288.89, 0.00, 0.00, 0.00, 0.00, 0.00, 0.00, 0.00
1884.0, 156391.91, 168309.81, 97502.62, 176054.56, 153662.00, 146250.61, 134897.44, 175906.33, 129480.74, 113217.59, 155025.92, 160288.89, 0.00, 0.00, 0.00, 0.00, 0.00, 0.00, 0.00
1888.0, 156391.91, 168309.81, 97502.62, 176054.56, 153662.00, 146250.61, 134897.44, 175906.33, 129464.45, 113223.36, 155017.97, 160250.58, 0.00, 0.00, 0.00, 0.00, 0.00, 0.00, 0.00
1892.0, 156427.14, 168346.03, 97574.03, 176073.80, 153723.09, 146313.75, 134896.66, 175929.14, 129464.45, 113223.36, 155017.97, 160250.58, 0.00, 0.00, 0.00, 0.00, 0.00, 0.00, 0.00
1896.0, 156427.14, 168346.03, 97574.03, 176073.80, 153723.09, 146313.75, 134896.66, 175929.14, 129492.86, 113226.71, 155044.66, 160316.70, 0.00, 0.00, 0.00, 0.00, 0.00, 0.00, 0.00
1900.0, 156407.48, 168332.05, 97522.96, 176064.94, 153676.23, 146266.77, 134909.94, 175919.17, 129492.86, 113226.71, 155044.66, 160316.70, 0.00, 0.00, 0.00, 0.00, 0.00, 0.00, 0.00
1904.0, 156407.48, 168332.05, 97522.96, 176064.94, 153676.23, 146266.77, 134909.94, 175919.17, 129465.44, 113230.60, 155026.98, 160253.00, 0.00, 0.00, 0.00, 0.00, 0.00, 0.00, 0.00
1908.0, 156428.52, 168351.36, 97575.29, 176074.20, 153718.95, 146310.77, 134906.56, 175928.27, 129465.44, 113230.60, 155026.98, 160253.00, 0.00, 0.00, 0.00, 0.00, 0.00, 0.00, 0.00
1912.0, 156428.52, 168351.36, 97575.29, 176074.20, 153718.95, 146310.77, 134906.56, 175928.27, 129492.39, 113219.54, 155049.75, 160313.45, 0.00, 0.00, 0.00, 0.00, 0.00, 0.00, 0.00
1916.0, 156413.05, 168334.22, 97528.19, 176069.02, 153680.95, 146273.13, 134914.64, 175920.67, 129492.39, 113219.54, 155049.75, 160313.45, 0.00, 0.00, 0.00, 0.00, 0.00, 0.00, 0.00
1920.0, 156413.05, 168334.22, 97528.19, 176069.02, 153680.95, 146273.13, 134914.64, 175920.67, 129459.18, 113236.30, 155017.81, 160254.16, 0.00, 0.00, 0.00, 0.00, 0.00, 0.00, 0.00
1924.0, 156424.16, 168342.53, 97567.10, 176067.92, 153713.02, 146301.06, 134907.70, 175922.91, 129459.18, 113236.30, 155017.81, 160254.16, 0.00, 0.00, 0.00, 0.00, 0.00, 0.00, 0.00
1928.0, 156424.16, 168342.53, 97567.10, 176067.92, 153713.02, 146301.06, 134907.70, 175922.91, 129495.52, 113219.27, 155053.42, 160304.14, 0.00, 0.00, 0.00, 0.00, 0.00, 0.00, 0.00
1932.0, 156398.92, 168327.52, 97530.42, 176065.92, 153683.28, 146277.72, 134912.27, 175919.22, 129495.52, 113219.27, 155053.42, 160304.14, 0.00, 0.00, 0.00, 0.00, 0.00, 0.00, 0.00
1936.0, 156398.92, 168327.52, 97530.42, 176065.92, 153683.28, 146277.72, 134912.27, 175919.22, 129448.63, 113225.46, 155008.25, 160239.11, 0.00, 0.00, 0.00, 0.00, 0.00, 0.00, 0.00
1940.0, 156415.72, 168345.28, 97564.11, 176063.05, 153707.63, 146289.88, 134911.66, 175922.28, 129448.63, 113225.46, 155008.25, 160239.11, 0.00, 0.00, 0.00, 0.00, 0.00, 0.00, 0.00
1944.0, 156415.72, 168345.28, 97564.11, 176063.05, 153707.63, 146289.88, 134911.66, 175922.28, 129502.63, 113218.91, 155057.52, 160318.91, 0.00, 0.00, 0.00, 0.00, 0.00, 0.00, 0.00
1948.0, 156408.00, 168334.67, 97544.91, 176074.67, 153696.22, 146290.44, 134920.16, 175928.63, 129502.63, 113218.91, 155057.52, 160318.91, 0.00, 0.00, 0.00, 0.00, 0.00, 0.00, 0.00
1952.0, 156408.00, 168334.67, 97544.91, 176074.67, 153696.22, 146290.44, 134920.16, 175928.63, 129447.02, 113226.05, 155004.09, 160233.48, 0.00, 0.00, 0.00, 0.00, 0.00, 0.00, 0.00
1956.0, 156406.33, 168331.20, 97550.32, 176058.50, 153695.55, 146275.72, 134910.97, 175914.84, 129447.02, 113226.05, 155004.09, 160233.48, 0.00, 0.00, 0.00, 0.00, 0.00, 0.00, 0.00
1960.0, 156406.33, 168331.20, 97550.32, 176058.50, 153695.55, 146275.72, 134910.97, 175914.84, 129498.70, 113214.66, 155048.39, 160318.44, 0.00, 0.00, 0.00, 0.00, 0.00, 0.00, 0.00
1964.0, 156409.83, 168326.64, 97547.97, 176073.53, 153698.44, 146295.53, 134916.06, 175928.05, 129498.70, 113214.66, 155048.39, 160318.44, 0.00, 0.00, 0.00, 0.00, 0.00, 0.00, 0.00
1968.0, 156409.83, 168326.64, 97547.97, 176073.53, 153698.44, 146295.53, 134916.06, 175928.05, 129451.30, 113227.54, 155006.14, 160237.28, 0.00, 0.00, 0.00, 0.00, 0.00, 0.00, 0.00
1972.0, 156406.13, 168328.56, 97548.17, 176059.80, 153698.39, 146271.28, 134919.69, 175917.98, 129451.30, 113227.54, 155006.14, 160237.28, 0.00, 0.00, 0.00, 0.00, 0.00, 0.00, 0.00
1976.0, 156406.13, 168328.56, 97548.17, 176059.80, 153698.39, 146271.28, 134919.69, 175917.98, 129503.77, 113217.98, 155052.34, 160299.73, 0.00, 0.00, 0.00, 0.00, 0.00, 0.00, 0.00
1980.0, 156415.64, 168339.77, 97563.28, 176082.48, 153710.77, 146309.28, 134922.34, 175932.23, 129503.77, 113217.98, 155052.34, 160299.73, 0.00, 0.00, 0.00, 0.00, 0.00, 0.00, 0.00
1984.0, 156415.64, 168339.77, 97563.28, 176082.48, 153710.77, 146309.28, 134922.34, 175932.23, 129461.99, 113234.72, 155009.28, 160269.22, 0.00, 0.00, 0.00, 0.00, 0.00, 0.00, 0.00
1988.0, 156408.36, 168334.52, 97547.21, 176062.70, 153695.64, 146270.95, 134930.09, 175924.52, 129461.99, 113234.72, 155009.28, 160269.22, 0.00, 0.00, 0.00, 0.00, 0.00, 0.00, 0.00
1992.0, 156408.36, 168334.52, 97547.21, 176062.70, 153695.64, 146270.95, 134930.09, 175924.52, 129498.34, 113219.25, 155051.66, 160319.89, 0.00, 0.00, 0.00, 0.00, 0.00, 0.00, 0.00
1996.0, 156419.92, 168348.34, 97572.78, 176081.14, 153721.33, 146309.63, 134927.27, 175937.50, 129498.34, 113219.25, 155051.66, 160319.89, 0.00, 0.00, 0.00, 0.00, 0.00, 0.00, 0.00
2000.0, 156419.92, 168348.34, 97572.78, 176081.14, 153721.33, 146309.63, 134927.27, 175937.50, 129458.15, 113231.27, 155017.56, 160253.13, 0.00, 0.00, 0.00, 0.00, 0.00, 0.00, 0.00
2004.0, 156409.19, 168341.17, 97550.56, 176063.86, 153699.38, 146264.73, 134940.06, 175922.27, 129458.15, 113231.27, 155017.56, 160253.13, 0.00, 0.00, 0.00, 0.00, 0.00, 0.00, 0.00
2008.0, 156409.19, 168341.17, 97550.56, 176063.86, 153699.38, 146264.73, 134940.06, 175922.27, 129495.70, 113222.49, 155054.81, 160316.27, 0.00, 0.00, 0.00, 0.00, 0.00, 0.00, 0.00
2012.0, 156417.28, 168349.28, 97588.12, 176098.80, 153731.30, 146316.48, 134928.33, 175937.28, 129495.70, 113222.49, 155054.81, 160316.27, 0.00, 0.00, 0.00, 0.00, 0.00, 0.00, 0.00
2016.0, 156417.28, 168349.28, 97588.12, 176098.80, 153731.30, 146316.48, 134928.33, 175937.28, 129467.87, 113237.15, 155039.05, 160271.92, 0.00, 0.00, 0.00, 0.00, 0.00, 0.00, 0.00
2020.0, 156416.00, 168347.41, 97563.35, 176098.19, 153701.00, 146270.45, 134954.67, 175930.48, 129467.87, 113237.15, 155039.05, 160271.92, 0.00, 0.00, 0.00, 0.00, 0.00, 0.00, 0.00
2024.0, 156416.00, 168347.41, 97563.35, 176098.19, 153701.00, 146270.45, 134954.67, 175930.48, 129492.55, 113222.80, 155031.63, 160304.56, 0.00, 0.00, 0.00, 0.00, 0.00, 0.00, 0.00
2028.0, 156407.05, 168340.77, 97571.87, 176079.03, 153728.86, 146316.33, 134932.02, 175935.30, 129492.55, 113222.80, 155031.63, 160304.56, 0.00, 0.00, 0.00, 0.00, 0.00, 0.00, 0.00
2032.0, 156407.05, 168340.77, 97571.87, 176079.03, 153728.86, 146316.33, 134932.02, 175935.30, 129472.09, 113229.55, 155006.58, 160279.66, 0.00, 0.00, 0.00, 0.00, 0.00, 0.00, 0.00
2036.0, 156396.84, 168329.58, 97538.36, 176088.94, 153695.78, 146263.28, 134952.36, 175926.50, 129472.09, 113229.55, 155006.58, 160279.66, 0.00, 0.00, 0.00, 0.00, 0.00, 0.00, 0.00
2040.0, 156396.84, 168329.58, 97538.36, 176088.94, 153695.78, 146263.28, 134952.36, 175926.50, 129483.52, 113224.34, 155019.84, 160285.67, 0.00, 0.00, 0.00, 0.00, 0.00, 0.00, 0.00
2044.0, 156407.48, 168329.13, 97566.95, 176081.73, 153721.91, 146308.75, 134923.91, 175927.48, 129483.52, 113224.34, 155019.84, 160285.67, 0.00, 0.00, 0.00, 0.00, 0.00, 0.00, 0.00
2048.0, 156407.48, 168329.13, 97566.95, 176081.73, 153721.91, 146308.75, 134923.91, 175927.48, 129465.39, 113220.08, 154998.02, 160269.78, 0.00, 0.00, 0.00, 0.00, 0.00, 0.00, 0.00
2052.0, 156394.08, 168318.91, 97522.53, 176078.28, 153687.45, 146259.63, 134947.41, 175921.05, 129465.39, 113220.08, 154998.02, 160269.78, 0.00, 0.00, 0.00, 0.00, 0.00, 0.00, 0.00
2056.0, 156394.08, 168318.91, 97522.53, 176078.28, 153687.45, 146259.63, 134947.41, 175921.05, 129484.68, 113227.67, 155010.81, 160294.59, 0.00, 0.00, 0.00, 0.00, 0.00, 0.00, 0.00
2060.0, 156425.03, 168341.00, 97578.93, 176096.02, 153735.98, 146322.27, 134939.95, 175939.61, 129484.68, 113227.67, 155010.81, 160294.59, 0.00, 0.00, 0.00, 0.00, 0.00, 0.00, 0.00
2064.0, 156425.03, 168341.00, 97578.93, 176096.02, 153735.98, 146322.27, 134939.95, 175939.61, 129485.17, 113225.20, 155017.80, 160284.08, 0.00, 0.00, 0.00, 0.00, 0.00, 0.00, 0.00
2068.0, 156403.47, 168322.38, 97531.32, 176091.58, 153689.53, 146266.28, 134953.34, 175925.28, 129485.17, 113225.20, 155017.80, 160284.08, 0.00, 0.00, 0.00, 0.00, 0.00, 0.00, 0.00
2072.0, 156403.47, 168322.38, 97531.32, 176091.58, 153689.53, 146266.28, 134953.34, 175925.28, 129481.20, 113234.00, 155029.06, 160282.41, 0.00, 0.00, 0.00, 0.00, 0.00, 0.00, 0.00
2076.0, 156445.84, 168362.55, 97609.13, 176127.30, 153753.91, 146342.72, 134964.52, 175958.14, 129481.20, 113234.00, 155029.06, 160282.41, 0.00, 0.00, 0.00, 0.00, 0.00, 0.00, 0.00
2080.0, 156445.84, 168362.55, 97609.13, 176127.30, 153753.91, 146342.72, 134964.52, 175958.14, 129513.60, 113249.27, 155051.05, 160334.13, 0.00, 0.00, 0.00, 0.00, 0.00, 0.00, 0.00
2084.0, 156413.44, 168336.39, 97552.84, 176112.30, 153712.42, 146288.81, 134975.56, 175943.19, 129513.60, 113249.27, 155051.05, 160334.13, 0.00, 0.00, 0.00, 0.00, 0.00, 0.00, 0.00
2088.0, 156413.44, 168336.39, 97552.84, 176112.30, 153712.42, 146288.81, 134975.56, 175943.19, 129474.89, 113233.11, 155019.20, 160263.88, 0.00, 0.00, 0.00, 0.00, 0.00, 0.00, 0.00
2092.0, 156406.59, 168334.89, 97584.09, 176102.03, 153737.22, 146316.50, 134947.63, 175937.02, 129474.89, 113233.11, 155019.20, 160263.88, 0.00, 0.00, 0.00, 0.00, 0.00, 0.00, 0.00
2096.0, 156406.59, 168334.89, 97584.09, 176102.03, 153737.22, 146316.50, 134947.63, 175937.02, 129495.19, 113221.75, 155023.84, 160312.41, 0.00, 0.00, 0.00, 0.00, 0.00, 0.00, 0.00
2100.0, 156382.88, 168317.77, 97533.53, 176095.16, 153694.09, 146271.39, 134957.84, 175927.59, 129495.19, 113221.75, 155023.84, 160312.41, 0.00, 0.00, 0.00, 0.00, 0.00, 0.00, 0.00
2104.0, 156382.88, 168317.77, 97533.53, 176095.16, 153694.09, 146271.39, 134957.84, 175927.59, 129465.95, 113227.20, 155006.17, 160266.89, 0.00, 0.00, 0.00, 0.00, 0.00, 0.00, 0.00
2108.0, 156405.92, 168338.45, 97582.33, 176099.53, 153732.05, 146309.39, 134954.28, 175937.28, 129465.95, 113227.20, 155006.17, 160266.89, 0.00, 0.00, 0.00, 0.00, 0.00, 0.00, 0.00
2112.0, 156405.92, 168338.45, 97582.33, 176099.53, 153732.05, 146309.39, 134954.28, 175937.28, 129505.09, 113226.18, 155043.41, 160317.39, 0.00, 0.00, 0.00, 0.00, 0.00, 0.00, 0.00
2116.0, 156391.64, 168322.39, 97542.79, 176102.13, 153704.48, 146281.64, 134961.39, 175933.02, 129505.09, 113226.18, 155043.41, 160317.39, 0.00, 0.00, 0.00, 0.00, 0.00, 0.00, 0.00
2120.0, 156391.64, 168322.39, 97542.79, 176102.13, 153704.48, 146281.64, 134961.39, 175933.02, 129460.12, 113224.19, 155000.64, 160247.25, 0.00, 0.00, 0.00, 0.00, 0.00, 0.00, 0.00
2124.0, 156411.31, 168334.80, 97577.52, 176100.16, 153725.95, 146302.16, 134955.73, 175931.47, 129460.12, 113224.19, 155000.64, 160247.25, 0.00, 0.00, 0.00, 0.00, 0.00, 0.00, 0.00
2128.0, 156411.31, 168334.80, 97577.52, 176100.16, 153725.95, 146302.16, 134955.73, 175931.47, 129502.63, 113216.61, 155035.72, 160320.86, 0.00, 0.00, 0.00, 0.00, 0.00, 0.00, 0.00
2132.0, 156392.17, 168321.86, 97547.99, 176103.98, 153705.92, 146291.06, 134963.14, 175936.05, 129502.63, 113216.61, 155035.72, 160320.86, 0.00, 0.00, 0.00, 0.00, 0.00, 0.00, 0.00
2136.0, 156392.17, 168321.86, 97547.99, 176103.98, 153705.92, 146291.06, 134963.14, 175936.05, 129466.59, 113238.94, 154996.20, 160260.77, 0.00, 0.00, 0.00, 0.00, 0.00, 0.00, 0.00
2140.0, 156420.91, 168340.17, 97581.92, 176107.53, 153732.80, 146305.34, 134970.77, 175940.88, 129466.59, 113238.94, 154996.20, 160260.77, 0.00, 0.00, 0.00, 0.00, 0.00, 0.00, 0.00
2144.0, 156420.91, 168340.17, 97581.92, 176107.53, 153732.80, 146305.34, 134970.77, 175940.88, 129526.09, 113238.78, 155049.17, 160330.16, 0.00, 0.00, 0.00, 0.00, 0.00, 0.00, 0.00
2148.0, 156414.64, 168341.91, 97574.75, 176121.66, 153727.16, 146314.92, 134981.48, 175950.47, 129526.09, 113238.78, 155049.17, 160330.16, 0.00, 0.00, 0.00, 0.00, 0.00, 0.00, 0.00
2152.0, 156414.64, 168341.91, 97574.75, 176121.66, 153727.16, 146314.92, 134981.48, 175950.47, 129477.77, 113253.27, 155004.41, 160282.47, 0.00, 0.00, 0.00, 0.00, 0.00, 0.00, 0.00
2156.0, 156422.00, 168352.75, 97589.32, 176116.50, 153730.84, 146307.77, 134984.81, 175943.45, 129477.77, 113253.27, 155004.41, 160282.47, 0.00, 0.00, 0.00, 0.00, 0.00, 0.00, 0.00
2160.0, 156422.00, 168352.75, 97589.32, 176116.50, 153730.84, 146307.77, 134984.81, 175943.45, 129519.93, 113229.80, 155049.44, 160322.36, 0.00, 0.00, 0.00, 0.00, 0.00, 0.00, 0.00
2164.0, 156410.14, 168337.19, 97577.50, 176117.44, 153725.53, 146317.06, 134977.69, 175945.50, 129519.93, 113229.80, 155049.44, 160322.36, 0.00, 0.00, 0.00, 0.00, 0.00, 0.00, 0.00
2168.0, 156410.14, 168337.19, 97577.50, 176117.44, 153725.53, 146317.06, 134977.69, 175945.50, 129469.86, 113240.39, 154999.86, 160259.30, 0.00, 0.00, 0.00, 0.00, 0.00, 0.00, 0.00
2172.0, 156409.20, 168336.08, 97574.03, 176103.69, 153724.44, 146289.81, 134981.64, 175937.53, 129469.86, 113240.39, 154999.86, 160259.30, 0.00, 0.00, 0.00, 0.00, 0.00, 0.00, 0.00
2176.0, 156409.20, 168336.08, 97574.03, 176103.69, 153724.44, 146289.81, 134981.64, 175937.53, 129512.41, 113224.99, 155039.30, 160333.73, 0.00, 0.00, 0.00, 0.00, 0.00, 0.00, 0.00
2180.0, 156416.50, 168329.59, 97582.17, 176117.13, 153728.45, 146321.83, 134974.14, 175940.78, 129512.41, 113224.99, 155039.30, 160333.73, 0.00, 0.00, 0.00, 0.00, 0.00, 0.00, 0.00
2184.0, 156416.50, 168329.59, 97582.17, 176117.13, 153728.45, 146321.83, 134974.14, 175940.78, 129473.75, 113235.14, 155001.70, 160264.42, 0.00, 0.00, 0.00, 0.00, 0.00, 0.00, 0.00
2188.0, 156405.61, 168335.20, 97574.08, 176106.23, 153720.83, 146293.14, 134991.97, 175937.14, 129473.75, 113235.14, 155001.70, 160264.42, 0.00, 0.00, 0.00, 0.00, 0.00, 0.00, 0.00
2192.0, 156405.61, 168335.20, 97574.08, 176106.23, 153720.83, 146293.14, 134991.97, 175937.14, 129508.80, 113228.91, 155039.63, 160317.44, 0.00, 0.00, 0.00, 0.00, 0.00, 0.00, 0.00
2196.0, 156410.64, 168332.95, 97591.40, 176116.00, 153737.64, 146326.66, 134983.63, 175946.78, 129508.80, 113228.91, 155039.63, 160317.44, 0.00, 0.00, 0.00, 0.00, 0.00, 0.00, 0.00
2200.0, 156410.64, 168332.95, 97591.40, 176116.00, 153737.64, 146326.66, 134983.63, 175946.78, 129469.68, 113237.45, 154994.05, 160288.53, 0.00, 0.00, 0.00, 0.00, 0.00, 0.00, 0.00
2204.0, 156386.56, 168313.86, 97552.45, 176088.11, 153703.94, 146268.97, 134986.92, 175931.41, 129469.68, 113237.45, 154994.05, 160288.53, 0.00, 0.00, 0.00, 0.00, 0.00, 0.00, 0.00
2208.0, 156386.56, 168313.86, 97552.45, 176088.11, 153703.94, 146268.97, 134986.92, 175931.41, 129495.70, 113221.15, 155023.77, 160312.00, 0.00, 0.00, 0.00, 0.00, 0.00, 0.00, 0.00
2212.0, 156392.73, 168321.23, 97588.90, 176107.58, 153739.19, 146318.63, 134978.30, 175945.08, 129495.70, 113221.15, 155023.77, 160312.00, 0.00, 0.00, 0.00, 0.00, 0.00, 0.00, 0.00
2216.0, 156392.73, 168321.23, 97588.90, 176107.58, 153739.19, 146318.63, 134978.30, 175945.08, 129469.97, 113229.04, 154998.50, 160269.77, 0.00, 0.00, 0.00, 0.00, 0.00, 0.00, 0.00
2220.0, 156383.61, 168315.63, 97554.21, 176089.63, 153703.38, 146265.98, 134993.95, 175931.80, 129469.97, 113229.04, 154998.50, 160269.77, 0.00, 0.00, 0.00, 0.00, 0.00, 0.00, 0.00
2224.0, 156383.61, 168315.63, 97554.21, 176089.63, 153703.38, 146265.98, 134993.95, 175931.80, 129501.73, 113228.48, 155034.31, 160299.42, 0.00, 0.00, 0.00, 0.00, 0.00, 0.00, 0.00
2228.0, 156415.95, 168338.17, 97606.63, 176110.89, 153748.38, 146326.00, 134988.03, 175950.47, 129501.73, 113228.48, 155034.31, 160299.42, 0.00, 0.00, 0.00, 0.00, 0.00, 0.00, 0.00
2232.0, 156415.95, 168338.17, 97606.63, 176110.89, 153748.38, 146326.00, 134988.03, 175950.47, 129481.26, 113230.54, 155010.39, 160302.38, 0.00, 0.00, 0.00, 0.00, 0.00, 0.00, 0.00
2236.0, 156384.31, 168316.70, 97556.29, 176092.73, 153704.98, 146267.48, 135000.48, 175936.20, 129481.26, 113230.54, 155010.39, 160302.38, 0.00, 0.00, 0.00, 0.00, 0.00, 0.00, 0.00
2240.0, 156384.31, 168316.70, 97556.29, 176092.73, 153704.98, 146267.48, 135000.48, 175936.20, 129500.05, 113233.02, 155029.70, 160300.94, 0.00, 0.00, 0.00, 0.00, 0.00, 0.00, 0.00
2244.0, 156415.67, 168340.84, 97614.36, 176115.30, 153756.58, 146331.45, 134996.28, 175957.17, 129500.05, 113233.02, 155029.70, 160300.94, 0.00, 0.00, 0.00, 0.00, 0.00, 0.00, 0.00
2248.0, 156415.67, 168340.84, 97614.36, 176115.30, 153756.58, 146331.45, 134996.28, 175957.17, 129503.34, 113246.18, 155020.50, 160324.41, 0.00, 0.00, 0.00, 0.00, 0.00, 0.00, 0.00
2252.0, 156399.48, 168329.28, 97567.95, 176108.47, 153720.92, 146284.27, 135017.78, 175950.13, 129503.34, 113246.18, 155020.50, 160324.41, 0.00, 0.00, 0.00, 0.00, 0.00, 0.00, 0.00
2256.0, 156399.48, 168329.28, 97567.95, 176108.47, 153720.92, 146284.27, 135017.78, 175950.13, 129502.83, 113241.35, 155022.48, 160309.97, 0.00, 0.00, 0.00, 0.00, 0.00, 0.00, 0.00
2260.0, 156423.25, 168341.47, 97621.89, 176122.28, 153763.23, 146335.17, 135005.27, 175960.45, 129502.83, 113241.35, 155022.48, 160309.97, 0.00, 0.00, 0.00, 0.00, 0.00, 0.00, 0.00
2264.0, 156423.25, 168341.47, 97621.89, 176122.28, 153763.23, 146335.17, 135005.27, 175960.45, 129505.22, 113245.89, 155025.75, 160320.42, 0.00, 0.00, 0.00, 0.00, 0.00, 0.00, 0.00
2268.0, 156394.34, 168323.38, 97564.27, 176106.23, 153710.38, 146278.06, 135013.41, 175944.30, 129505.22, 113245.89, 155025.75, 160320.42, 0.00, 0.00, 0.00, 0.00, 0.00, 0.00, 0.00
2272.0, 156394.34, 168323.38, 97564.27, 176106.23, 153710.38, 146278.06, 135013.41, 175944.30, 129487.95, 113235.56, 155015.20, 160283.22, 0.00, 0.00, 0.00, 0.00, 0.00, 0.00, 0.00
2276.0, 156426.95, 168348.75, 97625.40, 176117.06, 153755.98, 146326.77, 135004.89, 175954.42, 129487.95, 113235.56, 155015.20, 160283.22, 0.00, 0.00, 0.00, 0.00, 0.00, 0.00, 0.00
2280.0, 156426.95, 168348.75, 97625.40, 176117.06, 153755.98, 146326.77, 135004.89, 175954.42, 129510.12, 113236.30, 155034.42, 160330.73, 0.00, 0.00, 0.00, 0.00, 0.00, 0.00, 0.00
2284.0, 156405.86, 168330.42, 97572.80, 176109.44, 153712.38, 146279.89, 135014.02, 175942.95, 129510.12, 113236.30, 155034.42, 160330.73, 0.00, 0.00, 0.00, 0.00, 0.00, 0.00, 0.00
2288.0, 156405.86, 168330.42, 97572.80, 176109.44, 153712.38, 146279.89, 135014.02, 175942.95, 129485.46, 113236.52, 155012.73, 160287.97, 0.00, 0.00, 0.00, 0.00, 0.00, 0.00, 0.00
2292.0, 156411.59, 168344.45, 97620.88, 176113.34, 153754.66, 146318.78, 135006.41, 175953.59, 129485.46, 113236.52, 155012.73, 160287.97, 0.00, 0.00, 0.00, 0.00, 0.00, 0.00, 0.00
2296.0, 156411.59, 168344.45, 97620.88, 176113.34, 153754.66, 146318.78, 135006.41, 175953.59, 129513.76, 113229.40, 155033.03, 160320.42, 0.00, 0.00, 0.00, 0.00, 0.00, 0.00, 0.00
2300.0, 156387.03, 168319.73, 97567.26, 176107.67, 153711.91, 146284.66, 135016.20, 175946.22, 129513.76, 113229.40, 155033.03, 160320.42, 0.00, 0.00, 0.00, 0.00, 0.00, 0.00, 0.00
2304.0, 156387.03, 168319.73, 97567.26, 176107.67, 153711.91, 146284.66, 135016.20, 175946.22, 129478.11, 113233.64, 154998.08, 160292.16, 0.00, 0.00, 0.00, 0.00, 0.00, 0.00, 0.00
2308.0, 156408.36, 168338.72, 97608.55, 176107.09, 153746.80, 146312.56, 135008.59, 175950.64, 129478.11, 113233.64, 154998.08, 160292.16, 0.00, 0.00, 0.00, 0.00, 0.00, 0.00, 0.00
2312.0, 156408.36, 168338.72, 97608.55, 176107.09, 153746.80, 146312.56, 135008.59, 175950.64, 129513.80, 113224.10, 155030.38, 160322.58, 0.00, 0.00, 0.00, 0.00, 0.00, 0.00, 0.00
2316.0, 156379.22, 168307.20, 97561.12, 176096.00, 153707.67, 146280.36, 135003.58, 175937.92, 129513.80, 113224.10, 155030.38, 160322.58, 0.00, 0.00, 0.00, 0.00, 0.00, 0.00, 0.00
2320.0, 156379.22, 168307.20, 97561.12, 176096.00, 153707.67, 146280.36, 135003.58, 175937.92, 129464.67, 113227.36, 154985.63, 160279.95, 0.00, 0.00, 0.00, 0.00, 0.00, 0.00, 0.00
2324.0, 156395.78, 168325.45, 97601.75, 176095.23, 153734.67, 146298.63, 135009.81, 175944.39, 129464.67, 113227.36, 154985.63, 160279.95, 0.00, 0.00, 0.00, 0.00, 0.00, 0.00, 0.00
2328.0, 156395.78, 168325.45, 97601.75, 176095.23, 153734.67, 146298.63, 135009.81, 175944.39, 129517.54, 113227.85, 155036.98, 160340.08, 0.00, 0.00, 0.00, 0.00, 0.00, 0.00, 0.00
2332.0, 156396.61, 168322.02, 97581.41, 176106.11, 153722.63, 146294.22, 135019.08, 175947.63, 129517.54, 113227.85, 155036.98, 160340.08, 0.00, 0.00, 0.00, 0.00, 0.00, 0.00, 0.00
2336.0, 156396.61, 168322.02, 97581.41, 176106.11, 153722.63, 146294.22, 135019.08, 175947.63, 129468.38, 113237.45, 154994.02, 160267.20, 0.00, 0.00, 0.00, 0.00, 0.00, 0.00, 0.00
2340.0, 156396.09, 168327.31, 97597.95, 176092.58, 153729.14, 146286.64, 135010.52, 175936.67, 129468.38, 113237.45, 154994.02, 160267.20, 0.00, 0.00, 0.00, 0.00, 0.00, 0.00, 0.00
2344.0, 156396.09, 168327.31, 97597.95, 176092.58, 153729.14, 146286.64, 135010.52, 175936.67, 129511.28, 113222.98, 155034.95, 160334.84, 0.00, 0.00, 0.00, 0.00, 0.00, 0.00, 0.00
2348.0, 156395.06, 168319.69, 97583.02, 176101.78, 153723.41, 146292.91, 135013.47, 175944.80, 129511.28, 113222.98, 155034.95, 160334.84, 0.00, 0.00, 0.00, 0.00, 0.00, 0.00, 0.00
2352.0, 156395.06, 168319.69, 97583.02, 176101.78, 153723.41, 146292.91, 135013.47, 175944.80, 129468.81, 113236.75, 154989.73, 160282.63, 0.00, 0.00, 0.00, 0.00, 0.00, 0.00, 0.00
2356.0, 156395.16, 168333.16, 97594.75, 176094.88, 153729.73, 146288.67, 135024.16, 175947.81, 129468.81, 113236.75, 154989.73, 160282.63, 0.00, 0.00, 0.00, 0.00, 0.00, 0.00, 0.00
2360.0, 156395.16, 168333.16, 97594.75, 176094.88, 153729.73, 146288.67, 135024.16, 175947.81, 129524.73, 113234.36, 155037.38, 160345.53, 0.00, 0.00, 0.00, 0.00, 0.00, 0.00, 0.00
2364.0, 156398.41, 168322.89, 97596.27, 176108.25, 153731.11, 146309.86, 135021.47, 175949.86, 129524.73, 113234.36, 155037.38, 160345.53, 0.00, 0.00, 0.00, 0.00, 0.00, 0.00, 0.00
2368.0, 156398.41, 168322.89, 97596.27, 176108.25, 153731.11, 146309.86, 135021.47, 175949.86, 129471.00, 113238.16, 154990.83, 160277.69, 0.00, 0.00, 0.00, 0.00, 0.00, 0.00, 0.00
2372.0, 156405.09, 168331.55, 97592.45, 176092.67, 153725.34, 146280.94, 135028.50, 175941.33, 129471.00, 113238.16, 154990.83, 160277.69, 0.00, 0.00, 0.00, 0.00, 0.00, 0.00, 0.00
2376.0, 156405.09, 168331.55, 97592.45, 176092.67, 153725.34, 146280.94, 135028.50, 175941.33, 129513.31, 113228.79, 155042.88, 160345.39, 0.00, 0.00, 0.00, 0.00, 0.00, 0.00, 0.00
2380.0, 156408.31, 168338.11, 97612.50, 176109.25, 153744.64, 146318.00, 135024.33, 175953.89, 129513.31, 113228.79, 155042.88, 160345.39, 0.00, 0.00, 0.00, 0.00, 0.00, 0.00, 0.00
2384.0, 156408.31, 168338.11, 97612.50, 176109.25, 153744.64, 146318.00, 135024.33, 175953.89, 129468.81, 113236.57, 154995.44, 160276.52, 0.00, 0.00, 0.00, 0.00, 0.00, 0.00, 0.00
2388.0, 156386.61, 168324.41, 97582.33, 176083.61, 153713.23, 146267.23, 135027.89, 175936.63, 129468.81, 113236.57, 154995.44, 160276.52, 0.00, 0.00, 0.00, 0.00, 0.00, 0.00, 0.00
2392.0, 156386.61, 168324.41, 97582.33, 176083.61, 153713.23, 146267.23, 135027.89, 175936.63, 129504.46, 113222.18, 155036.64, 160337.73, 0.00, 0.00, 0.00, 0.00, 0.00, 0.00, 0.00
2396.0, 156416.77, 168343.05, 97620.39, 176108.53, 153748.92, 146322.63, 135024.33, 175955.20, 129504.46, 113222.18, 155036.64, 160337.73, 0.00, 0.00, 0.00, 0.00, 0.00, 0.00, 0.00
2400.0, 156416.77, 168343.05, 97620.39, 176108.53, 153748.92, 146322.63, 135024.33, 175955.20, 129480.99, 113240.04, 155003.13, 160293.39, 0.00, 0.00, 0.00, 0.00, 0.00, 0.00, 0.00
2404.0, 156386.45, 168325.61, 97584.78, 176092.47, 153717.05, 146274.81, 135035.89, 175939.30, 129480.99, 113240.04, 155003.13, 160293.39, 0.00, 0.00, 0.00, 0.00, 0.00, 0.00, 0.00
2408.0, 156386.45, 168325.61, 97584.78, 176092.47, 153717.05, 146274.81, 135035.89, 175939.30, 129511.57, 113236.99, 155040.08, 160328.45, 0.00, 0.00, 0.00, 0.00, 0.00, 0.00, 0.00
2412.0, 156420.97, 168348.02, 97631.99, 176117.19, 153762.23, 146330.58, 135036.52, 175962.61, 129511.57, 113236.99, 155040.08, 160328.45, 0.00, 0.00, 0.00, 0.00, 0.00, 0.00, 0.00
2416.0, 156420.97, 168348.02, 97631.99, 176117.19, 153762.23, 146330.58, 135036.52, 175962.61, 129484.57, 113244.23, 155004.27, 160294.41, 0.00, 0.00, 0.00, 0.00, 0.00, 0.00, 0.00
2420.0, 156389.03, 168320.08, 97573.48, 176087.19, 153711.27, 146261.50, 135037.55, 175939.84, 129484.57, 113244.23, 155004.27, 160294.41, 0.00, 0.00, 0.00, 0.00, 0.00, 0.00, 0.00
2424.0, 156389.03, 168320.08, 97573.48, 176087.19, 153711.27, 146261.50, 135037.55, 175939.84, 129498.74, 113233.82, 155021.59, 160328.98, 0.00, 0.00, 0.00, 0.00, 0.00, 0.00, 0.00
2428.0, 156407.17, 168333.19, 97626.70, 176113.97, 153757.47, 146329.89, 135031.31, 175956.88, 129498.74, 113233.82, 155021.59, 160328.98, 0.00, 0.00, 0.00, 0.00, 0.00, 0.00, 0.00
2432.0, 156407.17, 168333.19, 97626.70, 176113.97, 153757.47, 146329.89, 135031.31, 175956.88, 129487.90, 113241.00, 155003.23, 160297.55, 0.00, 0.00, 0.00, 0.00, 0.00, 0.00, 0.00
2436.0, 156379.91, 168317.19, 97575.24, 176095.16, 153709.41, 146265.50, 135044.55, 175939.19, 129487.90, 113241.00, 155003.23, 160297.55, 0.00, 0.00, 0.00, 0.00, 0.00, 0.00, 0.00
2440.0, 156379.91, 168317.19, 97575.24, 176095.16, 153709.41, 146265.50, 135044.55, 175939.19, 129493.89, 113234.63, 155019.25, 160323.27, 0.00, 0.00, 0.00, 0.00, 0.00, 0.00, 0.00
2444.0, 156409.61, 168335.72, 97634.14, 176113.95, 153754.56, 146327.09, 135030.91, 175952.64, 129493.89, 113234.63, 155019.25, 160323.27, 0.00, 0.00, 0.00, 0.00, 0.00, 0.00, 0.00
2448.0, 156409.61, 168335.72, 97634.14, 176113.95, 153754.56, 146327.09, 135030.91, 175952.64, 129491.14, 113240.02, 155016.86, 160318.44, 0.00, 0.00, 0.00, 0.00, 0.00, 0.00, 0.00
2452.0, 156397.41, 168322.69, 97584.31, 176100.20, 153715.48, 146268.14, 135050.13, 175944.92, 129491.14, 113240.02, 155016.86, 160318.44, 0.00, 0.00, 0.00, 0.00, 0.00, 0.00, 0.00
2456.0, 156397.41, 168322.69, 97584.31, 176100.20, 153715.48, 146268.14, 135050.13, 175944.92, 129492.28, 113245.71, 155024.47, 160304.88, 0.00, 0.00, 0.00, 0.00, 0.00, 0.00, 0.00
2460.0, 156425.75, 168354.00, 97651.80, 176121.56, 153769.14, 146333.45, 135045.75, 175960.81, 129492.28, 113245.71, 155024.47, 160304.88, 0.00, 0.00, 0.00, 0.00, 0.00, 0.00, 0.00
2464.0, 156425.75, 168354.00, 97651.80, 176121.56, 153769.14, 146333.45, 135045.75, 175960.81, 129498.20, 113239.68, 155029.14, 160315.05, 0.00, 0.00, 0.00, 0.00, 0.00, 0.00, 0.00
2468.0, 156386.61, 168323.22, 97583.53, 176098.23, 153712.97, 146266.08, 135051.31, 175940.45, 129498.20, 113239.68, 155029.14, 160315.05, 0.00, 0.00, 0.00, 0.00, 0.00, 0.00, 0.00
2472.0, 156386.61, 168323.22, 97583.53, 176098.23, 153712.97, 146266.08, 135051.31, 175940.45, 129480.25, 113240.88, 155011.27, 160303.08, 0.00, 0.00, 0.00, 0.00, 0.00, 0.00, 0.00
2476.0, 156411.47, 168339.72, 97643.32, 176106.13, 153757.73, 146319.16, 135042.16, 175953.16, 129480.25, 113240.88, 155011.27, 160303.08, 0.00, 0.00, 0.00, 0.00, 0.00, 0.00, 0.00
2480.0, 156411.47, 168339.72, 97643.32, 176106.13, 153757.73, 146319.16, 135042.16, 175953.16, 129504.30, 113237.91, 155031.30, 160316.61, 0.00, 0.00, 0.00, 0.00, 0.00, 0.00, 0.00
2484.0, 156393.39, 168328.50, 97595.24, 176104.14, 153720.47, 146275.80, 135057.22, 175949.34, 129504.30, 113237.91, 155031.30, 160316.61, 0.00, 0.00, 0.00, 0.00, 0.00, 0.00, 0.00
2488.0, 156393.39, 168328.50, 97595.24, 176104.14, 153720.47, 146275.80, 135057.22, 175949.34, 129484.27, 113248.57, 155010.14, 160301.55, 0.00, 0.00, 0.00, 0.00, 0.00, 0.00, 0.00
2492.0, 156419.53, 168349.41, 97646.68, 176108.67, 153764.53, 146318.89, 135052.09, 175960.92, 129484.27, 113248.57, 155010.14, 160301.55, 0.00, 0.00, 0.00, 0.00, 0.00, 0.00, 0.00
2496.0, 156419.53, 168349.41, 97646.68, 176108.67, 153764.53, 146318.89, 135052.09, 175960.92, 129514.56, 113247.27, 155035.47, 160345.78, 0.00, 0.00, 0.00, 0.00, 0.00, 0.00, 0.00
2500.0, 156399.91, 168330.20, 97598.15, 176105.05, 153723.69, 146279.02, 135060.59, 175954.42, 129514.56, 113247.27, 155035.47, 160345.78, 0.00, 0.00, 0.00, 0.00, 0.00, 0.00, 0.00
2504.0, 156399.91, 168330.20, 97598.15, 176105.05, 153723.69, 146279.02, 135060.59, 175954.42, 129474.58, 113250.30, 155005.19, 160278.91, 0.00, 0.00, 0.00, 0.00, 0.00, 0.00, 0.00
2508.0, 156415.02, 168345.78, 97639.23, 176102.13, 153756.91, 146306.42, 135055.50, 175955.42, 129474.58, 113250.30, 155005.19, 160278.91, 0.00, 0.00, 0.00, 0.00, 0.00, 0.00, 0.00
2512.0, 156415.02, 168345.78, 97639.23, 176102.13, 153756.91, 146306.42, 135055.50, 175955.42, 129517.94, 113239.39, 155043.05, 160330.02, 0.00, 0.00, 0.00, 0.00, 0.00, 0.00, 0.00
2516.0, 156389.41, 168336.02, 97607.00, 176107.80, 153731.53, 146288.88, 135065.06, 175957.00, 129517.94, 113239.39, 155043.05, 160330.02, 0.00, 0.00, 0.00, 0.00, 0.00, 0.00, 0.00
2520.0, 156389.41, 168336.02, 97607.00, 176107.80, 153731.53, 146288.88, 135065.06, 175957.00, 129479.45, 113259.66, 155006.14, 160301.16, 0.00, 0.00, 0.00, 0.00, 0.00, 0.00, 0.00
2524.0, 156403.98, 168348.11, 97642.03, 176105.64, 153756.59, 146305.80, 135068.72, 175961.89, 129479.45, 113259.66, 155006.14, 160301.16, 0.00, 0.00, 0.00, 0.00, 0.00, 0.00, 0.00
2528.0, 156403.98, 168348.11, 97642.03, 176105.64, 153756.59, 146305.80, 135068.72, 175961.89, 129525.94, 113247.19, 155055.44, 160351.77, 0.00, 0.00, 0.00, 0.00, 0.00, 0.00, 0.00
2532.0, 156397.88, 168341.59, 97622.13, 176111.58, 153744.33, 146298.47, 135073.91, 175963.30, 129525.94, 113247.19, 155055.44, 160351.77, 0.00, 0.00, 0.00, 0.00, 0.00, 0.00, 0.00
2536.0, 156397.88, 168341.59, 97622.13, 176111.58, 153744.33, 146298.47, 135073.91, 175963.30, 129478.73, 113261.85, 155005.50, 160284.11, 0.00, 0.00, 0.00, 0.00, 0.00, 0.00, 0.00
2540.0, 156399.78, 168347.66, 97632.23, 176094.95, 153752.08, 146289.44, 135069.23, 175956.25, 129478.73, 113261.85, 155005.50, 160284.11, 0.00, 0.00, 0.00, 0.00, 0.00, 0.00, 0.00
2544.0, 156399.78, 168347.66, 97632.23, 176094.95, 153752.08, 146289.44, 135069.23, 175956.25, 129515.93, 113236.33, 155049.91, 160352.97, 0.00, 0.00, 0.00, 0.00, 0.00, 0.00, 0.00
2548.0, 156392.52, 168338.88, 97622.09, 176102.84, 153740.77, 146296.23, 135061.64, 175954.05, 129515.93, 113236.33, 155049.91, 160352.97, 0.00, 0.00, 0.00, 0.00, 0.00, 0.00, 0.00
2552.0, 156392.52, 168338.88, 97622.09, 176102.84, 153740.77, 146296.23, 135061.64, 175954.05, 129462.39, 113240.91, 155001.63, 160267.02, 0.00, 0.00, 0.00, 0.00, 0.00, 0.00, 0.00
2556.0, 156384.84, 168334.48, 97618.89, 176084.44, 153734.69, 146270.33, 135061.38, 175941.48, 129462.39, 113240.91, 155001.63, 160267.02, 0.00, 0.00, 0.00, 0.00, 0.00, 0.00, 0.00
2560.0, 156384.84, 168334.48, 97618.89, 176084.44, 153734.69, 146270.33, 135061.38, 175941.48, 129508.26, 113227.36, 155038.73, 160327.41, 0.00, 0.00, 0.00, 0.00, 0.00, 0.00, 0.00
2564.0, 156390.64, 168342.52, 97628.33, 176101.23, 153743.67, 146301.14, 135062.48, 175954.17, 129508.26, 113227.36, 155038.73, 160327.41, 0.00, 0.00, 0.00, 0.00, 0.00, 0.00, 0.00
2568.0, 156390.64, 168342.52, 97628.33, 176101.23, 153743.67, 146301.14, 135062.48, 175954.17, 129470.38, 113248.80, 154997.61, 160282.97, 0.00, 0.00, 0.00, 0.00, 0.00, 0.00, 0.00
2572.0, 156386.39, 168333.80, 97616.13, 176090.28, 153730.58, 146270.53, 135070.30, 175946.47, 129470.38, 113248.80, 154997.61, 160282.97, 0.00, 0.00, 0.00, 0.00, 0.00, 0.00, 0.00
2576.0, 156386.39, 168333.80, 97616.13, 176090.28, 153730.58, 146270.53, 135070.30, 175946.47, 129510.30, 113232.21, 155039.36, 160337.19, 0.00, 0.00, 0.00, 0.00, 0.00, 0.00, 0.00
2580.0, 156400.22, 168337.52, 97640.80, 176109.36, 153748.30, 146307.94, 135067.30, 175956.81, 129510.30, 113232.21, 155039.36, 160337.19, 0.00, 0.00, 0.00, 0.00, 0.00, 0.00, 0.00
2584.0, 156400.22, 168337.52, 97640.80, 176109.36, 153748.30, 146307.94, 135067.30, 175956.81, 129475.88, 113248.15, 155003.98, 160276.39, 0.00, 0.00, 0.00, 0.00, 0.00, 0.00, 0.00
2588.0, 156400.16, 168342.25, 97623.92, 176099.17, 153727.94, 146269.44, 135085.83, 175951.00, 129475.88, 113248.15, 155003.98, 160276.39, 0.00, 0.00, 0.00, 0.00, 0.00, 0.00, 0.00
2592.0, 156400.16, 168342.25, 97623.92, 176099.17, 153727.94, 146269.44, 135085.83, 175951.00, 129518.05, 113241.09, 155051.20, 160342.78, 0.00, 0.00, 0.00, 0.00, 0.00, 0.00, 0.00
2596.0, 156426.63, 168359.25, 97666.19, 176127.19, 153771.55, 146330.50, 135084.58, 175974.08, 129518.05, 113241.09, 155051.20, 160342.78, 0.00, 0.00, 0.00, 0.00, 0.00, 0.00, 0.00
2600.0, 156426.63, 168359.25, 97666.19, 176127.19, 153771.55, 146330.50, 135084.58, 175974.08, 129501.91, 113266.52, 155017.88, 160309.77, 0.00, 0.00, 0.00, 0.00, 0.00, 0.00, 0.00
2604.0, 156415.48, 168351.97, 97631.09, 176112.81, 153734.95, 146282.02, 135095.97, 175960.45, 129501.91, 113266.52, 155017.88, 160309.77, 0.00, 0.00, 0.00, 0.00, 0.00, 0.00, 0.00
2608.0, 156415.48, 168351.97, 97631.09, 176112.81, 153734.95, 146282.02, 135095.97, 175960.45, 129522.55, 113250.72, 155045.44, 160328.98, 0.00, 0.00, 0.00, 0.00, 0.00, 0.00, 0.00
2612.0, 156420.16, 168360.27, 97671.45, 176124.45, 153770.31, 146332.78, 135086.03, 175971.80, 129522.55, 113250.72, 155045.44, 160328.98, 0.00, 0.00, 0.00, 0.00, 0.00, 0.00, 0.00
2616.0, 156420.16, 168360.27, 97671.45, 176124.45, 153770.31, 146332.78, 135086.03, 175971.80, 129491.63, 113255.32, 155017.95, 160313.77, 0.00, 0.00, 0.00, 0.00, 0.00, 0.00, 0.00
2620.0, 156392.58, 168339.08, 97620.46, 176096.14, 153725.55, 146262.13, 135095.34, 175953.08, 129491.63, 113255.32, 155017.95, 160313.77, 0.00, 0.00, 0.00, 0.00, 0.00, 0.00, 0.00
2624.0, 156392.58, 168339.08, 97620.46, 176096.14, 153725.55, 146262.13, 135095.34, 175953.08, 129503.30, 113234.49, 155038.22, 160315.89, 0.00, 0.00, 0.00, 0.00, 0.00, 0.00, 0.00
2628.0, 156413.69, 168352.86, 97670.48, 176115.53, 153769.94, 146331.03, 135084.73, 175969.00, 129503.30, 113234.49, 155038.22, 160315.89, 0.00, 0.00, 0.00, 0.00, 0.00, 0.00, 0.00
2632.0, 156413.69, 168352.86, 97670.48, 176115.53, 153769.94, 146331.03, 135084.73, 175969.00, 129497.60, 113255.03, 155019.31, 160311.33, 0.00, 0.00, 0.00, 0.00, 0.00, 0.00, 0.00
2636.0, 156387.06, 168326.11, 97613.38, 176098.69, 153723.64, 146266.30, 135099.11, 175954.33, 129497.60, 113255.03, 155019.31, 160311.33, 0.00, 0.00, 0.00, 0.00, 0.00, 0.00, 0.00
2640.0, 156387.06, 168326.11, 97613.38, 176098.69, 153723.64, 146266.30, 135099.11, 175954.33, 129506.78, 113251.23, 155029.50, 160311.48, 0.00, 0.00, 0.00, 0.00, 0.00, 0.00, 0.00
2644.0, 156411.44, 168348.91, 97672.88, 176117.39, 153772.78, 146331.09, 135089.14, 175970.89, 129506.78, 113251.23, 155029.50, 160311.48, 0.00, 0.00, 0.00, 0.00, 0.00, 0.00, 0.00
2648.0, 156411.44, 168348.91, 97672.88, 176117.39, 153772.78, 146331.09, 135089.14, 175970.89, 129505.06, 113246.77, 155021.91, 160331.58, 0.00, 0.00, 0.00, 0.00, 0.00, 0.00, 0.00
2652.0, 156385.31, 168327.56, 97611.02, 176095.47, 153721.95, 146262.66, 135096.47, 175950.47, 129505.06, 113246.77, 155021.91, 160331.58, 0.00, 0.00, 0.00, 0.00, 0.00, 0.00, 0.00
2656.0, 156385.31, 168327.56, 97611.02, 176095.47, 153721.95, 146262.66, 135096.47, 175950.47, 129504.93, 113256.17, 155031.53, 160311.22, 0.00, 0.00, 0.00, 0.00, 0.00, 0.00, 0.00
2660.0, 156433.66, 168371.39, 97691.52, 176133.63, 153788.22, 146343.50, 135110.64, 175985.83, 129504.93, 113256.17, 155031.53, 160311.22, 0.00, 0.00, 0.00, 0.00, 0.00, 0.00, 0.00
2664.0, 156433.66, 168371.39, 97691.52, 176133.63, 153788.22, 146343.50, 135110.64, 175985.83, 129520.94, 113255.05, 155046.33, 160332.05, 0.00, 0.00, 0.00, 0.00, 0.00, 0.00, 0.00
