%OpenBCI Raw EEG Data
%
%Sample Rate = 250.0 Hz
%First Column = Time (ms)
%Other Columns = EEG data in microvolts followed by Accel Data (in G) interleaved with Aux Data
0.0, -28771.81, -39878.50, -20761.04, -187500.02, -187500.02, -12168.11, -39568.91, 383.69, 0.00, 0.00, 0.00
4.0, -28746.62, -39852.64, -20731.04, -187500.02, -187500.02, -12163.39, -39571.75, 355.17, 0.00, 0.00, 0.00
8.0, -28754.45, -39862.23, -20737.68, -187500.02, -187500.02, -12161.85, -39583.17, 257.07, 0.00, 0.00, 0.00
12.0, -28787.95, -39898.53, -20772.53, -187500.02, -187500.02, -12182.50, -39602.75, 277.45, 0.00, 0.00, 0.00
16.0, -28782.03, -39895.16, -20768.17, -187500.02, -187500.02, -12181.34, -39594.37, 362.68, 0.00, 0.00, 0.00
20.0, -28763.86, -39879.00, -20747.25, -187500.02, -187500.02, -12181.95, -39604.65, 366.59, 0.00, 0.00, 0.00
24.0, -28742.58, -39859.35, -20726.24, -187500.02, -187500.02, -12164.31, -39597.14, 252.55, 0.00, 0.00, 0.00
28.0, -28778.23, -39897.86, -20763.25, -187500.02, -187500.02, -12171.15, -39598.89, 252.42, 0.00, 0.00, 0.00
32.0, -28806.97, -39924.57, -20780.88, -187500.02, -187500.02, -12188.65, -39603.09, 350.68, 0.00, 0.00, 0.00
36.0, -28785.04, -39906.71, -20759.36, -187500.02, -187500.02, -12191.47, -39606.11, 389.46, 0.00, 0.00, 0.00
40.0, -28726.46, -39860.78, -20711.91, -187500.02, -187500.02, -12154.03, -39585.41, 277.92, 0.00, 0.00, 0.00
44.0, -28739.36, -39869.95, -20714.93, -187500.02, -187500.02, -12133.89, -39569.83, 253.09, 0.00, 0.00, 0.00
48.0, -28767.77, -39901.04, -20740.96, -187500.02, -187500.02, -12147.64, -39572.00, 341.67, 0.00, 0.00, 0.00
52.0, -28761.35, -39895.16, -20731.24, -187500.02, -187500.02, -12149.71, -39572.02, 407.09, 0.00, 0.00, 0.00
56.0, -28739.80, -39880.32, -20709.79, -187500.02, -187500.02, -12142.45, -39582.68, 318.85, 0.00, 0.00, 0.00
60.0, -28744.50, -39888.72, -20714.75, -187500.02, -187500.02, -12140.42, -39581.83, 258.34, 0.00, 0.00, 0.00
64.0, -28757.84, -39906.49, -20733.10, -187500.02, -187500.02, -12144.13, -39569.94, 331.41, 0.00, 0.00, 0.00
68.0, -28752.48, -39902.07, -20721.21, -187500.02, -187500.02, -12136.19, -39567.32, 419.99, 0.00, 0.00, 0.00
72.0, -28721.12, -39869.63, -20685.06, -187500.02, -187500.02, -12120.59, -39573.02, 344.31, 0.00, 0.00, 0.00
76.0, -28721.81, -39871.53, -20690.36, -187500.02, -187500.02, -12108.45, -39557.60, 251.37, 0.00, 0.00, 0.00
80.0, -28760.03, -39910.43, -20725.72, -187500.02, -187500.02, -12123.38, -39562.45, 310.96, 0.00, 0.00, 0.00
84.0, -28785.34, -39931.19, -20736.76, -187500.02, -187500.02, -12136.55, -39575.24, 426.65, 0.00, 0.00, 0.00
88.0, -28760.55, -39911.16, -20713.85, -187500.02, -187500.02, -12148.04, -39587.04, 379.42, 0.00, 0.00, 0.00
92.0, -28743.61, -39891.22, -20689.82, -187500.02, -187500.02, -12124.35, -39571.35, 257.13, 0.00, 0.00, 0.00
96.0, -28774.27, -39916.82, -20714.59, -187500.02, -187500.02, -12120.23, -39563.82, 281.14, 0.00, 0.00, 0.00
100.0, -28791.55, -39940.24, -20738.44, -187500.02, -187500.02, -12132.21, -39568.35, 394.64, 0.00, 0.00, 0.00
104.0, -28776.71, -39930.00, -20726.19, -187500.02, -187500.02, -12154.25, -39582.61, 382.01, 0.00, 0.00, 0.00
108.0, -28744.32, -39896.45, -20687.48, -187500.02, -187500.02, -12128.44, -39564.02, 250.61, 0.00, 0.00, 0.00
112.0, -28780.75, -39927.30, -20717.72, -187500.02, -187500.02, -12122.63, -39563.73, 259.93, 0.00, 0.00, 0.00
116.0, -28812.11, -39960.71, -20753.06, -187500.02, -187500.02, -12144.89, -39574.01, 380.14, 0.00, 0.00, 0.00
120.0, -28787.97, -39938.63, -20718.32, -187500.02, -187500.02, -12144.06, -39583.35, 410.80, 0.00, 0.00, 0.00
124.0, -28760.26, -39909.30, -20686.05, -187500.02, -187500.02, -12117.77, -39570.99, 291.82, 0.00, 0.00, 0.00
128.0, -28780.60, -39934.59, -20713.29, -187500.02, -187500.02, -12121.15, -39562.25, 283.15, 0.00, 0.00, 0.00
132.0, -28786.19, -39940.00, -20720.13, -187500.02, -187500.02, -12123.63, -39552.28, 372.47, 0.00, 0.00, 0.00
136.0, -28775.05, -39928.53, -20705.58, -187500.02, -187500.02, -12115.87, -39554.96, 424.84, 0.00, 0.00, 0.00
140.0, -28766.22, -39918.40, -20689.38, -187500.02, -187500.02, -12099.76, -39563.66, 323.05, 0.00, 0.00, 0.00
144.0, -28801.00, -39950.03, -20718.64, -187500.02, -187500.02, -12105.39, -39571.84, 288.81, 0.00, 0.00, 0.00
148.0, -28807.53, -39964.56, -20738.39, -187500.02, -187500.02, -12116.08, -39569.87, 361.87, 0.00, 0.00, 0.00
152.0, -28796.33, -39950.34, -20721.01, -187500.02, -187500.02, -12101.03, -39567.48, 430.34, 0.00, 0.00, 0.00
156.0, -28755.21, -39912.82, -20677.46, -187500.02, -187500.02, -12081.05, -39560.38, 334.40, 0.00, 0.00, 0.00
160.0, -28761.98, -39924.59, -20694.27, -187500.02, -187500.02, -12068.65, -39550.83, 285.52, 0.00, 0.00, 0.00
164.0, -28782.27, -39946.93, -20712.85, -187500.02, -187500.02, -12090.42, -39551.43, 346.54, 0.00, 0.00, 0.00
168.0, -28790.05, -39954.12, -20715.75, -187500.02, -187500.02, -12096.18, -39554.41, 430.52, 0.00, 0.00, 0.00
172.0, -28774.83, -39938.66, -20695.77, -187500.02, -187500.02, -12094.68, -39572.93, 363.51, 0.00, 0.00, 0.00
176.0, -28779.61, -39943.30, -20698.09, -187500.02, -187500.02, -12086.50, -39569.92, 276.31, 0.00, 0.00, 0.00
180.0, -28807.84, -39973.16, -20726.10, -187500.02, -187500.02, -12112.12, -39576.02, 319.83, 0.00, 0.00, 0.00
184.0, -28813.45, -39992.01, -20747.78, -187500.02, -187500.02, -12125.24, -39588.43, 424.01, 0.00, 0.00, 0.00
188.0, -28783.37, -39962.04, -20712.40, -187500.02, -187500.02, -12120.43, -39593.30, 380.27, 0.00, 0.00, 0.00
192.0, -28776.82, -39956.02, -20709.49, -187500.02, -187500.02, -12101.14, -39586.44, 283.22, 0.00, 0.00, 0.00
196.0, -28804.27, -39981.88, -20730.46, -187500.02, -187500.02, -12113.39, -39587.31, 307.34, 0.00, 0.00, 0.00
200.0, -28810.30, -39990.69, -20734.84, -187500.02, -187500.02, -12120.03, -39586.50, 409.39, 0.00, 0.00, 0.00
204.0, -28785.29, -39967.24, -20704.38, -187500.02, -187500.02, -12122.07, -39599.60, 404.03, 0.00, 0.00, 0.00
208.0, -28774.65, -39957.68, -20692.46, -187500.02, -187500.02, -12106.55, -39588.87, 293.57, 0.00, 0.00, 0.00
212.0, -28814.73, -39992.57, -20725.97, -187500.02, -187500.02, -12119.61, -39591.49, 303.34, 0.00, 0.00, 0.00
216.0, -28812.72, -40000.25, -20735.42, -187500.02, -187500.02, -12123.90, -39582.08, 396.65, 0.00, 0.00, 0.00
220.0, -28795.37, -39987.49, -20717.38, -187500.02, -187500.02, -12129.49, -39586.37, 423.65, 0.00, 0.00, 0.00
224.0, -28781.22, -39971.38, -20694.79, -187500.02, -187500.02, -12126.47, -39584.51, 322.27, 0.00, 0.00, 0.00
228.0, -28794.32, -39984.36, -20706.72, -187500.02, -187500.02, -12112.97, -39572.36, 308.97, 0.00, 0.00, 0.00
232.0, -28815.69, -40004.97, -20727.26, -187500.02, -187500.02, -12114.58, -39567.73, 399.54, 0.00, 0.00, 0.00
236.0, -28811.04, -40004.75, -20724.22, -187500.02, -187500.02, -12109.59, -39580.47, 457.61, 0.00, 0.00, 0.00
240.0, -28781.47, -39975.98, -20693.38, -187500.02, -187500.02, -12100.59, -39577.36, 353.92, 0.00, 0.00, 0.00
244.0, -28787.30, -39981.39, -20698.77, -187500.02, -187500.02, -12081.92, -39563.46, 309.91, 0.00, 0.00, 0.00
248.0, -28810.95, -40005.02, -20720.56, -187500.02, -187500.02, -12090.64, -39565.47, 387.04, 0.00, 0.00, 0.00
252.0, -28825.23, -40020.48, -20732.52, -187500.02, -187500.02, -12111.78, -39589.25, 472.16, 0.00, 0.00, 0.00
256.0, -28782.12, -39980.65, -20690.88, -187500.02, -187500.02, -12107.92, -39584.34, 371.46, 0.00, 0.00, 0.00
260.0, -28782.45, -39980.16, -20689.58, -187500.02, -187500.02, -12089.23, -39565.18, 298.89, 0.00, 0.00, 0.00
264.0, -28802.46, -40002.07, -20708.51, -187500.02, -187500.02, -12100.14, -39566.39, 357.72, 0.00, 0.00, 0.00
268.0, -28797.61, -40002.16, -20708.46, -187500.02, -187500.02, -12111.74, -39566.09, 443.24, 0.00, 0.00, 0.00
272.0, -28784.06, -39989.62, -20694.90, -187500.02, -187500.02, -12122.67, -39581.61, 382.04, 0.00, 0.00, 0.00
276.0, -28811.20, -40012.21, -20717.52, -187500.02, -187500.02, -12130.38, -39592.89, 301.15, 0.00, 0.00, 0.00
280.0, -28826.26, -40034.59, -20739.85, -187500.02, -187500.02, -12144.64, -39597.37, 332.59, 0.00, 0.00, 0.00
284.0, -28821.12, -40039.06, -20743.94, -187500.02, -187500.02, -12146.99, -39596.49, 423.05, 0.00, 0.00, 0.00
288.0, -28794.05, -40014.58, -20718.61, -187500.02, -187500.02, -12146.59, -39603.42, 386.80, 0.00, 0.00, 0.00
292.0, -28788.24, -40009.53, -20710.30, -187500.02, -187500.02, -12129.31, -39598.28, 289.37, 0.00, 0.00, 0.00
296.0, -28806.14, -40031.17, -20731.55, -187500.02, -187500.02, -12136.71, -39600.09, 307.98, 0.00, 0.00, 0.00
300.0, -28824.61, -40051.96, -20751.83, -187500.02, -187500.02, -12151.88, -39616.66, 405.89, 0.00, 0.00, 0.00
304.0, -28801.79, -40034.14, -20732.96, -187500.02, -187500.02, -12159.06, -39630.91, 401.84, 0.00, 0.00, 0.00
308.0, -28783.50, -40016.59, -20713.41, -187500.02, -187500.02, -12146.63, -39630.45, 288.43, 0.00, 0.00, 0.00
312.0, -28796.80, -40033.34, -20732.14, -187500.02, -187500.02, -12147.14, -39626.89, 284.34, 0.00, 0.00, 0.00
316.0, -28813.95, -40047.93, -20746.58, -187500.02, -187500.02, -12149.04, -39619.79, 382.26, 0.00, 0.00, 0.00
320.0, -28807.08, -40045.34, -20746.26, -187500.02, -187500.02, -12159.93, -39631.00, 418.87, 0.00, 0.00, 0.00
324.0, -28783.28, -40024.04, -20723.02, -187500.02, -187500.02, -12149.65, -39635.23, 307.58, 0.00, 0.00, 0.00
328.0, -28792.89, -40032.18, -20732.00, -187500.02, -187500.02, -12138.90, -39630.36, 277.56, 0.00, 0.00, 0.00
332.0, -28808.74, -40055.82, -20758.69, -187500.02, -187500.02, -12158.61, -39639.27, 366.93, 0.00, 0.00, 0.00
336.0, -28804.47, -40055.73, -20756.97, -187500.02, -187500.02, -12174.88, -39660.69, 424.30, 0.00, 0.00, 0.00
340.0, -28785.36, -40038.66, -20739.54, -187500.02, -187500.02, -12181.86, -39667.06, 322.89, 0.00, 0.00, 0.00
344.0, -28792.20, -40047.20, -20751.38, -187500.02, -187500.02, -12176.54, -39658.09, 264.04, 0.00, 0.00, 0.00
348.0, -28817.88, -40066.15, -20765.26, -187500.02, -187500.02, -12185.86, -39660.73, 327.05, 0.00, 0.00, 0.00
352.0, -28810.86, -40067.89, -20765.87, -187500.02, -187500.02, -12189.81, -39673.65, 401.84, 0.00, 0.00, 0.00
356.0, -28785.00, -40046.19, -20744.56, -187500.02, -187500.02, -12183.11, -39684.80, 318.69, 0.00, 0.00, 0.00
360.0, -28806.01, -40063.20, -20760.34, -187500.02, -187500.02, -12182.15, -39688.40, 245.04, 0.00, 0.00, 0.00
364.0, -28839.02, -40095.65, -20789.38, -187500.02, -187500.02, -12200.99, -39698.39, 294.10, 0.00, 0.00, 0.00
368.0, -28855.07, -40114.94, -20808.82, -187500.02, -187500.02, -12235.61, -39722.27, 383.53, 0.00, 0.00, 0.00
372.0, -28811.00, -40071.58, -20763.79, -187500.02, -187500.02, -12228.80, -39717.64, 309.55, 0.00, 0.00, 0.00
376.0, -28804.42, -40063.18, -20754.35, -187500.02, -187500.02, -12187.56, -39701.66, 214.80, 0.00, 0.00, 0.00
380.0, -28839.61, -40096.37, -20786.03, -187500.02, -187500.02, -12204.10, -39712.61, 251.86, 0.00, 0.00, 0.00
384.0, -28866.54, -40119.61, -20806.05, -187500.02, -187500.02, -12219.54, -39723.95, 354.86, 0.00, 0.00, 0.00
388.0, -28836.97, -40096.32, -20782.07, -187500.02, -187500.02, -12224.75, -39737.06, 330.20, 0.00, 0.00, 0.00
392.0, -28822.28, -40084.77, -20769.53, -187500.02, -187500.02, -12209.73, -39731.66, 216.79, 0.00, 0.00, 0.00
396.0, -28853.73, -40112.46, -20795.93, -187500.02, -187500.02, -12214.83, -39738.72, 226.38, 0.00, 0.00, 0.00
400.0, -28860.95, -40121.47, -20805.54, -187500.02, -187500.02, -12216.66, -39739.46, 325.73, 0.00, 0.00, 0.00
404.0, -28835.72, -40098.60, -20784.80, -187500.02, -187500.02, -12217.80, -39741.22, 334.25, 0.00, 0.00, 0.00
408.0, -28820.43, -40081.44, -20772.50, -187500.02, -187500.02, -12217.33, -39731.48, 217.86, 0.00, 0.00, 0.00
412.0, -28828.65, -40089.15, -20775.14, -187500.02, -187500.02, -12203.40, -39716.75, 214.76, 0.00, 0.00, 0.00
416.0, -28840.92, -40098.47, -20779.32, -187500.02, -187500.02, -12201.33, -39710.84, 326.85, 0.00, 0.00, 0.00
420.0, -28826.82, -40085.82, -20766.94, -187500.02, -187500.02, -12213.08, -39713.59, 374.46, 0.00, 0.00, 0.00
424.0, -28788.76, -40049.96, -20733.05, -187500.02, -187500.02, -12203.92, -39697.73, 264.51, 0.00, 0.00, 0.00
428.0, -28802.35, -40063.80, -20746.78, -187500.02, -187500.02, -12189.79, -39681.07, 241.49, 0.00, 0.00, 0.00
432.0, -28821.72, -40086.45, -20769.33, -187500.02, -187500.02, -12209.95, -39681.74, 327.99, 0.00, 0.00, 0.00
436.0, -28815.46, -40079.47, -20763.27, -187500.02, -187500.02, -12221.93, -39686.08, 393.64, 0.00, 0.00, 0.00
440.0, -28778.25, -40046.79, -20734.30, -187500.02, -187500.02, -12220.06, -39686.06, 299.22, 0.00, 0.00, 0.00
444.0, -28798.08, -40061.75, -20740.83, -187500.02, -187500.02, -12208.66, -39685.90, 249.18, 0.00, 0.00, 0.00
448.0, -28818.53, -40079.45, -20756.77, -187500.02, -187500.02, -12222.56, -39682.86, 311.70, 0.00, 0.00, 0.00
452.0, -28820.61, -40089.13, -20770.96, -187500.02, -187500.02, -12255.39, -39689.10, 393.73, 0.00, 0.00, 0.00
456.0, -28787.82, -40057.81, -20735.47, -187500.02, -187500.02, -12237.51, -39690.08, 301.93, 0.00, 0.00, 0.00
460.0, -28798.25, -40066.86, -20741.55, -187500.02, -187500.02, -12220.37, -39686.35, 220.79, 0.00, 0.00, 0.00
464.0, -28822.64, -40095.81, -20773.46, -187500.02, -187500.02, -12239.08, -39691.45, 274.03, 0.00, 0.00, 0.00
468.0, -28837.75, -40107.14, -20784.86, -187500.02, -187500.02, -12246.12, -39697.25, 376.20, 0.00, 0.00, 0.00
472.0, -28805.72, -40075.31, -20753.64, -187500.02, -187500.02, -12244.04, -39698.84, 317.37, 0.00, 0.00, 0.00
476.0, -28776.55, -40051.40, -20731.46, -187500.02, -187500.02, -12223.36, -39674.30, 214.06, 0.00, 0.00, 0.00
480.0, -28793.31, -40065.86, -20741.79, -187500.02, -187500.02, -12221.91, -39671.95, 253.22, 0.00, 0.00, 0.00
484.0, -28803.89, -40075.67, -20749.97, -187500.02, -187500.02, -12226.67, -39672.58, 365.16, 0.00, 0.00, 0.00
488.0, -28778.47, -40052.80, -20729.99, -187500.02, -187500.02, -12241.22, -39681.12, 348.78, 0.00, 0.00, 0.00
492.0, -28762.49, -40037.70, -20720.76, -187500.02, -187500.02, -12222.96, -39667.35, 241.15, 0.00, 0.00, 0.00
496.0, -28792.35, -40060.27, -20737.30, -187500.02, -187500.02, -12218.18, -39665.25, 256.64, 0.00, 0.00, 0.00
500.0, -28816.11, -40080.99, -20755.09, -187500.02, -187500.02, -12219.18, -39666.99, 364.42, 0.00, 0.00, 0.00
504.0, -28798.52, -40067.00, -20743.25, -187500.02, -187500.02, -12235.37, -39674.50, 376.58, 0.00, 0.00, 0.00
508.0, -28771.84, -40045.43, -20726.37, -187500.02, -187500.02, -12218.69, -39656.06, 260.71, 0.00, 0.00, 0.00
512.0, -28800.18, -40074.35, -20750.71, -187500.02, -187500.02, -12211.81, -39658.72, 253.85, 0.00, 0.00, 0.00
516.0, -28815.26, -40085.37, -20760.61, -187500.02, -187500.02, -12211.70, -39652.04, 344.24, 0.00, 0.00, 0.00
520.0, -28813.95, -40075.45, -20745.86, -187500.02, -187500.02, -12228.28, -39656.13, 387.60, 0.00, 0.00, 0.00
524.0, -28784.84, -40049.83, -20719.48, -187500.02, -187500.02, -12197.48, -39650.59, 281.48, 0.00, 0.00, 0.00
528.0, -28798.19, -40064.88, -20736.29, -187500.02, -187500.02, -12190.91, -39647.01, 244.39, 0.00, 0.00, 0.00
532.0, -28824.50, -40091.38, -20762.89, -187500.02, -187500.02, -12210.06, -39645.31, 328.79, 0.00, 0.00, 0.00
536.0, -28822.28, -40087.72, -20761.22, -187500.02, -187500.02, -12220.82, -39657.69, 395.02, 0.00, 0.00, 0.00
540.0, -28798.14, -40065.93, -20746.87, -187500.02, -187500.02, -12213.19, -39660.91, 297.68, 0.00, 0.00, 0.00
544.0, -28823.42, -40084.70, -20757.64, -187500.02, -187500.02, -12198.06, -39658.61, 246.18, 0.00, 0.00, 0.00
548.0, -28844.39, -40103.32, -20766.31, -187500.02, -187500.02, -12214.11, -39662.83, 315.27, 0.00, 0.00, 0.00
552.0, -28831.31, -40094.38, -20759.83, -187500.02, -187500.02, -12212.93, -39657.89, 396.27, 0.00, 0.00, 0.00
556.0, -28793.38, -40059.55, -20726.91, -187500.02, -187500.02, -12196.03, -39647.93, 323.27, 0.00, 0.00, 0.00
560.0, -28797.79, -40059.24, -20730.48, -187500.02, -187500.02, -12179.17, -39638.67, 241.87, 0.00, 0.00, 0.00
564.0, -28824.99, -40078.98, -20743.69, -187500.02, -187500.02, -12173.59, -39636.17, 293.28, 0.00, 0.00, 0.00
568.0, -28826.82, -40086.89, -20747.87, -187500.02, -187500.02, -12177.88, -39647.23, 403.07, 0.00, 0.00, 0.00
572.0, -28810.03, -40072.07, -20738.82, -187500.02, -187500.02, -12184.05, -39661.36, 364.00, 0.00, 0.00, 0.00
576.0, -28802.93, -40061.01, -20729.61, -187500.02, -187500.02, -12170.35, -39644.19, 256.35, 0.00, 0.00, 0.00
580.0, -28838.60, -40094.91, -20757.37, -187500.02, -187500.02, -12180.52, -39651.34, 290.44, 0.00, 0.00, 0.00
584.0, -28839.34, -40104.82, -20775.34, -187500.02, -187500.02, -12196.70, -39654.03, 386.22, 0.00, 0.00, 0.00
588.0, -28812.72, -40074.71, -20743.49, -187500.02, -187500.02, -12192.12, -39650.63, 371.40, 0.00, 0.00, 0.00
592.0, -28799.64, -40054.01, -20712.15, -187500.02, -187500.02, -12146.74, -39637.98, 267.13, 0.00, 0.00, 0.00
596.0, -28829.73, -40087.32, -20745.73, -187500.02, -187500.02, -12162.01, -39643.57, 280.89, 0.00, 0.00, 0.00
600.0, -28848.21, -40102.85, -20760.34, -187500.02, -187500.02, -12172.22, -39648.66, 372.13, 0.00, 0.00, 0.00
604.0, -28822.06, -40080.72, -20738.95, -187500.02, -187500.02, -12160.71, -39649.29, 391.22, 0.00, 0.00, 0.00
608.0, -28792.44, -40052.25, -20711.91, -187500.02, -187500.02, -12141.04, -39638.52, 283.17, 0.00, 0.00, 0.00
612.0, -28802.72, -40058.21, -20713.00, -187500.02, -187500.02, -12118.98, -39621.08, 262.14, 0.00, 0.00, 0.00
616.0, -28829.10, -40084.28, -20736.72, -187500.02, -187500.02, -12125.17, -39621.15, 356.64, 0.00, 0.00, 0.00
620.0, -28825.35, -40083.96, -20734.13, -187500.02, -187500.02, -12143.19, -39633.35, 411.00, 0.00, 0.00, 0.00
624.0, -28782.32, -40051.71, -20703.32, -187500.02, -187500.02, -12129.22, -39623.25, 308.54, 0.00, 0.00, 0.00
628.0, -28801.59, -40069.59, -20719.24, -187500.02, -187500.02, -12122.69, -39614.26, 269.18, 0.00, 0.00, 0.00
632.0, -28807.08, -40076.57, -20721.21, -187500.02, -187500.02, -12113.28, -39607.16, 338.16, 0.00, 0.00, 0.00
636.0, -28811.04, -40079.85, -20718.93, -187500.02, -187500.02, -12117.62, -39626.38, 420.41, 0.00, 0.00, 0.00
640.0, -28773.87, -40042.95, -20681.44, -187500.02, -187500.02, -12107.29, -39617.35, 330.94, 0.00, 0.00, 0.00
644.0, -28788.84, -40060.56, -20700.75, -187500.02, -187500.02, -12091.11, -39606.26, 273.41, 0.00, 0.00, 0.00
648.0, -28808.27, -40082.24, -20727.00, -187500.02, -187500.02, -12089.83, -39603.71, 337.04, 0.00, 0.00, 0.00
652.0, -28806.95, -40088.05, -20722.30, -187500.02, -187500.02, -12106.84, -39617.04, 427.21, 0.00, 0.00, 0.00
656.0, -28777.27, -40062.39, -20683.39, -187500.02, -187500.02, -12101.21, -39633.20, 352.00, 0.00, 0.00, 0.00
660.0, -28777.31, -40056.49, -20676.46, -187500.02, -187500.02, -12073.00, -39621.30, 269.38, 0.00, 0.00, 0.00
664.0, -28794.46, -40072.96, -20695.79, -187500.02, -187500.02, -12061.49, -39602.91, 322.56, 0.00, 0.00, 0.00
668.0, -28806.99, -40086.98, -20705.69, -187500.02, -187500.02, -12062.28, -39606.95, 436.40, 0.00, 0.00, 0.00
672.0, -28778.41, -40063.20, -20680.82, -187500.02, -187500.02, -12070.50, -39621.06, 399.67, 0.00, 0.00, 0.00
676.0, -28774.00, -40052.36, -20663.76, -187500.02, -187500.02, -12054.12, -39610.62, 297.77, 0.00, 0.00, 0.00
680.0, -28805.68, -40086.18, -20698.54, -187500.02, -187500.02, -12065.14, -39614.49, 326.65, 0.00, 0.00, 0.00
684.0, -28821.97, -40103.79, -20706.37, -187500.02, -187500.02, -12078.23, -39627.45, 430.81, 0.00, 0.00, 0.00
688.0, -28791.55, -40075.89, -20675.63, -187500.02, -187500.02, -12075.78, -39628.82, 422.65, 0.00, 0.00, 0.00
692.0, -28774.63, -40053.59, -20651.94, -187500.02, -187500.02, -12046.27, -39609.21, 315.16, 0.00, 0.00, 0.00
696.0, -28801.36, -40076.14, -20669.48, -187500.02, -187500.02, -12037.51, -39604.56, 320.61, 0.00, 0.00, 0.00
700.0, -28828.03, -40104.19, -20695.79, -187500.02, -187500.02, -12053.31, -39619.11, 421.89, 0.00, 0.00, 0.00
704.0, -28787.55, -40070.57, -20658.69, -187500.02, -187500.02, -12040.37, -39614.58, 447.06, 0.00, 0.00, 0.00
708.0, -28750.76, -40034.48, -20620.20, -187500.02, -187500.02, -12011.58, -39595.91, 327.88, 0.00, 0.00, 0.00
712.0, -28780.98, -40064.50, -20646.62, -187500.02, -187500.02, -12003.11, -39597.68, 309.44, 0.00, 0.00, 0.00
716.0, -28808.67, -40097.22, -20669.53, -187500.02, -187500.02, -12015.31, -39605.88, 391.02, 0.00, 0.00, 0.00
720.0, -28783.93, -40098.38, -20659.96, -187500.02, -187500.02, -12021.95, -39616.43, 438.38, 0.00, 0.00, 0.00
724.0, -28740.97, -40068.32, -20610.68, -187500.02, -187500.02, -11995.55, -39602.28, 339.28, 0.00, 0.00, 0.00
728.0, -28769.62, -40094.58, -20628.11, -187500.02, -187500.02, -11981.67, -39595.82, 308.97, 0.00, 0.00, 0.00
732.0, -28785.31, -40122.74, -20653.10, -187500.02, -187500.02, -11993.99, -39599.49, 394.66, 0.00, 0.00, 0.00
736.0, -28794.83, -40138.37, -20665.73, -187500.02, -187500.02, -12008.47, -39610.91, 474.82, 0.00, 0.00, 0.00
740.0, -28771.70, -40123.05, -20642.26, -187500.02, -187500.02, -12022.31, -39620.14, 392.00, 0.00, 0.00, 0.00
744.0, -28786.68, -40137.79, -20647.76, -187500.02, -187500.02, -12002.93, -39620.66, 329.67, 0.00, 0.00, 0.00
748.0, -28798.23, -40155.71, -20662.67, -187500.02, -187500.02, -12010.06, -39609.21, 378.71, 0.00, 0.00, 0.00
752.0, -28809.43, -40173.55, -20679.25, -187500.02, -187500.02, -12016.28, -39613.59, 472.40, 0.00, 0.00, 0.00
756.0, -28776.39, -40146.35, -20644.50, -187500.02, -187500.02, -12009.75, -39617.46, 414.76, 0.00, 0.00, 0.00
760.0, -28766.52, -40138.95, -20631.98, -187500.02, -187500.02, -11980.83, -39600.96, 324.30, 0.00, 0.00, 0.00
764.0, -28812.25, -40188.57, -20678.58, -187500.02, -187500.02, -12000.54, -39620.88, 381.95, 0.00, 0.00, 0.00
768.0, -28818.80, -40200.41, -20685.85, -187500.02, -187500.02, -12025.69, -39634.45, 482.89, 0.00, 0.00, 0.00
772.0, -28776.91, -40165.37, -20647.07, -187500.02, -187500.02, -12014.29, -39625.44, 441.34, 0.00, 0.00, 0.00
776.0, -28774.38, -40159.29, -20637.46, -187500.02, -187500.02, -11998.26, -39625.42, 336.15, 0.00, 0.00, 0.00
780.0, -28784.71, -40174.33, -20649.41, -187500.02, -187500.02, -11985.88, -39616.19, 347.59, 0.00, 0.00, 0.00
784.0, -28796.44, -40193.49, -20662.82, -187500.02, -187500.02, -11996.34, -39619.16, 445.07, 0.00, 0.00, 0.00
788.0, -28779.90, -40181.17, -20648.85, -187500.02, -187500.02, -12002.55, -39623.81, 448.42, 0.00, 0.00, 0.00
792.0, -28777.00, -40177.46, -20637.19, -187500.02, -187500.02, -11996.05, -39621.64, 342.29, 0.00, 0.00, 0.00
796.0, -28801.88, -40201.64, -20653.77, -187500.02, -187500.02, -11994.37, -39618.06, 334.74, 0.00, 0.00, 0.00
800.0, -28801.09, -40214.72, -20674.38, -187500.02, -187500.02, -12003.22, -39613.50, 429.49, 0.00, 0.00, 0.00
804.0, -28779.61, -40193.73, -20645.43, -187500.02, -187500.02, -12002.24, -39618.40, 471.62, 0.00, 0.00, 0.00
808.0, -28759.18, -40171.27, -20614.37, -187500.02, -187500.02, -11985.21, -39619.56, 366.97, 0.00, 0.00, 0.00
812.0, -28780.78, -40193.73, -20637.77, -187500.02, -187500.02, -11994.35, -39622.45, 338.67, 0.00, 0.00, 0.00
816.0, -28803.04, -40226.23, -20669.93, -187500.02, -187500.02, -12019.11, -39632.95, 428.13, 0.00, 0.00, 0.00
820.0, -28797.83, -40223.80, -20666.45, -187500.02, -187500.02, -12031.16, -39644.04, 493.66, 0.00, 0.00, 0.00
824.0, -28769.80, -40195.66, -20634.50, -187500.02, -187500.02, -12021.44, -39638.89, 388.67, 0.00, 0.00, 0.00
828.0, -28792.76, -40217.67, -20654.78, -187500.02, -187500.02, -12020.90, -39635.01, 338.58, 0.00, 0.00, 0.00
832.0, -28808.87, -40239.26, -20674.27, -187500.02, -187500.02, -12044.80, -39636.55, 404.37, 0.00, 0.00, 0.00
836.0, -28801.61, -40234.19, -20663.49, -187500.02, -187500.02, -12039.52, -39632.03, 479.06, 0.00, 0.00, 0.00
840.0, -28773.71, -40208.64, -20630.59, -187500.02, -187500.02, -12028.17, -39634.65, 405.75, 0.00, 0.00, 0.00
844.0, -28780.82, -40215.95, -20640.74, -187500.02, -187500.02, -12011.74, -39621.82, 336.59, 0.00, 0.00, 0.00
848.0, -28811.11, -40250.95, -20680.44, -187500.02, -187500.02, -12028.88, -39625.75, 390.80, 0.00, 0.00, 0.00
852.0, -28827.58, -40270.67, -20696.02, -187500.02, -187500.02, -12045.20, -39638.31, 491.67, 0.00, 0.00, 0.00
856.0, -28785.16, -40231.06, -20653.03, -187500.02, -187500.02, -12034.25, -39640.23, 435.01, 0.00, 0.00, 0.00
860.0, -28776.33, -40221.85, -20645.21, -187500.02, -187500.02, -12014.38, -39627.32, 346.52, 0.00, 0.00, 0.00
864.0, -28808.16, -40254.30, -20676.30, -187500.02, -187500.02, -12032.73, -39639.57, 391.36, 0.00, 0.00, 0.00
868.0, -28810.21, -40259.87, -20682.05, -187500.02, -187500.02, -12033.91, -39648.62, 488.03, 0.00, 0.00, 0.00
872.0, -28773.60, -40224.71, -20646.17, -187500.02, -187500.02, -12012.70, -39647.70, 461.88, 0.00, 0.00, 0.00
876.0, -28767.12, -40216.73, -20638.30, -187500.02, -187500.02, -12001.41, -39644.82, 360.65, 0.00, 0.00, 0.00
880.0, -28793.85, -40243.42, -20661.86, -187500.02, -187500.02, -12016.39, -39647.90, 378.26, 0.00, 0.00, 0.00
884.0, -28802.93, -40255.51, -20673.60, -187500.02, -187500.02, -12027.29, -39646.00, 476.23, 0.00, 0.00, 0.00
888.0, -28785.11, -40244.14, -20659.18, -187500.02, -187500.02, -12031.09, -39660.02, 496.32, 0.00, 0.00, 0.00
892.0, -28766.72, -40226.59, -20637.97, -187500.02, -187500.02, -12026.49, -39655.68, 385.01, 0.00, 0.00, 0.00
896.0, -28780.53, -40243.40, -20654.89, -187500.02, -187500.02, -12030.02, -39644.89, 371.62, 0.00, 0.00, 0.00
900.0, -28798.34, -40260.50, -20671.54, -187500.02, -187500.02, -12035.34, -39646.27, 464.54, 0.00, 0.00, 0.00
904.0, -28783.99, -40246.17, -20655.51, -187500.02, -187500.02, -12038.36, -39656.96, 503.83, 0.00, 0.00, 0.00
908.0, -28747.00, -40215.04, -20620.18, -187500.02, -187500.02, -12027.12, -39643.81, 392.23, 0.00, 0.00, 0.00
912.0, -28765.49, -40238.46, -20640.14, -187500.02, -187500.02, -12014.78, -39638.18, 362.48, 0.00, 0.00, 0.00
916.0, -28800.63, -40277.21, -20678.43, -187500.02, -187500.02, -12035.32, -39654.14, 449.40, 0.00, 0.00, 0.00
920.0, -28798.97, -40276.86, -20676.10, -187500.02, -187500.02, -12049.62, -39666.48, 513.44, 0.00, 0.00, 0.00
924.0, -28750.65, -40229.94, -20623.60, -187500.02, -187500.02, -12024.48, -39650.90, 411.41, 0.00, 0.00, 0.00
928.0, -28773.67, -40251.36, -20640.14, -187500.02, -187500.02, -12011.33, -39656.60, 370.64, 0.00, 0.00, 0.00
932.0, -28787.82, -40268.07, -20657.35, -187500.02, -187500.02, -12031.38, -39662.63, 431.34, 0.00, 0.00, 0.00
936.0, -28797.16, -40280.03, -20668.32, -187500.02, -187500.02, -12037.00, -39677.63, 516.97, 0.00, 0.00, 0.00
940.0, -28762.58, -40249.21, -20635.82, -187500.02, -187500.02, -12033.60, -39680.89, 437.31, 0.00, 0.00, 0.00
944.0, -28757.42, -40242.46, -20627.06, -187500.02, -187500.02, -12005.28, -39661.54, 352.31, 0.00, 0.00, 0.00
948.0, -28780.20, -40269.24, -20652.94, -187500.02, -187500.02, -12019.49, -39667.08, 402.76, 0.00, 0.00, 0.00
952.0, -28788.96, -40277.77, -20662.60, -187500.02, -187500.02, -12030.09, -39676.11, 501.46, 0.00, 0.00, 0.00
956.0, -28756.46, -40248.25, -20631.35, -187500.02, -187500.02, -12029.22, -39673.81, 455.48, 0.00, 0.00, 0.00
960.0, -28761.80, -40252.63, -20635.40, -187500.02, -187500.02, -12019.81, -39666.61, 367.46, 0.00, 0.00, 0.00
964.0, -28788.60, -40277.44, -20664.50, -187500.02, -187500.02, -12035.54, -39671.68, 392.85, 0.00, 0.00, 0.00
968.0, -28788.49, -40277.26, -20656.23, -187500.02, -187500.02, -12029.87, -39664.20, 488.34, 0.00, 0.00, 0.00
972.0, -28757.71, -40254.57, -20630.46, -187500.02, -187500.02, -12033.04, -39669.11, 471.00, 0.00, 0.00, 0.00
976.0, -28746.55, -40244.16, -20622.37, -187500.02, -187500.02, -12020.01, -39658.12, 364.29, 0.00, 0.00, 0.00
980.0, -28782.09, -40281.06, -20658.78, -187500.02, -187500.02, -12033.35, -39663.82, 378.66, 0.00, 0.00, 0.00
984.0, -28797.07, -40298.27, -20671.74, -187500.02, -187500.02, -12043.90, -39670.77, 469.57, 0.00, 0.00, 0.00
988.0, -28779.72, -40282.02, -20658.00, -187500.02, -187500.02, -12047.43, -39678.64, 488.68, 0.00, 0.00, 0.00
992.0, -28766.81, -40269.59, -20648.03, -187500.02, -187500.02, -12033.60, -39673.43, 389.17, 0.00, 0.00, 0.00
996.0, -28791.30, -40295.07, -20673.82, -187500.02, -187500.02, -12033.89, -39675.66, 376.92, 0.00, 0.00, 0.00
1000.0, -28809.34, -40315.80, -20692.02, -187500.02, -187500.02, -12040.57, -39677.72, 461.23, 0.00, 0.00, 0.00
1004.0, -28788.00, -40298.14, -20671.88, -187500.02, -187500.02, -12038.89, -39684.47, 504.93, 0.00, 0.00, 0.00
1008.0, -28758.07, -40270.38, -20640.58, -187500.02, -187500.02, -12020.75, -39678.37, 406.67, 0.00, 0.00, 0.00
1012.0, -28776.95, -40287.88, -20656.77, -187500.02, -187500.02, -12020.39, -39679.42, 369.56, 0.00, 0.00, 0.00
1016.0, -28799.93, -40312.02, -20679.86, -187500.02, -187500.02, -12039.68, -39679.96, 445.78, 0.00, 0.00, 0.00
1020.0, -28789.52, -40303.77, -20672.05, -187500.02, -187500.02, -12040.75, -39679.20, 515.41, 0.00, 0.00, 0.00
1024.0, -28764.68, -40278.38, -20644.18, -187500.02, -187500.02, -12027.56, -39686.95, 430.56, 0.00, 0.00, 0.00
1028.0, -28774.07, -40285.38, -20652.54, -187500.02, -187500.02, -12019.23, -39679.11, 374.15, 0.00, 0.00, 0.00
1032.0, -28802.61, -40311.84, -20677.96, -187500.02, -187500.02, -12035.94, -39682.77, 436.35, 0.00, 0.00, 0.00
1036.0, -28806.53, -40315.97, -20682.09, -187500.02, -187500.02, -12050.96, -39691.24, 524.89, 0.00, 0.00, 0.00
1040.0, -28780.15, -40291.01, -20659.27, -187500.02, -187500.02, -12057.89, -39701.66, 455.84, 0.00, 0.00, 0.00
1044.0, -28770.99, -40283.61, -20657.12, -187500.02, -187500.02, -12043.03, -39684.58, 372.34, 0.00, 0.00, 0.00
1048.0, -28797.94, -40307.75, -20679.92, -187500.02, -187500.02, -12049.02, -39686.17, 422.56, 0.00, 0.00, 0.00
1052.0, -28809.10, -40318.05, -20691.28, -187500.02, -187500.02, -12061.09, -39697.88, 516.79, 0.00, 0.00, 0.00
1056.0, -28773.67, -40285.31, -20658.78, -187500.02, -187500.02, -12054.88, -39701.17, 463.98, 0.00, 0.00, 0.00
1060.0, -28753.91, -40264.52, -20637.74, -187500.02, -187500.02, -12030.51, -39682.59, 351.28, 0.00, 0.00, 0.00
1064.0, -28787.86, -40295.32, -20670.69, -187500.02, -187500.02, -12040.86, -39686.10, 377.03, 0.00, 0.00, 0.00
1068.0, -28818.68, -40323.89, -20695.61, -187500.02, -187500.02, -12056.22, -39699.98, 488.50, 0.00, 0.00, 0.00
1072.0, -28799.82, -40307.17, -20679.48, -187500.02, -187500.02, -12072.42, -39713.21, 489.48, 0.00, 0.00, 0.00
1076.0, -28771.70, -40278.94, -20654.67, -187500.02, -187500.02, -12060.17, -39694.02, 377.25, 0.00, 0.00, 0.00
1080.0, -28795.13, -40298.94, -20678.87, -187500.02, -187500.02, -12057.13, -39685.77, 386.82, 0.00, 0.00, 0.00
1084.0, -28797.43, -40301.18, -20682.96, -187500.02, -187500.02, -12061.31, -39681.48, 481.39, 0.00, 0.00, 0.00
1088.0, -28785.04, -40287.61, -20668.52, -187500.02, -187500.02, -12063.84, -39691.42, 510.54, 0.00, 0.00, 0.00
1092.0, -28755.38, -40261.57, -20644.16, -187500.02, -187500.02, -12052.73, -39687.27, 400.23, 0.00, 0.00, 0.00
1096.0, -28771.70, -40277.48, -20659.87, -187500.02, -187500.02, -12046.94, -39684.49, 372.89, 0.00, 0.00, 0.00
1100.0, -28791.13, -40298.18, -20681.00, -187500.02, -187500.02, -12059.88, -39689.37, 455.73, 0.00, 0.00, 0.00
1104.0, -28775.86, -40286.94, -20669.71, -187500.02, -187500.02, -12063.91, -39693.99, 501.64, 0.00, 0.00, 0.00
1108.0, -28749.91, -40262.49, -20643.76, -187500.02, -187500.02, -12055.12, -39685.79, 400.59, 0.00, 0.00, 0.00
1112.0, -28769.49, -40281.62, -20664.88, -187500.02, -187500.02, -12056.33, -39680.13, 353.87, 0.00, 0.00, 0.00
1116.0, -28795.01, -40307.82, -20692.53, -187500.02, -187500.02, -12068.13, -39684.67, 429.62, 0.00, 0.00, 0.00
1120.0, -28797.88, -40311.39, -20690.25, -187500.02, -187500.02, -12081.72, -39705.23, 509.04, 0.00, 0.00, 0.00
1124.0, -28767.19, -40281.22, -20661.17, -187500.02, -187500.02, -12080.60, -39709.15, 420.64, 0.00, 0.00, 0.00
1128.0, -28771.52, -40280.64, -20660.59, -187500.02, -187500.02, -12067.30, -39700.09, 348.46, 0.00, 0.00, 0.00
1132.0, -28796.13, -40306.25, -20685.96, -187500.02, -187500.02, -12083.60, -39708.12, 406.53, 0.00, 0.00, 0.00
1136.0, -28787.44, -40299.59, -20679.39, -187500.02, -187500.02, -12079.06, -39703.40, 489.70, 0.00, 0.00, 0.00
1140.0, -28752.79, -40267.49, -20647.11, -187500.02, -187500.02, -12067.73, -39708.16, 429.02, 0.00, 0.00, 0.00
1144.0, -28750.09, -40263.34, -20644.96, -187500.02, -187500.02, -12050.41, -39700.12, 348.62, 0.00, 0.00, 0.00
1148.0, -28769.02, -40283.43, -20667.36, -187500.02, -187500.02, -12055.10, -39699.09, 395.20, 0.00, 0.00, 0.00
1152.0, -28772.30, -40287.09, -20673.11, -187500.02, -187500.02, -12057.76, -39698.35, 498.73, 0.00, 0.00, 0.00
1156.0, -28748.16, -40263.09, -20648.96, -187500.02, -187500.02, -12063.04, -39710.15, 471.85, 0.00, 0.00, 0.00
1160.0, -28736.05, -40249.01, -20633.25, -187500.02, -187500.02, -12051.43, -39700.12, 365.50, 0.00, 0.00, 0.00
1164.0, -28764.32, -40278.76, -20664.79, -187500.02, -187500.02, -12061.69, -39703.49, 390.28, 0.00, 0.00, 0.00
1168.0, -28776.57, -40290.89, -20675.72, -187500.02, -187500.02, -12073.34, -39708.23, 490.73, 0.00, 0.00, 0.00
1172.0, -28752.10, -40263.70, -20645.99, -187500.02, -187500.02, -12065.09, -39709.57, 496.59, 0.00, 0.00, 0.00
1176.0, -28736.74, -40249.01, -20633.34, -187500.02, -187500.02, -12053.92, -39704.79, 396.27, 0.00, 0.00, 0.00
1180.0, -28750.22, -40257.64, -20642.37, -187500.02, -187500.02, -12049.85, -39693.03, 394.22, 0.00, 0.00, 0.00
1184.0, -28761.80, -40266.35, -20649.26, -187500.02, -187500.02, -12045.98, -39688.70, 493.82, 0.00, 0.00, 0.00
1188.0, -28737.17, -40244.92, -20630.28, -187500.02, -187500.02, -12049.80, -39697.12, 525.78, 0.00, 0.00, 0.00
1192.0, -28715.06, -40223.64, -20609.54, -187500.02, -187500.02, -12041.35, -39694.11, 423.39, 0.00, 0.00, 0.00
1196.0, -28741.79, -40251.09, -20638.37, -187500.02, -187500.02, -12053.71, -39696.34, 411.14, 0.00, 0.00, 0.00
1200.0, -28750.89, -40260.88, -20648.36, -187500.02, -187500.02, -12064.93, -39694.55, 493.93, 0.00, 0.00, 0.00
1204.0, -28739.22, -40248.25, -20636.78, -187500.02, -187500.02, -12062.28, -39702.26, 552.40, 0.00, 0.00, 0.00
1208.0, -28718.88, -40227.57, -20620.51, -187500.02, -187500.02, -12058.68, -39711.36, 459.69, 0.00, 0.00, 0.00
1212.0, -28733.19, -40240.89, -20634.91, -187500.02, -187500.02, -12049.31, -39704.41, 411.41, 0.00, 0.00, 0.00
1216.0, -28747.58, -40256.34, -20652.70, -187500.02, -187500.02, -12065.45, -39705.50, 473.66, 0.00, 0.00, 0.00
1220.0, -28747.00, -40252.83, -20651.51, -187500.02, -187500.02, -12077.05, -39713.37, 545.11, 0.00, 0.00, 0.00
1224.0, -28712.00, -40216.53, -20611.46, -187500.02, -187500.02, -12071.01, -39713.44, 456.91, 0.00, 0.00, 0.00
1228.0, -28736.88, -40239.64, -20632.43, -187500.02, -187500.02, -12072.09, -39724.35, 386.69, 0.00, 0.00, 0.00
1232.0, -28778.79, -40279.70, -20672.84, -187500.02, -187500.02, -12106.80, -39747.12, 445.25, 0.00, 0.00, 0.00
1236.0, -28779.23, -40281.08, -20673.75, -187500.02, -187500.02, -12113.57, -39745.22, 533.20, 0.00, 0.00, 0.00
1240.0, -28754.31, -40257.57, -20646.17, -187500.02, -187500.02, -12117.06, -39755.62, 479.76, 0.00, 0.00, 0.00
1244.0, -28747.94, -40249.21, -20638.55, -187500.02, -187500.02, -12090.15, -39743.84, 387.02, 0.00, 0.00, 0.00
1248.0, -28771.88, -40273.86, -20663.76, -187500.02, -187500.02, -12095.96, -39740.98, 425.82, 0.00, 0.00, 0.00
1252.0, -28769.87, -40270.64, -20659.09, -187500.02, -187500.02, -12097.21, -39736.28, 517.49, 0.00, 0.00, 0.00
1256.0, -28730.35, -40230.57, -20620.49, -187500.02, -187500.02, -12079.42, -39731.18, 489.64, 0.00, 0.00, 0.00
1260.0, -28722.19, -40219.71, -20609.29, -187500.02, -187500.02, -12053.76, -39722.80, 394.87, 0.00, 0.00, 0.00
1264.0, -28752.14, -40245.30, -20635.49, -187500.02, -187500.02, -12064.89, -39730.07, 415.41, 0.00, 0.00, 0.00
1268.0, -28765.76, -40258.93, -20649.23, -187500.02, -187500.02, -12077.23, -39735.63, 519.95, 0.00, 0.00, 0.00
1272.0, -28738.13, -40234.79, -20624.38, -187500.02, -187500.02, -12073.94, -39741.36, 532.82, 0.00, 0.00, 0.00
1276.0, -28716.87, -40207.25, -20598.14, -187500.02, -187500.02, -12052.44, -39725.02, 422.94, 0.00, 0.00, 0.00
1280.0, -28746.89, -40234.17, -20627.35, -187500.02, -187500.02, -12064.49, -39725.46, 422.60, 0.00, 0.00, 0.00
1284.0, -28775.68, -40262.00, -20653.62, -187500.02, -187500.02, -12089.25, -39742.23, 517.11, 0.00, 0.00, 0.00
1288.0, -28760.17, -40247.55, -20638.39, -187500.02, -187500.02, -12086.35, -39750.39, 551.17, 0.00, 0.00, 0.00
1292.0, -28749.42, -40235.53, -20625.72, -187500.02, -187500.02, -12087.13, -39759.13, 453.03, 0.00, 0.00, 0.00
1296.0, -28751.25, -40238.97, -20631.40, -187500.02, -187500.02, -12073.25, -39745.11, 411.67, 0.00, 0.00, 0.00
1300.0, -28767.39, -40258.13, -20651.71, -187500.02, -187500.02, -12083.31, -39748.53, 490.96, 0.00, 0.00, 0.00
1304.0, -28759.29, -40251.71, -20646.57, -187500.02, -187500.02, -12091.89, -39759.53, 555.33, 0.00, 0.00, 0.00
1308.0, -28733.10, -40227.73, -20622.59, -187500.02, -187500.02, -12086.12, -39758.45, 464.38, 0.00, 0.00, 0.00
1312.0, -28736.05, -40231.46, -20624.18, -187500.02, -187500.02, -12066.39, -39740.95, 408.84, 0.00, 0.00, 0.00
1316.0, -28756.81, -40254.30, -20648.79, -187500.02, -187500.02, -12076.33, -39744.80, 472.76, 0.00, 0.00, 0.00
1320.0, -28759.23, -40259.60, -20653.97, -187500.02, -187500.02, -12088.96, -39756.60, 559.42, 0.00, 0.00, 0.00
1324.0, -28734.69, -40231.04, -20625.54, -187500.02, -187500.02, -12082.17, -39763.04, 493.82, 0.00, 0.00, 0.00
1328.0, -28736.36, -40231.15, -20625.83, -187500.02, -187500.02, -12067.28, -39754.52, 417.49, 0.00, 0.00, 0.00
1332.0, -28749.60, -40244.25, -20638.17, -187500.02, -187500.02, -12069.70, -39739.01, 457.65, 0.00, 0.00, 0.00
1336.0, -28758.76, -40253.23, -20648.81, -187500.02, -187500.02, -12081.77, -39738.23, 552.76, 0.00, 0.00, 0.00
1340.0, -28739.40, -40235.17, -20631.15, -187500.02, -187500.02, -12094.57, -39755.57, 506.11, 0.00, 0.00, 0.00
1344.0, -28747.72, -40238.82, -20634.55, -187500.02, -187500.02, -12094.95, -39761.65, 419.54, 0.00, 0.00, 0.00
1348.0, -28765.62, -40254.11, -20649.64, -187500.02, -187500.02, -12096.90, -39761.25, 451.51, 0.00, 0.00, 0.00
1352.0, -28772.19, -40261.70, -20660.25, -187500.02, -187500.02, -12104.65, -39769.16, 552.83, 0.00, 0.00, 0.00
1356.0, -28736.29, -40223.97, -20623.44, -187500.02, -187500.02, -12097.90, -39764.54, 532.73, 0.00, 0.00, 0.00
1360.0, -28715.89, -40201.78, -20604.80, -187500.02, -187500.02, -12078.28, -39754.32, 427.86, 0.00, 0.00, 0.00
1364.0, -28724.54, -40206.94, -20610.61, -187500.02, -187500.02, -12063.44, -39738.90, 431.14, 0.00, 0.00, 0.00
1368.0, -28755.94, -40231.60, -20635.26, -187500.02, -187500.02, -12081.32, -39749.36, 543.21, 0.00, 0.00, 0.00
1372.0, -28742.13, -40216.62, -20620.40, -187500.02, -187500.02, -12096.92, -39761.27, 564.63, 0.00, 0.00, 0.00
1376.0, -28718.79, -40192.21, -20596.17, -187500.02, -187500.02, -12082.35, -39751.95, 458.55, 0.00, 0.00, 0.00
1380.0, -28735.67, -40208.04, -20611.28, -187500.02, -187500.02, -12084.83, -39746.88, 445.94, 0.00, 0.00, 0.00
1384.0, -28743.05, -40215.19, -20617.56, -187500.02, -187500.02, -12091.65, -39735.95, 528.89, 0.00, 0.00, 0.00
1388.0, -28735.56, -40206.47, -20610.45, -187500.02, -187500.02, -12098.06, -39737.54, 577.93, 0.00, 0.00, 0.00
1392.0, -28711.33, -40180.88, -20586.89, -187500.02, -187500.02, -12091.00, -39729.71, 480.81, 0.00, 0.00, 0.00
1396.0, -28717.45, -40185.91, -20592.37, -187500.02, -187500.02, -12076.02, -39714.11, 441.63, 0.00, 0.00, 0.00
1400.0, -28746.85, -40215.77, -20622.03, -187500.02, -187500.02, -12098.37, -39719.92, 521.31, 0.00, 0.00, 0.00
1404.0, -28744.50, -40216.84, -20621.65, -187500.02, -187500.02, -12116.59, -39732.55, 590.20, 0.00, 0.00, 0.00
1408.0, -28701.49, -40175.79, -20578.89, -187500.02, -187500.02, -12099.65, -39724.28, 493.17, 0.00, 0.00, 0.00
1412.0, -28711.08, -40183.03, -20588.04, -187500.02, -187500.02, -12092.94, -39718.29, 431.32, 0.00, 0.00, 0.00
1416.0, -28744.12, -40215.95, -20621.96, -187500.02, -187500.02, -12112.03, -39733.98, 502.71, 0.00, 0.00, 0.00
1420.0, -28744.37, -40218.81, -20623.06, -187500.02, -187500.02, -12123.00, -39744.77, 587.69, 0.00, 0.00, 0.00
1424.0, -28716.27, -40189.46, -20590.29, -187500.02, -187500.02, -12119.70, -39745.96, 515.74, 0.00, 0.00, 0.00
1428.0, -28713.54, -40186.38, -20588.17, -187500.02, -187500.02, -12102.87, -39730.11, 431.41, 0.00, 0.00, 0.00
1432.0, -28748.88, -40223.95, -20628.60, -187500.02, -187500.02, -12122.18, -39736.08, 484.54, 0.00, 0.00, 0.00
1436.0, -28750.96, -40230.84, -20637.25, -187500.02, -187500.02, -12136.59, -39744.42, 574.51, 0.00, 0.00, 0.00
1440.0, -28705.81, -40186.63, -20593.29, -187500.02, -187500.02, -12117.68, -39737.62, 526.90, 0.00, 0.00, 0.00
1444.0, -28688.82, -40168.00, -20576.19, -187500.02, -187500.02, -12086.88, -39716.50, 428.35, 0.00, 0.00, 0.00
1448.0, -28731.58, -40211.88, -20618.61, -187500.02, -187500.02, -12108.34, -39729.20, 463.33, 0.00, 0.00, 0.00
1452.0, -28747.99, -40231.66, -20637.61, -187500.02, -187500.02, -12124.70, -39742.72, 555.06, 0.00, 0.00, 0.00
1456.0, -28725.99, -40211.32, -20616.96, -187500.02, -187500.02, -12123.72, -39753.40, 542.57, 0.00, 0.00, 0.00
1460.0, -28714.03, -40196.71, -20603.35, -187500.02, -187500.02, -12100.29, -39750.09, 435.10, 0.00, 0.00, 0.00
1464.0, -28748.59, -40228.20, -20634.95, -187500.02, -187500.02, -12113.01, -39759.77, 441.65, 0.00, 0.00, 0.00
1468.0, -28754.11, -40234.48, -20640.09, -187500.02, -187500.02, -12123.72, -39753.78, 522.43, 0.00, 0.00, 0.00
1472.0, -28740.59, -40216.20, -20620.62, -187500.02, -187500.02, -12124.84, -39762.12, 539.06, 0.00, 0.00, 0.00
1476.0, -28726.68, -40197.29, -20601.98, -187500.02, -187500.02, -12113.04, -39765.18, 431.57, 0.00, 0.00, 0.00
1480.0, -28747.16, -40218.21, -20625.18, -187500.02, -187500.02, -12115.70, -39760.82, 415.25, 0.00, 0.00, 0.00
1484.0, -28775.28, -40244.96, -20654.33, -187500.02, -187500.02, -12134.63, -39766.66, 507.12, 0.00, 0.00, 0.00
1488.0, -28768.48, -40239.31, -20649.08, -187500.02, -187500.02, -12138.54, -39781.84, 559.35, 0.00, 0.00, 0.00
1492.0, -28737.95, -40207.03, -20620.36, -187500.02, -187500.02, -12130.16, -39776.11, 460.96, 0.00, 0.00, 0.00
1496.0, -28729.30, -40191.92, -20605.09, -187500.02, -187500.02, -12103.63, -39742.56, 408.03, 0.00, 0.00, 0.00
1500.0, -28749.19, -40209.49, -20619.77, -187500.02, -187500.02, -12104.27, -39733.73, 485.35, 0.00, 0.00, 0.00
1504.0, -28747.11, -40210.12, -20619.64, -187500.02, -187500.02, -12113.37, -39746.34, 565.57, 0.00, 0.00, 0.00
1508.0, -28720.45, -40182.22, -20594.09, -187500.02, -187500.02, -12113.13, -39748.93, 484.94, 0.00, 0.00, 0.00
1512.0, -28734.26, -40193.82, -20608.44, -187500.02, -187500.02, -12114.02, -39746.27, 426.76, 0.00, 0.00, 0.00
1516.0, -28757.82, -40217.40, -20634.73, -187500.02, -187500.02, -12128.95, -39748.29, 481.30, 0.00, 0.00, 0.00
1520.0, -28755.00, -40217.92, -20637.30, -187500.02, -187500.02, -12138.47, -39747.86, 561.19, 0.00, 0.00, 0.00
1524.0, -28730.62, -40191.88, -20610.41, -187500.02, -187500.02, -12133.02, -39748.04, 491.58, 0.00, 0.00, 0.00
1528.0, -28735.20, -40194.96, -20614.25, -187500.02, -187500.02, -12121.62, -39736.24, 402.58, 0.00, 0.00, 0.00
1532.0, -28779.46, -40240.98, -20659.65, -187500.02, -187500.02, -12142.05, -39749.85, 446.39, 0.00, 0.00, 0.00
1536.0, -28791.71, -40255.00, -20672.84, -187500.02, -187500.02, -12160.29, -39757.05, 531.10, 0.00, 0.00, 0.00
1540.0, -28762.89, -40230.68, -20645.88, -187500.02, -187500.02, -12163.51, -39762.61, 492.59, 0.00, 0.00, 0.00
1544.0, -28746.71, -40212.04, -20628.07, -187500.02, -187500.02, -12140.06, -39747.95, 387.80, 0.00, 0.00, 0.00
1548.0, -28784.04, -40249.70, -20667.07, -187500.02, -187500.02, -12147.64, -39762.01, 420.97, 0.00, 0.00, 0.00
1552.0, -28798.23, -40265.86, -20683.50, -187500.02, -187500.02, -12167.66, -39774.88, 516.08, 0.00, 0.00, 0.00
1556.0, -28769.98, -40238.10, -20655.00, -187500.02, -187500.02, -12173.92, -39781.99, 510.80, 0.00, 0.00, 0.00
1560.0, -28744.77, -40212.13, -20630.10, -187500.02, -187500.02, -12149.96, -39768.09, 403.67, 0.00, 0.00, 0.00
1564.0, -28770.76, -40236.58, -20655.49, -187500.02, -187500.02, -12142.99, -39768.76, 411.07, 0.00, 0.00, 0.00
1568.0, -28792.60, -40258.33, -20676.12, -187500.02, -187500.02, -12156.33, -39776.58, 510.27, 0.00, 0.00, 0.00
1572.0, -28767.45, -40232.49, -20647.11, -187500.02, -187500.02, -12155.82, -39775.73, 542.07, 0.00, 0.00, 0.00
1576.0, -28734.64, -40195.77, -20608.78, -187500.02, -187500.02, -12134.83, -39758.54, 438.50, 0.00, 0.00, 0.00
1580.0, -28746.29, -40208.64, -20621.76, -187500.02, -187500.02, -12121.75, -39741.36, 409.06, 0.00, 0.00, 0.00
1584.0, -28776.95, -40238.88, -20652.36, -187500.02, -187500.02, -12135.92, -39747.01, 507.27, 0.00, 0.00, 0.00
1588.0, -28767.01, -40226.14, -20640.14, -187500.02, -187500.02, -12137.69, -39755.75, 556.54, 0.00, 0.00, 0.00
1592.0, -28748.59, -40202.05, -20618.63, -187500.02, -187500.02, -12130.05, -39756.89, 471.93, 0.00, 0.00, 0.00
1596.0, -28747.85, -40198.88, -20617.40, -187500.02, -187500.02, -12114.71, -39735.57, 417.75, 0.00, 0.00, 0.00
1600.0, -28764.01, -40214.95, -20631.62, -187500.02, -187500.02, -12118.13, -39728.05, 495.16, 0.00, 0.00, 0.00
1604.0, -28758.00, -40207.88, -20623.51, -187500.02, -187500.02, -12117.15, -39729.38, 567.20, 0.00, 0.00, 0.00
1608.0, -28731.49, -40180.21, -20596.73, -187500.02, -187500.02, -12103.94, -39727.36, 502.47, 0.00, 0.00, 0.00
1612.0, -28734.66, -40181.55, -20601.36, -187500.02, -187500.02, -12086.66, -39717.24, 423.30, 0.00, 0.00, 0.00
1616.0, -28760.57, -40208.53, -20629.56, -187500.02, -187500.02, -12095.78, -39716.63, 482.19, 0.00, 0.00, 0.00
1620.0, -28775.39, -40225.67, -20647.54, -187500.02, -187500.02, -12115.49, -39729.31, 566.37, 0.00, 0.00, 0.00
1624.0, -28750.11, -40204.21, -20624.91, -187500.02, -187500.02, -12120.14, -39740.77, 516.73, 0.00, 0.00, 0.00
1628.0, -28738.73, -40189.38, -20611.57, -187500.02, -187500.02, -12093.95, -39723.18, 417.60, 0.00, 0.00, 0.00
1632.0, -28775.75, -40226.03, -20651.25, -187500.02, -187500.02, -12102.33, -39732.17, 458.64, 0.00, 0.00, 0.00
1636.0, -28790.23, -40243.73, -20667.07, -187500.02, -187500.02, -12126.27, -39754.52, 550.39, 0.00, 0.00, 0.00
1640.0, -28752.10, -40204.68, -20625.90, -187500.02, -187500.02, -12110.44, -39750.88, 518.92, 0.00, 0.00, 0.00
1644.0, -28725.01, -40173.95, -20595.16, -187500.02, -187500.02, -12086.24, -39730.67, 413.86, 0.00, 0.00, 0.00
1648.0, -28748.37, -40193.62, -20615.30, -187500.02, -187500.02, -12088.45, -39723.86, 434.81, 0.00, 0.00, 0.00
1652.0, -28763.21, -40205.85, -20626.90, -187500.02, -187500.02, -12101.01, -39727.57, 540.00, 0.00, 0.00, 0.00
1656.0, -28728.76, -40172.16, -20593.35, -187500.02, -187500.02, -12091.89, -39717.68, 542.63, 0.00, 0.00, 0.00
1660.0, -28722.93, -40166.95, -20589.58, -187500.02, -187500.02, -12088.83, -39722.54, 453.94, 0.00, 0.00, 0.00
1664.0, -28737.84, -40178.96, -20601.87, -187500.02, -187500.02, -12086.08, -39714.33, 442.52, 0.00, 0.00, 0.00
1668.0, -28748.07, -40188.79, -20611.88, -187500.02, -187500.02, -12091.80, -39713.98, 528.24, 0.00, 0.00, 0.00
1672.0, -28737.66, -40179.02, -20601.67, -187500.02, -187500.02, -12101.55, -39723.99, 560.43, 0.00, 0.00, 0.00
1676.0, -28717.52, -40158.06, -20580.84, -187500.02, -187500.02, -12103.22, -39722.00, 470.15, 0.00, 0.00, 0.00
1680.0, -28744.97, -40183.20, -20608.44, -187500.02, -187500.02, -12108.97, -39719.88, 441.76, 0.00, 0.00, 0.00
1684.0, -28766.83, -40203.75, -20629.30, -187500.02, -187500.02, -12113.84, -39725.60, 528.40, 0.00, 0.00, 0.00
1688.0, -28753.30, -40192.84, -20616.94, -187500.02, -187500.02, -12110.87, -39729.66, 579.67, 0.00, 0.00, 0.00
1692.0, -28728.52, -40166.80, -20590.94, -187500.02, -187500.02, -12100.27, -39723.68, 499.63, 0.00, 0.00, 0.00
1696.0, -28743.25, -40179.29, -20605.16, -187500.02, -187500.02, -12105.53, -39718.69, 446.39, 0.00, 0.00, 0.00
1700.0, -28763.27, -40200.30, -20626.70, -187500.02, -187500.02, -12114.87, -39711.32, 519.39, 0.00, 0.00, 0.00
1704.0, -28756.46, -40195.72, -20621.32, -187500.02, -187500.02, -12115.11, -39711.89, 591.85, 0.00, 0.00, 0.00
1708.0, -28733.35, -40172.92, -20599.05, -187500.02, -187500.02, -12107.65, -39712.77, 523.05, 0.00, 0.00, 0.00
1712.0, -28732.43, -40169.82, -20595.12, -187500.02, -187500.02, -12101.21, -39705.66, 439.17, 0.00, 0.00, 0.00
1716.0, -28742.35, -40181.77, -20606.34, -187500.02, -187500.02, -12100.03, -39696.61, 492.88, 0.00, 0.00, 0.00
1720.0, -28738.20, -40175.00, -20600.91, -187500.02, -187500.02, -12101.59, -39697.34, 570.37, 0.00, 0.00, 0.00
1724.0, -28719.78, -40153.39, -20581.08, -187500.02, -187500.02, -12089.77, -39696.56, 536.29, 0.00, 0.00, 0.00
1728.0, -28723.20, -40155.51, -20586.49, -187500.02, -187500.02, -12085.68, -39694.59, 454.99, 0.00, 0.00, 0.00
1732.0, -28734.31, -40167.13, -20596.39, -187500.02, -187500.02, -12084.58, -39683.98, 479.62, 0.00, 0.00, 0.00
1736.0, -28735.16, -40171.18, -20598.00, -187500.02, -187500.02, -12093.54, -39685.34, 566.80, 0.00, 0.00, 0.00
1740.0, -28722.48, -40159.00, -20584.19, -187500.02, -187500.02, -12096.23, -39700.92, 559.55, 0.00, 0.00, 0.00
1744.0, -28707.39, -40144.16, -20569.93, -187500.02, -187500.02, -12080.13, -39692.29, 460.20, 0.00, 0.00, 0.00
1748.0, -28738.08, -40173.39, -20599.26, -187500.02, -187500.02, -12081.83, -39690.37, 472.23, 0.00, 0.00, 0.00
1752.0, -28749.42, -40187.47, -20613.61, -187500.02, -187500.02, -12104.05, -39698.38, 561.92, 0.00, 0.00, 0.00
1756.0, -28728.21, -40167.54, -20592.93, -187500.02, -187500.02, -12110.82, -39704.34, 570.66, 0.00, 0.00, 0.00
1760.0, -28710.48, -40147.57, -20574.69, -187500.02, -187500.02, -12097.50, -39701.39, 470.88, 0.00, 0.00, 0.00
1764.0, -28738.62, -40175.05, -20604.80, -187500.02, -187500.02, -12091.76, -39700.72, 455.28, 0.00, 0.00, 0.00
1768.0, -28748.61, -40189.29, -20620.42, -187500.02, -187500.02, -12096.85, -39702.08, 535.23, 0.00, 0.00, 0.00
1772.0, -28730.86, -40169.41, -20600.22, -187500.02, -187500.02, -12095.15, -39700.77, 559.75, 0.00, 0.00, 0.00
1776.0, -28717.70, -40155.22, -20587.23, -187500.02, -187500.02, -12089.61, -39707.94, 472.20, 0.00, 0.00, 0.00
1780.0, -28738.31, -40173.97, -20607.28, -187500.02, -187500.02, -12095.58, -39706.06, 434.32, 0.00, 0.00, 0.00
1784.0, -28750.69, -40186.56, -20619.84, -187500.02, -187500.02, -12098.71, -39695.49, 506.83, 0.00, 0.00, 0.00
1788.0, -28745.88, -40183.09, -20614.43, -187500.02, -187500.02, -12093.17, -39699.07, 568.47, 0.00, 0.00, 0.00
1792.0, -28716.07, -40154.04, -20588.01, -187500.02, -187500.02, -12080.92, -39693.63, 492.59, 0.00, 0.00, 0.00
1796.0, -28735.94, -40172.61, -20608.91, -187500.02, -187500.02, -12078.64, -39690.75, 434.83, 0.00, 0.00, 0.00
1800.0, -28758.92, -40194.71, -20629.36, -187500.02, -187500.02, -12089.77, -39691.60, 500.30, 0.00, 0.00, 0.00
1804.0, -28734.66, -40171.70, -20603.57, -187500.02, -187500.02, -12078.37, -39673.29, 563.22, 0.00, 0.00, 0.00
1808.0, -28724.94, -40165.84, -20599.21, -187500.02, -187500.02, -12076.47, -39690.64, 525.36, 0.00, 0.00, 0.00
1812.0, -28722.86, -40158.51, -20593.69, -187500.02, -187500.02, -12060.98, -39681.97, 447.03, 0.00, 0.00, 0.00
1816.0, -28746.82, -40179.02, -20614.57, -187500.02, -187500.02, -12064.62, -39674.77, 497.46, 0.00, 0.00, 0.00
1820.0, -28745.21, -40176.43, -20613.02, -187500.02, -187500.02, -12071.51, -39673.65, 586.09, 0.00, 0.00, 0.00
1824.0, -28716.00, -40144.29, -20583.07, -187500.02, -187500.02, -12062.12, -39669.09, 555.19, 0.00, 0.00, 0.00
1828.0, -28720.52, -40148.02, -20587.01, -187500.02, -187500.02, -12060.98, -39673.50, 463.91, 0.00, 0.00, 0.00
1832.0, -28744.50, -40172.25, -20609.43, -187500.02, -187500.02, -12068.27, -39671.55, 482.86, 0.00, 0.00, 0.00
1836.0, -28754.76, -40184.46, -20621.23, -187500.02, -187500.02, -12082.93, -39678.77, 574.13, 0.00, 0.00, 0.00
1840.0, -28726.39, -40158.08, -20594.94, -187500.02, -187500.02, -12071.64, -39679.46, 556.47, 0.00, 0.00, 0.00
1844.0, -28716.36, -40144.94, -20582.49, -187500.02, -187500.02, -12056.40, -39675.48, 451.35, 0.00, 0.00, 0.00
1848.0, -28731.98, -40160.32, -20598.81, -187500.02, -187500.02, -12056.02, -39663.04, 448.44, 0.00, 0.00, 0.00
1852.0, -28750.06, -40180.10, -20618.66, -187500.02, -187500.02, -12068.87, -39665.70, 550.43, 0.00, 0.00, 0.00
1856.0, -28729.66, -40160.20, -20597.96, -187500.02, -187500.02, -12067.28, -39662.92, 567.62, 0.00, 0.00, 0.00
1860.0, -28708.67, -40139.13, -20575.92, -187500.02, -187500.02, -12054.50, -39657.56, 466.46, 0.00, 0.00, 0.00
1864.0, -28734.15, -40165.97, -20604.08, -187500.02, -187500.02, -12060.93, -39661.18, 450.16, 0.00, 0.00, 0.00
1868.0, -28757.71, -40190.25, -20629.03, -187500.02, -187500.02, -12084.56, -39669.61, 543.06, 0.00, 0.00, 0.00
1872.0, -28749.91, -40181.44, -20619.53, -187500.02, -187500.02, -12089.43, -39679.06, 580.09, 0.00, 0.00, 0.00
1876.0, -28724.16, -40155.02, -20592.97, -187500.02, -187500.02, -12077.29, -39677.09, 488.65, 0.00, 0.00, 0.00
1880.0, -28724.43, -40156.38, -20595.72, -187500.02, -187500.02, -12055.68, -39661.02, 438.68, 0.00, 0.00, 0.00
1884.0, -28744.25, -40180.52, -20618.52, -187500.02, -187500.02, -12063.82, -39662.25, 523.21, 0.00, 0.00, 0.00
1888.0, -28734.53, -40171.47, -20607.91, -187500.02, -187500.02, -12072.31, -39668.51, 585.37, 0.00, 0.00, 0.00
1892.0, -28722.26, -40157.86, -20594.72, -187500.02, -187500.02, -12068.38, -39679.29, 514.47, 0.00, 0.00, 0.00
1896.0, -28719.15, -40150.77, -20589.91, -187500.02, -187500.02, -12053.89, -39667.35, 438.45, 0.00, 0.00, 0.00
1900.0, -28741.12, -40170.80, -20610.97, -187500.02, -187500.02, -12049.53, -39662.21, 505.37, 0.00, 0.00, 0.00
1904.0, -28737.93, -40170.89, -20611.21, -187500.02, -187500.02, -12062.28, -39669.88, 584.59, 0.00, 0.00, 0.00
1908.0, -28707.22, -40141.88, -20581.08, -187500.02, -187500.02, -12061.49, -39672.09, 529.65, 0.00, 0.00, 0.00
1912.0, -28697.83, -40127.55, -20565.46, -187500.02, -187500.02, -12036.39, -39657.04, 437.31, 0.00, 0.00, 0.00
1916.0, -28726.30, -40153.88, -20591.79, -187500.02, -187500.02, -12034.89, -39659.23, 481.50, 0.00, 0.00, 0.00
1920.0, -28724.96, -40152.18, -20590.67, -187500.02, -187500.02, -12037.06, -39665.36, 574.31, 0.00, 0.00, 0.00
1924.0, -28711.80, -40138.77, -20576.30, -187500.02, -187500.02, -12033.35, -39671.28, 556.69, 0.00, 0.00, 0.00
1928.0, -28713.81, -40136.96, -20574.36, -187500.02, -187500.02, -12037.20, -39673.27, 462.26, 0.00, 0.00, 0.00
1932.0, -28732.05, -40154.86, -20593.20, -187500.02, -187500.02, -12038.11, -39665.98, 472.96, 0.00, 0.00, 0.00
1936.0, -28736.99, -40161.12, -20599.41, -187500.02, -187500.02, -12047.34, -39667.06, 559.11, 0.00, 0.00, 0.00
1940.0, -28708.51, -40133.25, -20572.01, -187500.02, -187500.02, -12044.26, -39665.45, 559.37, 0.00, 0.00, 0.00
1944.0, -28700.78, -40124.11, -20564.70, -187500.02, -187500.02, -12033.37, -39667.89, 461.14, 0.00, 0.00, 0.00
1948.0, -28723.55, -40143.71, -20584.91, -187500.02, -187500.02, -12024.88, -39656.51, 456.31, 0.00, 0.00, 0.00
1952.0, -28724.87, -40148.25, -20589.46, -187500.02, -187500.02, -12025.44, -39650.23, 546.88, 0.00, 0.00, 0.00
1956.0, -28707.15, -40134.03, -20574.31, -187500.02, -187500.02, -12018.62, -39661.71, 570.57, 0.00, 0.00, 0.00
1960.0, -28692.08, -40117.45, -20558.31, -187500.02, -187500.02, -12008.34, -39659.73, 478.77, 0.00, 0.00, 0.00
1964.0, -28719.00, -40143.38, -20584.39, -187500.02, -187500.02, -12012.21, -39657.69, 459.08, 0.00, 0.00, 0.00
1968.0, -28742.35, -40167.31, -20607.66, -187500.02, -187500.02, -12027.56, -39653.49, 547.93, 0.00, 0.00, 0.00
1972.0, -28730.62, -40159.47, -20601.51, -187500.02, -187500.02, -12033.53, -39661.74, 596.99, 0.00, 0.00, 0.00
1976.0, -28705.49, -40136.16, -20577.60, -187500.02, -187500.02, -12024.37, -39662.92, 511.01, 0.00, 0.00, 0.00
1980.0, -28717.86, -40145.79, -20587.56, -187500.02, -187500.02, -12014.96, -39656.96, 457.72, 0.00, 0.00, 0.00
1984.0, -28748.41, -40174.38, -20616.13, -187500.02, -187500.02, -12027.18, -39663.46, 535.48, 0.00, 0.00, 0.00
1988.0, -28757.26, -40183.72, -20625.79, -187500.02, -187500.02, -12046.38, -39685.25, 605.31, 0.00, 0.00, 0.00
1992.0, -28723.53, -40151.67, -20590.11, -187500.02, -187500.02, -12033.87, -39686.01, 529.07, 0.00, 0.00, 0.00
1996.0, -28716.74, -40144.49, -20583.18, -187500.02, -187500.02, -12006.71, -39666.16, 453.94, 0.00, 0.00, 0.00
2000.0, -28741.48, -40166.33, -20605.54, -187500.02, -187500.02, -12009.61, -39663.17, 515.81, 0.00, 0.00, 0.00
2004.0, -28738.73, -40161.19, -20599.43, -187500.02, -187500.02, -12011.11, -39664.09, 596.12, 0.00, 0.00, 0.00
2008.0, -28713.77, -40134.66, -20575.36, -187500.02, -187500.02, -12001.81, -39672.36, 552.09, 0.00, 0.00, 0.00
2012.0, -28705.03, -40130.93, -20572.41, -187500.02, -187500.02, -11986.59, -39668.46, 465.92, 0.00, 0.00, 0.00
2016.0, -28737.88, -40160.92, -20601.80, -187500.02, -187500.02, -12001.66, -39670.79, 508.79, 0.00, 0.00, 0.00
2020.0, -28758.27, -40182.60, -20623.19, -187500.02, -187500.02, -12025.64, -39689.75, 605.31, 0.00, 0.00, 0.00
2024.0, -28735.78, -40161.73, -20600.28, -187500.02, -187500.02, -12029.24, -39698.57, 580.01, 0.00, 0.00, 0.00
2028.0, -28710.84, -40135.82, -20572.52, -187500.02, -187500.02, -12007.38, -39681.23, 476.27, 0.00, 0.00, 0.00
2032.0, -28743.11, -40166.51, -20601.96, -187500.02, -187500.02, -12016.57, -39683.00, 498.87, 0.00, 0.00, 0.00
2036.0, -28749.97, -40174.49, -20609.27, -187500.02, -187500.02, -12029.82, -39690.64, 589.15, 0.00, 0.00, 0.00
2040.0, -28728.52, -40155.80, -20590.96, -187500.02, -187500.02, -12034.67, -39699.47, 592.05, 0.00, 0.00, 0.00
2044.0, -28707.60, -40136.31, -20571.92, -187500.02, -187500.02, -12025.22, -39691.89, 490.96, 0.00, 0.00, 0.00
2048.0, -28719.46, -40146.26, -20583.99, -187500.02, -187500.02, -12023.14, -39678.66, 479.27, 0.00, 0.00, 0.00
2052.0, -28727.38, -40154.84, -20594.27, -187500.02, -187500.02, -12029.78, -39674.01, 565.03, 0.00, 0.00, 0.00
2056.0, -28728.81, -40156.90, -20596.19, -187500.02, -187500.02, -12043.10, -39693.05, 601.87, 0.00, 0.00, 0.00
2060.0, -28700.27, -40126.75, -20566.76, -187500.02, -187500.02, -12023.03, -39684.40, 502.60, 0.00, 0.00, 0.00
2064.0, -28709.34, -40134.59, -20575.76, -187500.02, -187500.02, -12005.70, -39667.30, 465.27, 0.00, 0.00, 0.00
2068.0, -28740.97, -40165.57, -20605.76, -187500.02, -187500.02, -12016.79, -39672.78, 550.05, 0.00, 0.00, 0.00
2072.0, -28737.26, -40167.45, -20605.56, -187500.02, -187500.02, -12034.09, -39689.86, 600.99, 0.00, 0.00, 0.00
2076.0, -28710.55, -40140.11, -20578.87, -187500.02, -187500.02, -12032.48, -39690.68, 515.41, 0.00, 0.00, 0.00
2080.0, -28717.41, -40142.99, -20583.14, -187500.02, -187500.02, -12023.79, -39684.54, 453.85, 0.00, 0.00, 0.00
2084.0, -28736.63, -40161.81, -20605.09, -187500.02, -187500.02, -12039.52, -39686.28, 522.78, 0.00, 0.00, 0.00
2088.0, -28724.25, -40150.13, -20592.75, -187500.02, -187500.02, -12036.91, -39684.71, 589.71, 0.00, 0.00, 0.00
2092.0, -28710.46, -40136.80, -20576.81, -187500.02, -187500.02, -12031.21, -39696.29, 538.63, 0.00, 0.00, 0.00
2096.0, -28712.63, -40135.44, -20576.95, -187500.02, -187500.02, -12014.80, -39688.07, 461.65, 0.00, 0.00, 0.00
2100.0, -28737.17, -40157.46, -20599.19, -187500.02, -187500.02, -12027.96, -39689.90, 512.17, 0.00, 0.00, 0.00
2104.0, -28741.48, -40160.76, -20602.14, -187500.02, -187500.02, -12043.25, -39695.87, 586.06, 0.00, 0.00, 0.00
2108.0, -28720.16, -40140.51, -20580.90, -187500.02, -187500.02, -12042.31, -39700.90, 540.71, 0.00, 0.00, 0.00
2112.0, -28719.11, -40137.27, -20578.45, -187500.02, -187500.02, -12025.73, -39692.54, 453.45, 0.00, 0.00, 0.00
2116.0, -28752.01, -40167.22, -20609.34, -187500.02, -187500.02, -12027.61, -39690.35, 494.62, 0.00, 0.00, 0.00
2120.0, -28744.61, -40166.35, -20608.51, -187500.02, -187500.02, -12041.02, -39691.36, 575.09, 0.00, 0.00, 0.00
2124.0, -28691.48, -40118.34, -20561.55, -187500.02, -187500.02, -12034.13, -39678.64, 543.10, 0.00, 0.00, 0.00
2128.0, -28684.91, -40108.57, -20553.14, -187500.02, -187500.02, -12012.30, -39671.08, 457.14, 0.00, 0.00, 0.00
2132.0, -28716.49, -40136.36, -20582.20, -187500.02, -187500.02, -12016.97, -39675.15, 478.30, 0.00, 0.00, 0.00
2136.0, -28730.04, -40149.92, -20595.48, -187500.02, -187500.02, -12026.18, -39677.52, 572.67, 0.00, 0.00, 0.00
2140.0, -28724.16, -40144.00, -20588.57, -187500.02, -187500.02, -12022.76, -39692.99, 590.67, 0.00, 0.00, 0.00
2144.0, -28698.23, -40118.30, -20560.34, -187500.02, -187500.02, -12003.65, -39683.87, 493.39, 0.00, 0.00, 0.00
2148.0, -28714.68, -40136.94, -20579.72, -187500.02, -187500.02, -11994.12, -39671.98, 485.73, 0.00, 0.00, 0.00
2152.0, -28735.09, -40160.76, -20603.70, -187500.02, -187500.02, -12014.55, -39676.94, 582.40, 0.00, 0.00, 0.00
2156.0, -28720.98, -40144.56, -20586.16, -187500.02, -187500.02, -12016.66, -39678.61, 613.13, 0.00, 0.00, 0.00
2160.0, -28700.91, -40123.64, -20563.09, -187500.02, -187500.02, -12002.95, -39673.27, 526.41, 0.00, 0.00, 0.00
2164.0, -28719.62, -40142.21, -20583.16, -187500.02, -187500.02, -12007.94, -39674.50, 489.48, 0.00, 0.00, 0.00
2168.0, -28738.78, -40160.14, -20601.89, -187500.02, -187500.02, -12025.77, -39674.12, 566.71, 0.00, 0.00, 0.00
2172.0, -28728.56, -40152.94, -20595.81, -187500.02, -187500.02, -12035.79, -39680.36, 624.31, 0.00, 0.00, 0.00
2176.0, -28701.81, -40127.59, -20571.70, -187500.02, -187500.02, -12022.87, -39684.56, 547.01, 0.00, 0.00, 0.00
2180.0, -28697.45, -40122.23, -20566.49, -187500.02, -187500.02, -12005.64, -39670.25, 475.44, 0.00, 0.00, 0.00
2184.0, -28716.56, -40141.74, -20586.78, -187500.02, -187500.02, -12010.84, -39667.89, 538.52, 0.00, 0.00, 0.00
2188.0, -28722.48, -40148.89, -20591.79, -187500.02, -187500.02, -12026.13, -39684.74, 613.20, 0.00, 0.00, 0.00
2192.0, -28706.54, -40134.93, -20575.00, -187500.02, -187500.02, -12024.59, -39700.03, 559.11, 0.00, 0.00, 0.00
2196.0, -28701.45, -40128.46, -20568.46, -187500.02, -187500.02, -12016.12, -39690.48, 474.51, 0.00, 0.00, 0.00
2200.0, -28731.13, -40154.48, -20596.04, -187500.02, -187500.02, -12024.37, -39686.66, 525.09, 0.00, 0.00, 0.00
2204.0, -28728.63, -40151.24, -20593.76, -187500.02, -187500.02, -12034.56, -39690.66, 607.52, 0.00, 0.00, 0.00
2208.0, -28704.04, -40126.68, -20569.46, -187500.02, -187500.02, -12032.32, -39695.96, 573.84, 0.00, 0.00, 0.00
2212.0, -28694.95, -40118.12, -20557.44, -187500.02, -187500.02, -12017.12, -39690.13, 474.75, 0.00, 0.00, 0.00
2216.0, -28724.94, -40149.34, -20589.93, -187500.02, -187500.02, -12027.63, -39692.23, 499.76, 0.00, 0.00, 0.00
2220.0, -28729.88, -40157.12, -20599.23, -187500.02, -187500.02, -12040.79, -39698.51, 585.86, 0.00, 0.00, 0.00
2224.0, -28705.18, -40132.82, -20573.15, -187500.02, -187500.02, -12033.71, -39703.07, 568.76, 0.00, 0.00, 0.00
2228.0, -28702.30, -40127.66, -20567.09, -187500.02, -187500.02, -12023.09, -39701.26, 477.61, 0.00, 0.00, 0.00
2232.0, -28727.91, -40152.11, -20591.50, -187500.02, -187500.02, -12032.73, -39705.19, 485.35, 0.00, 0.00, 0.00
2236.0, -28742.60, -40165.93, -20604.11, -187500.02, -187500.02, -12051.10, -39714.06, 577.14, 0.00, 0.00, 0.00
2240.0, -28717.54, -40146.82, -20584.35, -187500.02, -187500.02, -12047.57, -39714.51, 592.92, 0.00, 0.00, 0.00
2244.0, -28685.49, -40115.32, -20554.82, -187500.02, -187500.02, -12027.63, -39695.18, 495.67, 0.00, 0.00, 0.00
2248.0, -28708.29, -40138.01, -20578.98, -187500.02, -187500.02, -12033.53, -39691.46, 480.25, 0.00, 0.00, 0.00
2252.0, -28734.20, -40167.69, -20607.59, -187500.02, -187500.02, -12056.78, -39704.34, 571.36, 0.00, 0.00, 0.00
2256.0, -28732.76, -40167.02, -20607.73, -187500.02, -187500.02, -12060.17, -39726.22, 614.54, 0.00, 0.00, 0.00
2260.0, -28706.26, -40140.82, -20578.87, -187500.02, -187500.02, -12054.21, -39727.54, 520.15, 0.00, 0.00, 0.00
2264.0, -28718.73, -40151.60, -20587.59, -187500.02, -187500.02, -12048.73, -39718.47, 469.86, 0.00, 0.00, 0.00
2268.0, -28749.51, -40184.43, -20621.12, -187500.02, -187500.02, -12068.33, -39731.21, 553.21, 0.00, 0.00, 0.00
2272.0, -28735.76, -40173.53, -20608.33, -187500.02, -187500.02, -12079.91, -39745.56, 611.36, 0.00, 0.00, 0.00
2276.0, -28713.90, -40151.22, -20584.82, -187500.02, -187500.02, -12076.20, -39749.20, 539.48, 0.00, 0.00, 0.00
2280.0, -28721.19, -40155.04, -20589.49, -187500.02, -187500.02, -12056.58, -39739.34, 468.51, 0.00, 0.00, 0.00
2284.0, -28752.30, -40186.45, -20620.24, -187500.02, -187500.02, -12063.62, -39745.89, 530.14, 0.00, 0.00, 0.00
2288.0, -28752.17, -40183.00, -20618.72, -187500.02, -187500.02, -12072.51, -39752.55, 603.23, 0.00, 0.00, 0.00
2292.0, -28720.40, -40151.06, -20588.32, -187500.02, -187500.02, -12063.79, -39754.23, 546.95, 0.00, 0.00, 0.00
2296.0, -28704.20, -40138.10, -20575.12, -187500.02, -187500.02, -12044.33, -39738.83, 457.96, 0.00, 0.00, 0.00
2300.0, -28725.37, -40155.94, -20594.14, -187500.02, -187500.02, -12044.71, -39731.92, 499.38, 0.00, 0.00, 0.00
2304.0, -28725.10, -40155.71, -20595.46, -187500.02, -187500.02, -12051.26, -39733.33, 585.39, 0.00, 0.00, 0.00
2308.0, -28713.97, -40143.02, -20580.75, -187500.02, -187500.02, -12058.32, -39746.34, 559.15, 0.00, 0.00, 0.00
2312.0, -28709.56, -40136.49, -20574.60, -187500.02, -187500.02, -12049.53, -39742.05, 458.75, 0.00, 0.00, 0.00
2316.0, -28726.84, -40154.15, -20593.47, -187500.02, -187500.02, -12043.10, -39733.31, 473.43, 0.00, 0.00, 0.00
2320.0, -28750.76, -40179.18, -20617.76, -187500.02, -187500.02, -12052.75, -39745.04, 576.94, 0.00, 0.00, 0.00
2324.0, -28732.99, -40163.34, -20600.82, -187500.02, -187500.02, -12056.58, -39756.29, 577.93, 0.00, 0.00, 0.00
2328.0, -28713.38, -40146.37, -20584.62, -187500.02, -187500.02, -12044.57, -39752.73, 473.75, 0.00, 0.00, 0.00
2332.0, -28729.23, -40161.75, -20600.95, -187500.02, -187500.02, -12039.68, -39746.95, 463.26, 0.00, 0.00, 0.00
2336.0, -28746.31, -40175.61, -20615.01, -187500.02, -187500.02, -12050.88, -39748.06, 554.28, 0.00, 0.00, 0.00
2340.0, -28736.79, -40166.66, -20604.06, -187500.02, -187500.02, -12055.97, -39762.52, 580.77, 0.00, 0.00, 0.00
2344.0, -28715.89, -40144.56, -20580.97, -187500.02, -187500.02, -12042.69, -39758.75, 486.08, 0.00, 0.00, 0.00
2348.0, -28742.35, -40171.02, -20610.10, -187500.02, -187500.02, -12048.89, -39754.05, 464.47, 0.00, 0.00, 0.00
2352.0, -28765.71, -40195.27, -20635.00, -187500.02, -187500.02, -12069.07, -39758.12, 548.09, 0.00, 0.00, 0.00
2356.0, -28758.18, -40186.96, -20624.20, -187500.02, -187500.02, -12068.33, -39766.79, 591.85, 0.00, 0.00, 0.00
2360.0, -28728.61, -40159.45, -20596.89, -187500.02, -187500.02, -12047.68, -39762.63, 502.15, 0.00, 0.00, 0.00
2364.0, -28736.43, -40170.26, -20609.76, -187500.02, -187500.02, -12046.90, -39759.39, 449.31, 0.00, 0.00, 0.00
2368.0, -28750.47, -40183.00, -20623.37, -187500.02, -187500.02, -12056.42, -39755.06, 527.93, 0.00, 0.00, 0.00
2372.0, -28748.84, -40180.19, -20617.74, -187500.02, -187500.02, -12070.08, -39766.32, 600.57, 0.00, 0.00, 0.00
2376.0, -28711.17, -40143.78, -20579.00, -187500.02, -187500.02, -12059.93, -39760.67, 527.93, 0.00, 0.00, 0.00
2380.0, -28704.87, -40135.33, -20571.85, -187500.02, -187500.02, -12042.36, -39747.48, 458.19, 0.00, 0.00, 0.00
2384.0, -28727.56, -40152.80, -20592.04, -187500.02, -187500.02, -12049.29, -39746.03, 526.36, 0.00, 0.00, 0.00
2388.0, -28726.04, -40149.21, -20586.60, -187500.02, -187500.02, -12061.11, -39750.21, 611.95, 0.00, 0.00, 0.00
2392.0, -28693.18, -40112.98, -20550.46, -187500.02, -187500.02, -12052.78, -39743.46, 568.05, 0.00, 0.00, 0.00
2396.0, -28679.81, -40100.57, -20540.67, -187500.02, -187500.02, -12042.29, -39726.11, 490.02, 0.00, 0.00, 0.00
2400.0, -28704.82, -40125.34, -20566.64, -187500.02, -187500.02, -12057.65, -39722.78, 540.11, 0.00, 0.00, 0.00
2404.0, -28704.65, -40132.31, -20571.67, -187500.02, -187500.02, -12079.98, -39728.28, 639.66, 0.00, 0.00, 0.00
2408.0, -28686.09, -40108.71, -20547.35, -187500.02, -187500.02, -12082.01, -39733.44, 621.38, 0.00, 0.00, 0.00
2412.0, -28685.91, -40103.45, -20543.71, -187500.02, -187500.02, -12080.00, -39720.37, 527.97, 0.00, 0.00, 0.00
2416.0, -28713.07, -40130.45, -20572.08, -187500.02, -187500.02, -12088.18, -39705.35, 545.27, 0.00, 0.00, 0.00
2420.0, -28712.80, -40135.26, -20578.74, -187500.02, -187500.02, -12090.17, -39694.68, 636.98, 0.00, 0.00, 0.00
2424.0, -28680.95, -40106.79, -20550.46, -187500.02, -187500.02, -12086.17, -39682.75, 638.84, 0.00, 0.00, 0.00
2428.0, -28669.33, -40096.32, -20537.99, -187500.02, -187500.02, -12086.79, -39677.21, 550.72, 0.00, 0.00, 0.00
2432.0, -28692.40, -40120.98, -20563.96, -187500.02, -187500.02, -12093.23, -39666.72, 546.70, 0.00, 0.00, 0.00
2436.0, -28718.48, -40143.87, -20587.90, -187500.02, -187500.02, -12111.36, -39676.07, 641.05, 0.00, 0.00, 0.00
2440.0, -28686.88, -40111.97, -20554.84, -187500.02, -187500.02, -12100.32, -39662.63, 662.01, 0.00, 0.00, 0.00
2444.0, -28673.13, -40097.15, -20539.02, -187500.02, -187500.02, -12092.03, -39656.48, 574.78, 0.00, 0.00, 0.00
2448.0, -28695.75, -40117.80, -20558.40, -187500.02, -187500.02, -12088.74, -39642.79, 541.72, 0.00, 0.00, 0.00
2452.0, -28722.08, -40145.27, -20589.35, -187500.02, -187500.02, -12106.60, -39638.05, 623.41, 0.00, 0.00, 0.00
2456.0, -28707.04, -40129.47, -20571.05, -187500.02, -187500.02, -12107.00, -39631.00, 664.83, 0.00, 0.00, 0.00
2460.0, -28688.26, -40107.52, -20547.53, -187500.02, -187500.02, -12087.55, -39625.26, 587.14, 0.00, 0.00, 0.00
2464.0, -28704.78, -40119.91, -20563.22, -187500.02, -187500.02, -12088.63, -39608.61, 534.72, 0.00, 0.00, 0.00
2468.0, -28717.83, -40132.42, -20580.59, -187500.02, -187500.02, -12085.61, -39586.97, 595.76, 0.00, 0.00, 0.00
2472.0, -28726.17, -40140.74, -20591.12, -187500.02, -187500.02, -12089.92, -39595.15, 662.37, 0.00, 0.00, 0.00
2476.0, -28701.70, -40117.11, -20568.88, -187500.02, -187500.02, -12074.39, -39591.71, 594.67, 0.00, 0.00, 0.00
2480.0, -28713.23, -40128.33, -20584.14, -187500.02, -187500.02, -12065.87, -39580.89, 519.88, 0.00, 0.00, 0.00
2484.0, -28738.78, -40150.41, -20607.44, -187500.02, -187500.02, -12077.41, -39573.52, 566.19, 0.00, 0.00, 0.00
2488.0, -28743.16, -40157.41, -20614.32, -187500.02, -187500.02, -12077.29, -39566.21, 645.21, 0.00, 0.00, 0.00
2492.0, -28724.03, -40136.63, -20594.88, -187500.02, -187500.02, -12076.11, -39564.06, 605.24, 0.00, 0.00, 0.00
2496.0, -28725.99, -40136.11, -20595.05, -187500.02, -187500.02, -12070.86, -39556.53, 521.71, 0.00, 0.00, 0.00
2500.0, -28764.75, -40173.06, -20633.39, -187500.02, -187500.02, -12083.84, -39563.64, 559.93, 0.00, 0.00, 0.00
2504.0, -28781.47, -40187.18, -20646.62, -187500.02, -187500.02, -12097.84, -39572.00, 644.87, 0.00, 0.00, 0.00
2508.0, -28755.12, -40165.35, -20624.42, -187500.02, -187500.02, -12096.07, -39568.44, 624.08, 0.00, 0.00, 0.00
2512.0, -28738.17, -40151.13, -20609.94, -187500.02, -187500.02, -12089.86, -39555.93, 526.23, 0.00, 0.00, 0.00
2516.0, -28743.18, -40158.73, -20618.86, -187500.02, -187500.02, -12081.72, -39538.07, 524.01, 0.00, 0.00, 0.00
2520.0, -28757.35, -40172.10, -20632.98, -187500.02, -187500.02, -12095.62, -39538.34, 613.29, 0.00, 0.00, 0.00
2524.0, -28745.39, -40161.52, -20620.02, -187500.02, -187500.02, -12104.86, -39548.50, 623.66, 0.00, 0.00, 0.00
2528.0, -28721.90, -40138.68, -20593.42, -187500.02, -187500.02, -12087.29, -39535.56, 526.52, 0.00, 0.00, 0.00
2532.0, -28746.22, -40165.46, -20619.06, -187500.02, -187500.02, -12096.61, -39536.23, 516.57, 0.00, 0.00, 0.00
2536.0, -28763.56, -40181.62, -20635.80, -187500.02, -187500.02, -12114.18, -39538.94, 599.25, 0.00, 0.00, 0.00
2540.0, -28738.51, -40156.90, -20611.44, -187500.02, -187500.02, -12109.86, -39538.65, 621.89, 0.00, 0.00, 0.00
2544.0, -28709.70, -40127.68, -20581.69, -187500.02, -187500.02, -12091.53, -39532.14, 533.00, 0.00, 0.00, 0.00
2548.0, -28727.04, -40142.88, -20596.42, -187500.02, -187500.02, -12086.12, -39532.84, 500.37, 0.00, 0.00, 0.00
2552.0, -28744.25, -40162.11, -20613.31, -187500.02, -187500.02, -12099.96, -39538.47, 578.62, 0.00, 0.00, 0.00
2556.0, -28715.22, -40136.16, -20586.98, -187500.02, -187500.02, -12091.09, -39529.73, 624.91, 0.00, 0.00, 0.00
2560.0, -28696.00, -40117.42, -20567.56, -187500.02, -187500.02, -12080.74, -39534.67, 562.30, 0.00, 0.00, 0.00
2564.0, -28703.17, -40125.83, -20574.27, -187500.02, -187500.02, -12089.03, -39533.62, 506.00, 0.00, 0.00, 0.00
2568.0, -28722.75, -40144.22, -20592.79, -187500.02, -187500.02, -12100.79, -39528.63, 567.98, 0.00, 0.00, 0.00
2572.0, -28721.81, -40139.51, -20590.07, -187500.02, -187500.02, -12104.65, -39532.52, 638.30, 0.00, 0.00, 0.00
2576.0, -28684.62, -40104.32, -20554.51, -187500.02, -187500.02, -12088.87, -39525.21, 578.42, 0.00, 0.00, 0.00
2580.0, -28674.40, -40091.83, -20542.79, -187500.02, -187500.02, -12066.19, -39500.02, 502.04, 0.00, 0.00, 0.00
2584.0, -28706.93, -40122.43, -20572.70, -187500.02, -187500.02, -12070.23, -39504.05, 556.63, 0.00, 0.00, 0.00
2588.0, -28705.43, -40124.26, -20574.42, -187500.02, -187500.02, -12083.71, -39513.55, 632.78, 0.00, 0.00, 0.00
2592.0, -28676.53, -40094.94, -20546.37, -187500.02, -187500.02, -12084.40, -39509.95, 592.66, 0.00, 0.00, 0.00
2596.0, -28682.79, -40099.59, -20548.40, -187500.02, -187500.02, -12082.53, -39507.94, 504.30, 0.00, 0.00, 0.00
2600.0, -28709.00, -40123.39, -20571.99, -187500.02, -187500.02, -12086.59, -39505.52, 521.78, 0.00, 0.00, 0.00
2604.0, -28716.20, -40129.36, -20576.68, -187500.02, -187500.02, -12089.95, -39509.37, 604.75, 0.00, 0.00, 0.00
2608.0, -28695.53, -40112.46, -20559.58, -187500.02, -187500.02, -12089.99, -39513.84, 598.74, 0.00, 0.00, 0.00
2612.0, -28677.18, -40096.79, -20543.20, -187500.02, -187500.02, -12065.07, -39509.99, 505.26, 0.00, 0.00, 0.00
2616.0, -28692.13, -40105.71, -20553.46, -187500.02, -187500.02, -12056.84, -39497.48, 500.52, 0.00, 0.00, 0.00
2620.0, -28713.52, -40128.13, -20575.70, -187500.02, -187500.02, -12079.69, -39506.28, 581.66, 0.00, 0.00, 0.00
2624.0, -28691.19, -40106.43, -20554.46, -187500.02, -187500.02, -12089.01, -39512.79, 581.39, 0.00, 0.00, 0.00
2628.0, -28671.30, -40085.75, -20533.96, -187500.02, -187500.02, -12070.21, -39501.21, 483.42, 0.00, 0.00, 0.00
2632.0, -28690.74, -40104.62, -20556.99, -187500.02, -187500.02, -12071.30, -39498.46, 462.28, 0.00, 0.00, 0.00
2636.0, -28707.71, -40121.80, -20574.96, -187500.02, -187500.02, -12084.05, -39500.05, 538.45, 0.00, 0.00, 0.00
2640.0, -28693.87, -40106.32, -20556.05, -187500.02, -187500.02, -12075.02, -39505.16, 568.92, 0.00, 0.00, 0.00
2644.0, -28665.17, -40075.94, -20521.72, -187500.02, -187500.02, -12053.27, -39495.66, 488.07, 0.00, 0.00, 0.00
2648.0, -28677.42, -40083.83, -20529.18, -187500.02, -187500.02, -12042.81, -39483.71, 448.67, 0.00, 0.00, 0.00
2652.0, -28702.97, -40110.85, -20556.61, -187500.02, -187500.02, -12057.20, -39488.56, 530.14, 0.00, 0.00, 0.00
2656.0, -28685.98, -40097.26, -20544.87, -187500.02, -187500.02, -12053.42, -39488.25, 584.70, 0.00, 0.00, 0.00
2660.0, -28667.21, -40075.65, -20524.02, -187500.02, -187500.02, -12044.89, -39492.89, 514.85, 0.00, 0.00, 0.00
2664.0, -28661.10, -40068.27, -20515.23, -187500.02, -187500.02, -12020.37, -39475.41, 445.60, 0.00, 0.00, 0.00
2668.0, -28693.25, -40105.62, -20555.98, -187500.02, -187500.02, -12039.50, -39489.43, 516.62, 0.00, 0.00, 0.00
2672.0, -28693.69, -40107.77, -20557.73, -187500.02, -187500.02, -12059.21, -39499.35, 589.10, 0.00, 0.00, 0.00
2676.0, -28651.16, -40064.38, -20512.44, -187500.02, -187500.02, -12032.44, -39487.29, 531.52, 0.00, 0.00, 0.00
2680.0, -28655.14, -40064.50, -20517.13, -187500.02, -187500.02, -12019.92, -39485.41, 462.75, 0.00, 0.00, 0.00
2684.0, -28688.04, -40095.25, -20549.54, -187500.02, -187500.02, -12046.00, -39498.53, 515.59, 0.00, 0.00, 0.00
2688.0, -28700.09, -40105.31, -20558.66, -187500.02, -187500.02, -12064.80, -39509.10, 601.78, 0.00, 0.00, 0.00
2692.0, -28664.14, -40067.80, -20521.38, -187500.02, -187500.02, -12045.38, -39503.11, 566.50, 0.00, 0.00, 0.00
2696.0, -28648.90, -40053.95, -20508.96, -187500.02, -187500.02, -12033.08, -39493.09, 472.20, 0.00, 0.00, 0.00
2700.0, -28681.06, -40082.84, -20537.83, -187500.02, -187500.02, -12046.45, -39492.40, 503.03, 0.00, 0.00, 0.00
2704.0, -28693.89, -40098.38, -20552.56, -187500.02, -187500.02, -12076.42, -39497.52, 599.09, 0.00, 0.00, 0.00
2708.0, -28674.31, -40079.67, -20529.63, -187500.02, -187500.02, -12078.28, -39504.34, 593.68, 0.00, 0.00, 0.00
2712.0, -28651.78, -40057.99, -20508.35, -187500.02, -187500.02, -12061.31, -39496.98, 492.36, 0.00, 0.00, 0.00
2716.0, -28674.54, -40083.83, -20536.65, -187500.02, -187500.02, -12069.09, -39495.84, 496.23, 0.00, 0.00, 0.00
2720.0, -28670.92, -40081.41, -20533.79, -187500.02, -187500.02, -12070.57, -39483.55, 576.36, 0.00, 0.00, 0.00
2724.0, -28659.94, -40069.75, -20521.43, -187500.02, -187500.02, -12062.70, -39482.95, 599.07, 0.00, 0.00, 0.00
2728.0, -28668.82, -40077.21, -20528.80, -187500.02, -187500.02, -12066.34, -39502.50, 523.14, 0.00, 0.00, 0.00
2732.0, -28676.48, -40081.79, -20535.66, -187500.02, -187500.02, -12063.55, -39492.69, 489.64, 0.00, 0.00, 0.00
2736.0, -28680.88, -40085.30, -20539.22, -187500.02, -187500.02, -12064.35, -39477.31, 567.49, 0.00, 0.00, 0.00
2740.0, -28667.70, -40077.64, -20531.73, -187500.02, -187500.02, -12072.40, -39485.74, 614.99, 0.00, 0.00, 0.00
2744.0, -28638.22, -40048.13, -20500.93, -187500.02, -187500.02, -12059.93, -39474.57, 531.03, 0.00, 0.00, 0.00
2748.0, -28655.94, -40061.59, -20515.66, -187500.02, -187500.02, -12052.91, -39466.61, 489.44, 0.00, 0.00, 0.00
2752.0, -28680.62, -40085.84, -20541.41, -187500.02, -187500.02, -12073.36, -39470.43, 569.46, 0.00, 0.00, 0.00
2756.0, -28675.74, -40081.35, -20537.16, -187500.02, -187500.02, -12078.41, -39479.57, 630.63, 0.00, 0.00, 0.00
2760.0, -28659.14, -40064.27, -20520.33, -187500.02, -187500.02, -12072.24, -39487.26, 567.11, 0.00, 0.00, 0.00
2764.0, -28671.97, -40073.23, -20529.38, -187500.02, -187500.02, -12073.45, -39486.84, 493.95, 0.00, 0.00, 0.00
2768.0, -28693.40, -40095.09, -20553.90, -187500.02, -187500.02, -12084.96, -39482.28, 544.31, 0.00, 0.00, 0.00
2772.0, -28698.10, -40104.46, -20564.61, -187500.02, -187500.02, -12097.79, -39498.64, 622.18, 0.00, 0.00, 0.00
2776.0, -28668.08, -40075.92, -20536.11, -187500.02, -187500.02, -12086.75, -39507.63, 581.86, 0.00, 0.00, 0.00
2780.0, -28652.83, -40059.55, -20519.44, -187500.02, -187500.02, -12065.27, -39495.98, 497.46, 0.00, 0.00, 0.00
2784.0, -28680.57, -40084.19, -20543.85, -187500.02, -187500.02, -12061.31, -39492.34, 539.48, 0.00, 0.00, 0.00
2788.0, -28707.06, -40109.45, -20568.23, -187500.02, -187500.02, -12079.93, -39510.26, 630.50, 0.00, 0.00, 0.00
2792.0, -28678.67, -40083.61, -20543.17, -187500.02, -187500.02, -12071.86, -39513.57, 601.40, 0.00, 0.00, 0.00
2796.0, -28660.28, -40064.25, -20525.20, -187500.02, -187500.02, -12061.13, -39499.69, 504.72, 0.00, 0.00, 0.00
2800.0, -28691.48, -40093.11, -20554.71, -187500.02, -187500.02, -12070.66, -39500.00, 522.27, 0.00, 0.00, 0.00
2804.0, -28703.93, -40106.72, -20569.91, -187500.02, -187500.02, -12089.41, -39511.33, 609.78, 0.00, 0.00, 0.00
2808.0, -28669.93, -40070.44, -20534.44, -187500.02, -187500.02, -12073.27, -39502.71, 602.83, 0.00, 0.00, 0.00
2812.0, -28657.60, -40054.68, -20518.79, -187500.02, -187500.02, -12051.10, -39495.84, 512.37, 0.00, 0.00, 0.00
2816.0, -28670.71, -40069.48, -20533.47, -187500.02, -187500.02, -12051.41, -39488.98, 503.79, 0.00, 0.00, 0.00
2820.0, -28676.73, -40076.05, -20541.39, -187500.02, -187500.02, -12054.36, -39486.52, 583.22, 0.00, 0.00, 0.00
2824.0, -28671.39, -40071.47, -20539.46, -187500.02, -187500.02, -12056.53, -39498.01, 617.67, 0.00, 0.00, 0.00
2828.0, -28649.66, -40046.70, -20515.23, -187500.02, -187500.02, -12056.24, -39493.45, 525.00, 0.00, 0.00, 0.00
2832.0, -28659.32, -40053.34, -20522.19, -187500.02, -187500.02, -12046.09, -39476.96, 488.92, 0.00, 0.00, 0.00
2836.0, -28677.55, -40071.82, -20541.12, -187500.02, -187500.02, -12061.60, -39480.42, 579.42, 0.00, 0.00, 0.00
2840.0, -28666.09, -40060.72, -20528.62, -187500.02, -187500.02, -12065.99, -39487.95, 635.71, 0.00, 0.00, 0.00
2844.0, -28646.38, -40043.42, -20509.31, -187500.02, -187500.02, -12060.40, -39490.97, 565.03, 0.00, 0.00, 0.00
2848.0, -28662.80, -40056.71, -20525.72, -187500.02, -187500.02, -12053.74, -39486.37, 513.96, 0.00, 0.00, 0.00
2852.0, -28694.86, -40085.44, -20557.23, -187500.02, -187500.02, -12072.27, -39499.20, 583.20, 0.00, 0.00, 0.00
2856.0, -28690.50, -40081.46, -20552.96, -187500.02, -187500.02, -12089.30, -39515.80, 644.96, 0.00, 0.00, 0.00
2860.0, -28648.16, -40041.05, -20511.21, -187500.02, -187500.02, -12070.30, -39507.49, 570.48, 0.00, 0.00, 0.00
2864.0, -28653.19, -40044.73, -20515.84, -187500.02, -187500.02, -12056.84, -39497.12, 494.02, 0.00, 0.00, 0.00
2868.0, -28676.06, -40070.42, -20541.16, -187500.02, -187500.02, -12086.17, -39494.57, 548.15, 0.00, 0.00, 0.00
2872.0, -28689.18, -40085.04, -20555.49, -187500.02, -187500.02, -12113.53, -39502.48, 638.30, 0.00, 0.00, 0.00
2876.0, -28658.60, -40056.47, -20530.28, -187500.02, -187500.02, -12105.75, -39496.98, 602.54, 0.00, 0.00, 0.00
2880.0, -28642.57, -40041.56, -20517.74, -187500.02, -187500.02, -12081.50, -39479.46, 511.61, 0.00, 0.00, 0.00
2884.0, -28666.40, -40066.20, -20543.44, -187500.02, -187500.02, -12085.57, -39479.13, 538.59, 0.00, 0.00, 0.00
2888.0, -28687.61, -40088.77, -20565.24, -187500.02, -187500.02, -12111.00, -39497.88, 634.25, 0.00, 0.00, 0.00
2892.0, -28659.67, -40062.73, -20537.50, -187500.02, -187500.02, -12103.67, -39501.12, 625.31, 0.00, 0.00, 0.00
2896.0, -28631.85, -40034.16, -20510.25, -187500.02, -187500.02, -12076.25, -39490.88, 530.88, 0.00, 0.00, 0.00
2900.0, -28655.43, -40054.10, -20532.98, -187500.02, -187500.02, -12071.91, -39494.57, 548.15, 0.00, 0.00, 0.00
2904.0, -28684.13, -40078.22, -20554.80, -187500.02, -187500.02, -12094.75, -39518.31, 645.27, 0.00, 0.00, 0.00
2908.0, -28652.16, -40047.48, -20522.21, -187500.02, -187500.02, -12089.03, -39521.23, 647.84, 0.00, 0.00, 0.00
2912.0, -28628.63, -40025.89, -20501.56, -187500.02, -187500.02, -12065.45, -39512.50, 553.45, 0.00, 0.00, 0.00
2916.0, -28648.23, -40042.41, -20518.99, -187500.02, -187500.02, -12067.64, -39504.92, 537.18, 0.00, 0.00, 0.00
2920.0, -28664.19, -40062.53, -20539.53, -187500.02, -187500.02, -12080.87, -39503.67, 622.03, 0.00, 0.00, 0.00
2924.0, -28652.37, -40053.27, -20528.96, -187500.02, -187500.02, -12084.51, -39514.22, 649.85, 0.00, 0.00, 0.00
2928.0, -28637.05, -40038.48, -20515.08, -187500.02, -187500.02, -12078.06, -39519.38, 562.82, 0.00, 0.00, 0.00
2932.0, -28658.85, -40058.32, -20538.28, -187500.02, -187500.02, -12082.95, -39521.26, 526.63, 0.00, 0.00, 0.00
2936.0, -28675.50, -40076.36, -20556.92, -187500.02, -187500.02, -12100.63, -39522.84, 593.24, 0.00, 0.00, 0.00
2940.0, -28667.65, -40068.88, -20549.12, -187500.02, -187500.02, -12102.55, -39532.23, 642.03, 0.00, 0.00, 0.00
2944.0, -28631.62, -40030.57, -20508.93, -187500.02, -187500.02, -12090.37, -39522.46, 565.34, 0.00, 0.00, 0.00
2948.0, -28641.55, -40042.25, -20523.64, -187500.02, -187500.02, -12078.84, -39517.97, 509.78, 0.00, 0.00, 0.00
2952.0, -28687.26, -40084.81, -20568.83, -187500.02, -187500.02, -12099.13, -39543.77, 581.97, 0.00, 0.00, 0.00
2956.0, -28680.21, -40076.61, -20558.87, -187500.02, -187500.02, -12113.33, -39549.64, 646.73, 0.00, 0.00, 0.00
2960.0, -28648.05, -40046.14, -20526.43, -187500.02, -187500.02, -12100.45, -39540.17, 585.68, 0.00, 0.00, 0.00
2964.0, -28650.55, -40051.38, -20533.74, -187500.02, -187500.02, -12097.08, -39536.55, 508.99, 0.00, 0.00, 0.00
2968.0, -28678.34, -40082.40, -20565.59, -187500.02, -187500.02, -12112.48, -39540.39, 557.12, 0.00, 0.00, 0.00
2972.0, -28677.82, -40083.92, -20565.33, -187500.02, -187500.02, -12121.51, -39543.59, 638.95, 0.00, 0.00, 0.00
2976.0, -28647.43, -40053.48, -20532.96, -187500.02, -187500.02, -12110.60, -39541.22, 599.38, 0.00, 0.00, 0.00
2980.0, -28641.46, -40044.82, -20524.71, -187500.02, -187500.02, -12095.29, -39527.96, 509.49, 0.00, 0.00, 0.00
2984.0, -28669.67, -40072.79, -20554.26, -187500.02, -187500.02, -12100.72, -39528.01, 539.66, 0.00, 0.00, 0.00
2988.0, -28697.67, -40098.40, -20579.76, -187500.02, -187500.02, -12127.32, -39551.90, 635.17, 0.00, 0.00, 0.00
2992.0, -28669.29, -40070.64, -20550.66, -187500.02, -187500.02, -12125.46, -39550.63, 617.13, 0.00, 0.00, 0.00
2996.0, -28643.49, -40043.39, -20526.77, -187500.02, -187500.02, -12093.30, -39529.75, 517.76, 0.00, 0.00, 0.00
3000.0, -28667.32, -40066.15, -20550.84, -187500.02, -187500.02, -12095.04, -39529.98, 522.83, 0.00, 0.00, 0.00
3004.0, -28685.80, -40085.68, -20568.39, -187500.02, -187500.02, -12109.75, -39538.13, 615.79, 0.00, 0.00, 0.00
3008.0, -28677.94, -40076.48, -20558.80, -187500.02, -187500.02, -12115.74, -39550.63, 634.99, 0.00, 0.00, 0.00
3012.0, -28651.63, -40048.16, -20531.26, -187500.02, -187500.02, -12099.27, -39546.76, 539.91, 0.00, 0.00, 0.00
3016.0, -28651.38, -40051.06, -20535.84, -187500.02, -187500.02, -12084.96, -39534.40, 510.65, 0.00, 0.00, 0.00
3020.0, -28678.07, -40079.63, -20567.31, -187500.02, -187500.02, -12100.50, -39548.88, 601.98, 0.00, 0.00, 0.00
3024.0, -28670.45, -40069.30, -20558.89, -187500.02, -187500.02, -12116.39, -39565.40, 647.89, 0.00, 0.00, 0.00
3028.0, -28637.08, -40034.75, -20525.76, -187500.02, -187500.02, -12090.75, -39550.72, 563.47, 0.00, 0.00, 0.00
3032.0, -28648.05, -40045.96, -20537.61, -187500.02, -187500.02, -12089.66, -39539.65, 519.03, 0.00, 0.00, 0.00
3036.0, -28671.45, -40064.54, -20552.83, -187500.02, -187500.02, -12099.13, -39540.28, 581.70, 0.00, 0.00, 0.00
3040.0, -28674.98, -40067.56, -20557.61, -187500.02, -187500.02, -12107.60, -39549.64, 637.07, 0.00, 0.00, 0.00
3044.0, -28653.75, -40046.17, -20537.61, -187500.02, -187500.02, -12102.37, -39550.85, 569.52, 0.00, 0.00, 0.00
3048.0, -28645.46, -40035.66, -20526.81, -187500.02, -187500.02, -12079.75, -39528.88, 508.77, 0.00, 0.00, 0.00
3052.0, -28679.12, -40072.63, -20563.78, -187500.02, -187500.02, -12107.81, -39538.54, 581.41, 0.00, 0.00, 0.00
3056.0, -28680.10, -40075.13, -20566.78, -187500.02, -187500.02, -12125.80, -39543.74, 646.37, 0.00, 0.00, 0.00
3060.0, -28647.92, -40046.73, -20538.55, -187500.02, -187500.02, -12110.11, -39538.51, 594.89, 0.00, 0.00, 0.00
3064.0, -28646.89, -40041.63, -20534.23, -187500.02, -187500.02, -12089.86, -39527.20, 526.56, 0.00, 0.00, 0.00
3068.0, -28673.24, -40066.33, -20559.11, -187500.02, -187500.02, -12096.92, -39534.63, 570.62, 0.00, 0.00, 0.00
3072.0, -28677.98, -40076.88, -20569.44, -187500.02, -187500.02, -12111.18, -39547.77, 648.16, 0.00, 0.00, 0.00
3076.0, -28655.18, -40053.45, -20546.37, -187500.02, -187500.02, -12114.78, -39556.15, 618.88, 0.00, 0.00, 0.00
3080.0, -28634.91, -40032.75, -20527.97, -187500.02, -187500.02, -12091.33, -39542.13, 527.03, 0.00, 0.00, 0.00
3084.0, -28652.90, -40051.51, -20546.37, -187500.02, -187500.02, -12086.91, -39534.11, 539.39, 0.00, 0.00, 0.00
3088.0, -28669.29, -40066.51, -20560.50, -187500.02, -187500.02, -12094.71, -39546.83, 623.05, 0.00, 0.00, 0.00
3092.0, -28648.23, -40045.81, -20536.20, -187500.02, -187500.02, -12087.08, -39545.09, 625.96, 0.00, 0.00, 0.00
3096.0, -28647.76, -40043.35, -20532.80, -187500.02, -187500.02, -12080.42, -39543.95, 545.56, 0.00, 0.00, 0.00
3100.0, -28680.13, -40075.38, -20565.64, -187500.02, -187500.02, -12088.83, -39547.88, 549.81, 0.00, 0.00, 0.00
3104.0, -28713.32, -40104.86, -20596.64, -187500.02, -187500.02, -12110.38, -39566.14, 641.25, 0.00, 0.00, 0.00
3108.0, -28694.81, -40084.54, -20575.09, -187500.02, -187500.02, -12113.91, -39572.29, 655.67, 0.00, 0.00, 0.00
3112.0, -28673.15, -40061.57, -20550.33, -187500.02, -187500.02, -12093.34, -39562.52, 562.64, 0.00, 0.00, 0.00
3116.0, -28688.57, -40074.64, -20563.80, -187500.02, -187500.02, -12088.36, -39561.83, 532.11, 0.00, 0.00, 0.00
3120.0, -28694.07, -40083.29, -20571.05, -187500.02, -187500.02, -12090.21, -39560.17, 605.35, 0.00, 0.00, 0.00
3124.0, -28672.15, -40063.40, -20553.23, -187500.02, -187500.02, -12085.48, -39557.60, 637.40, 0.00, 0.00, 0.00
3128.0, -28649.04, -40035.71, -20528.27, -187500.02, -187500.02, -12065.56, -39549.53, 559.98, 0.00, 0.00, 0.00
3132.0, -28661.89, -40048.04, -20541.41, -187500.02, -187500.02, -12064.38, -39547.95, 512.61, 0.00, 0.00, 0.00
3136.0, -28685.89, -40074.66, -20566.38, -187500.02, -187500.02, -12085.83, -39558.00, 576.16, 0.00, 0.00, 0.00
3140.0, -28679.05, -40068.23, -20561.23, -187500.02, -187500.02, -12095.62, -39565.76, 635.37, 0.00, 0.00, 0.00
3144.0, -28663.43, -40051.15, -20546.68, -187500.02, -187500.02, -12088.43, -39573.98, 588.50, 0.00, 0.00, 0.00
3148.0, -28650.71, -40035.73, -20530.12, -187500.02, -187500.02, -12072.13, -39554.32, 521.78, 0.00, 0.00, 0.00
3152.0, -28684.37, -40066.98, -20561.75, -187500.02, -187500.02, -12085.63, -39565.43, 577.57, 0.00, 0.00, 0.00
3156.0, -28684.80, -40070.66, -20565.28, -187500.02, -187500.02, -12100.72, -39578.86, 644.85, 0.00, 0.00, 0.00
3160.0, -28654.13, -40044.91, -20538.82, -187500.02, -187500.02, -12085.30, -39578.57, 599.90, 0.00, 0.00, 0.00
3164.0, -28650.00, -40040.67, -20535.57, -187500.02, -187500.02, -12076.89, -39570.68, 526.56, 0.00, 0.00, 0.00
3168.0, -28658.00, -40047.04, -20542.68, -187500.02, -187500.02, -12077.50, -39555.28, 548.47, 0.00, 0.00, 0.00
3172.0, -28678.54, -40065.63, -20563.29, -187500.02, -187500.02, -12090.55, -39563.52, 629.47, 0.00, 0.00, 0.00
3176.0, -28661.57, -40050.95, -20549.14, -187500.02, -187500.02, -12090.88, -39568.87, 608.84, 0.00, 0.00, 0.00
3180.0, -28655.58, -40046.86, -20545.54, -187500.02, -187500.02, -12077.25, -39562.05, 527.10, 0.00, 0.00, 0.00
3184.0, -28671.83, -40062.64, -20558.89, -187500.02, -187500.02, -12080.56, -39556.98, 531.37, 0.00, 0.00, 0.00
3188.0, -28671.90, -40068.12, -20564.81, -187500.02, -187500.02, -12082.01, -39557.09, 607.65, 0.00, 0.00, 0.00
3192.0, -28660.77, -40057.70, -20555.76, -187500.02, -187500.02, -12082.88, -39560.71, 617.00, 0.00, 0.00, 0.00
3196.0, -28656.99, -40052.00, -20550.13, -187500.02, -187500.02, -12078.12, -39559.73, 539.24, 0.00, 0.00, 0.00
3200.0, -28686.41, -40080.63, -20578.94, -187500.02, -187500.02, -12093.86, -39566.30, 532.40, 0.00, 0.00, 0.00
3204.0, -28719.51, -40114.07, -20611.82, -187500.02, -187500.02, -12127.72, -39587.29, 609.84, 0.00, 0.00, 0.00
3208.0, -28694.54, -40088.52, -20586.67, -187500.02, -187500.02, -12128.08, -39582.23, 618.94, 0.00, 0.00, 0.00
3212.0, -28671.81, -40064.18, -20559.96, -187500.02, -187500.02, -12112.12, -39575.19, 541.38, 0.00, 0.00, 0.00
3216.0, -28689.29, -40076.97, -20575.05, -187500.02, -187500.02, -12113.57, -39569.96, 522.29, 0.00, 0.00, 0.00
3220.0, -28713.01, -40098.31, -20595.32, -187500.02, -187500.02, -12131.34, -39575.50, 595.79, 0.00, 0.00, 0.00
3224.0, -28703.82, -40091.32, -20587.81, -187500.02, -187500.02, -12132.84, -39577.20, 638.23, 0.00, 0.00, 0.00
3228.0, -28670.02, -40059.93, -20558.22, -187500.02, -187500.02, -12116.43, -39567.17, 567.85, 0.00, 0.00, 0.00
3232.0, -28673.13, -40061.72, -20560.47, -187500.02, -187500.02, -12096.03, -39553.24, 525.58, 0.00, 0.00, 0.00
3236.0, -28704.45, -40091.77, -20590.16, -187500.02, -187500.02, -12114.33, -39561.78, 594.89, 0.00, 0.00, 0.00
3240.0, -28687.66, -40073.01, -20571.00, -187500.02, -187500.02, -12116.23, -39553.60, 646.14, 0.00, 0.00, 0.00
3244.0, -28655.56, -40042.23, -20537.59, -187500.02, -187500.02, -12096.99, -39540.97, 595.88, 0.00, 0.00, 0.00
3248.0, -28656.32, -40044.29, -20538.08, -187500.02, -187500.02, -12078.03, -39532.93, 539.59, 0.00, 0.00, 0.00
3252.0, -28696.11, -40082.40, -20578.40, -187500.02, -187500.02, -12105.95, -39548.28, 594.96, 0.00, 0.00, 0.00
3256.0, -28701.18, -40089.17, -20585.75, -187500.02, -187500.02, -12121.93, -39554.18, 664.85, 0.00, 0.00, 0.00
3260.0, -28682.58, -40069.48, -20565.01, -187500.02, -187500.02, -12116.48, -39551.84, 632.20, 0.00, 0.00, 0.00
3264.0, -28678.18, -40063.67, -20561.55, -187500.02, -187500.02, -12106.91, -39539.92, 556.54, 0.00, 0.00, 0.00
3268.0, -28706.43, -40095.50, -20595.41, -187500.02, -187500.02, -12117.24, -39543.12, 589.04, 0.00, 0.00, 0.00
3272.0, -28696.22, -40092.34, -20594.03, -187500.02, -187500.02, -12122.74, -39537.02, 657.59, 0.00, 0.00, 0.00
3276.0, -28673.87, -40068.09, -20569.28, -187500.02, -187500.02, -12104.23, -39532.55, 639.95, 0.00, 0.00, 0.00
3280.0, -28670.56, -40060.79, -20560.99, -187500.02, -187500.02, -12102.55, -39527.63, 556.29, 0.00, 0.00, 0.00
3284.0, -28701.63, -40091.99, -20592.35, -187500.02, -187500.02, -12121.66, -39532.46, 569.10, 0.00, 0.00, 0.00
3288.0, -28716.22, -40107.57, -20606.68, -187500.02, -187500.02, -12137.22, -39547.03, 644.36, 0.00, 0.00, 0.00
3292.0, -28700.47, -40091.27, -20589.58, -187500.02, -187500.02, -12128.91, -39549.82, 652.76, 0.00, 0.00, 0.00
3296.0, -28671.50, -40059.73, -20560.56, -187500.02, -187500.02, -12107.89, -39529.30, 567.76, 0.00, 0.00, 0.00
3300.0, -28693.43, -40080.10, -20582.11, -187500.02, -187500.02, -12101.14, -39523.49, 563.24, 0.00, 0.00, 0.00
3304.0, -28711.04, -40099.27, -20600.17, -187500.02, -187500.02, -12127.39, -39530.07, 634.88, 0.00, 0.00, 0.00
3308.0, -28684.66, -40074.29, -20575.12, -187500.02, -187500.02, -12123.23, -39520.43, 648.96, 0.00, 0.00, 0.00
3312.0, -28670.76, -40061.48, -20561.79, -187500.02, -187500.02, -12120.79, -39521.88, 572.50, 0.00, 0.00, 0.00
3316.0, -28677.15, -40069.23, -20569.33, -187500.02, -187500.02, -12117.01, -39511.96, 535.97, 0.00, 0.00, 0.00
3320.0, -28706.77, -40093.11, -20594.38, -187500.02, -187500.02, -12132.73, -39523.07, 607.27, 0.00, 0.00, 0.00
3324.0, -28695.30, -40082.46, -20583.92, -187500.02, -187500.02, -12136.13, -39521.82, 649.70, 0.00, 0.00, 0.00
3328.0, -28683.68, -40072.92, -20573.89, -187500.02, -187500.02, -12133.44, -39530.60, 586.47, 0.00, 0.00, 0.00
3332.0, -28698.90, -40085.89, -20586.60, -187500.02, -187500.02, -12135.92, -39534.04, 533.85, 0.00, 0.00, 0.00
3336.0, -28728.92, -40116.17, -20616.29, -187500.02, -187500.02, -12156.55, -39545.38, 596.46, 0.00, 0.00, 0.00
3340.0, -28712.76, -40099.61, -20597.11, -187500.02, -187500.02, -12161.18, -39540.79, 647.95, 0.00, 0.00, 0.00
3344.0, -28680.60, -40065.19, -20562.62, -187500.02, -187500.02, -12145.40, -39528.79, 595.92, 0.00, 0.00, 0.00
3348.0, -28685.20, -40068.56, -20567.09, -187500.02, -187500.02, -12139.70, -39519.11, 531.75, 0.00, 0.00, 0.00
3352.0, -28715.87, -40099.39, -20596.62, -187500.02, -187500.02, -12153.38, -39528.54, 575.11, 0.00, 0.00, 0.00
3356.0, -28713.14, -40099.14, -20594.72, -187500.02, -187500.02, -12167.86, -39531.59, 636.78, 0.00, 0.00, 0.00
3360.0, -28679.99, -40064.74, -20560.38, -187500.02, -187500.02, -12151.39, -39517.75, 593.93, 0.00, 0.00, 0.00
3364.0, -28677.42, -40062.04, -20556.76, -187500.02, -187500.02, -12136.62, -39510.35, 522.00, 0.00, 0.00, 0.00
3368.0, -28712.67, -40096.84, -20591.68, -187500.02, -187500.02, -12154.59, -39520.07, 556.89, 0.00, 0.00, 0.00
3372.0, -28712.31, -40097.89, -20591.30, -187500.02, -187500.02, -12162.12, -39513.95, 631.75, 0.00, 0.00, 0.00
3376.0, -28691.50, -40082.09, -20573.93, -187500.02, -187500.02, -12147.93, -39512.96, 621.78, 0.00, 0.00, 0.00
3380.0, -28678.29, -40069.28, -20563.69, -187500.02, -187500.02, -12137.49, -39504.83, 534.30, 0.00, 0.00, 0.00
3384.0, -28707.89, -40098.83, -20597.11, -187500.02, -187500.02, -12144.60, -39506.15, 536.73, 0.00, 0.00, 0.00
3388.0, -28722.08, -40115.81, -20614.28, -187500.02, -187500.02, -12165.41, -39511.94, 614.56, 0.00, 0.00, 0.00
3392.0, -28710.77, -40107.19, -20602.76, -187500.02, -187500.02, -12164.00, -39523.00, 627.15, 0.00, 0.00, 0.00
3396.0, -28688.20, -40082.58, -20577.71, -187500.02, -187500.02, -12142.12, -39506.62, 542.81, 0.00, 0.00, 0.00
3400.0, -28707.89, -40096.52, -20593.04, -187500.02, -187500.02, -12140.33, -39493.56, 527.30, 0.00, 0.00, 0.00
3404.0, -28731.22, -40120.78, -20617.92, -187500.02, -187500.02, -12155.48, -39500.18, 604.35, 0.00, 0.00, 0.00
3408.0, -28725.81, -40113.98, -20610.12, -187500.02, -187500.02, -12154.34, -39510.77, 634.74, 0.00, 0.00, 0.00
3412.0, -28716.49, -40104.91, -20600.95, -187500.02, -187500.02, -12149.94, -39516.07, 565.86, 0.00, 0.00, 0.00
3416.0, -28706.21, -40097.98, -20596.17, -187500.02, -187500.02, -12143.88, -39495.78, 519.72, 0.00, 0.00, 0.00
3420.0, -28721.92, -40112.30, -20611.57, -187500.02, -187500.02, -12147.30, -39496.47, 586.96, 0.00, 0.00, 0.00
3424.0, -28715.06, -40103.43, -20603.12, -187500.02, -187500.02, -12145.20, -39496.96, 638.43, 0.00, 0.00, 0.00
3428.0, -28689.69, -40077.61, -20575.83, -187500.02, -187500.02, -12133.55, -39490.88, 579.98, 0.00, 0.00, 0.00
3432.0, -28695.77, -40083.92, -20581.40, -187500.02, -187500.02, -12123.50, -39486.50, 533.16, 0.00, 0.00, 0.00
3436.0, -28725.50, -40111.90, -20609.04, -187500.02, -187500.02, -12144.06, -39496.92, 596.34, 0.00, 0.00, 0.00
3440.0, -28714.08, -40100.88, -20596.69, -187500.02, -187500.02, -12153.96, -39498.68, 658.95, 0.00, 0.00, 0.00
3444.0, -28683.21, -40067.67, -20564.68, -187500.02, -187500.02, -12134.96, -39492.78, 610.43, 0.00, 0.00, 0.00
3448.0, -28675.21, -40057.12, -20554.37, -187500.02, -187500.02, -12112.39, -39480.58, 536.64, 0.00, 0.00, 0.00
3452.0, -28710.57, -40092.25, -20588.26, -187500.02, -187500.02, -12121.46, -39492.78, 584.48, 0.00, 0.00, 0.00
3456.0, -28716.11, -40101.89, -20595.90, -187500.02, -187500.02, -12140.04, -39504.38, 660.29, 0.00, 0.00, 0.00
3460.0, -28699.10, -40083.85, -20576.30, -187500.02, -187500.02, -12140.17, -39511.76, 632.96, 0.00, 0.00, 0.00
3464.0, -28692.53, -40077.05, -20570.04, -187500.02, -187500.02, -12134.78, -39503.96, 546.97, 0.00, 0.00, 0.00
3468.0, -28716.65, -40105.62, -20600.78, -187500.02, -187500.02, -12148.64, -39508.07, 563.13, 0.00, 0.00, 0.00
3472.0, -28714.50, -40108.68, -20602.99, -187500.02, -187500.02, -12159.44, -39506.64, 628.49, 0.00, 0.00, 0.00
3476.0, -28692.91, -40084.32, -20580.03, -187500.02, -187500.02, -12152.49, -39507.13, 620.13, 0.00, 0.00, 0.00
3480.0, -28681.56, -40071.49, -20569.79, -187500.02, -187500.02, -12141.11, -39506.68, 531.79, 0.00, 0.00, 0.00
3484.0, -28707.93, -40100.41, -20600.15, -187500.02, -187500.02, -12149.80, -39507.64, 534.77, 0.00, 0.00, 0.00
3488.0, -28719.73, -40115.81, -20612.38, -187500.02, -187500.02, -12166.08, -39511.42, 609.20, 0.00, 0.00, 0.00
3492.0, -28692.08, -40090.56, -20586.60, -187500.02, -187500.02, -12159.17, -39503.85, 621.00, 0.00, 0.00, 0.00
3496.0, -28660.01, -40058.28, -20556.09, -187500.02, -187500.02, -12140.08, -39477.47, 537.94, 0.00, 0.00, 0.00
3500.0, -28695.39, -40092.12, -20588.50, -187500.02, -187500.02, -12158.28, -39480.58, 529.74, 0.00, 0.00, 0.00
3504.0, -28728.41, -40127.21, -20620.31, -187500.02, -187500.02, -12200.88, -39498.64, 610.90, 0.00, 0.00, 0.00
3508.0, -28715.60, -40113.82, -20606.41, -187500.02, -187500.02, -12195.42, -39492.56, 642.97, 0.00, 0.00, 0.00
3512.0, -28678.90, -40076.68, -20569.44, -187500.02, -187500.02, -12174.23, -39482.16, 562.50, 0.00, 0.00, 0.00
3516.0, -28675.03, -40073.19, -20565.66, -187500.02, -187500.02, -12159.37, -39466.23, 520.68, 0.00, 0.00, 0.00
3520.0, -28709.70, -40109.71, -20600.31, -187500.02, -187500.02, -12187.09, -39482.46, 597.55, 0.00, 0.00, 0.00
3524.0, -28699.86, -40100.08, -20590.36, -187500.02, -187500.02, -12207.45, -39490.14, 646.81, 0.00, 0.00, 0.00
3528.0, -28673.49, -40073.12, -20565.64, -187500.02, -187500.02, -12201.91, -39483.93, 584.81, 0.00, 0.00, 0.00
3532.0, -28685.83, -40082.69, -20575.72, -187500.02, -187500.02, -12190.60, -39477.23, 531.06, 0.00, 0.00, 0.00
3536.0, -28723.26, -40118.54, -20611.06, -187500.02, -187500.02, -12212.37, -39485.52, 592.41, 0.00, 0.00, 0.00
3540.0, -28722.13, -40117.00, -20607.39, -187500.02, -187500.02, -12223.07, -39484.24, 650.95, 0.00, 0.00, 0.00
3544.0, -28689.33, -40082.89, -20572.97, -187500.02, -187500.02, -12205.82, -39465.78, 593.17, 0.00, 0.00, 0.00
3548.0, -28689.87, -40085.21, -20577.24, -187500.02, -187500.02, -12185.28, -39453.55, 516.39, 0.00, 0.00, 0.00
3552.0, -28724.29, -40118.56, -20606.90, -187500.02, -187500.02, -12209.64, -39464.33, 549.85, 0.00, 0.00, 0.00
3556.0, -28731.47, -40124.82, -20612.00, -187500.02, -187500.02, -12229.04, -39473.34, 620.95, 0.00, 0.00, 0.00
3560.0, -28706.75, -40098.89, -20588.68, -187500.02, -187500.02, -12218.78, -39470.09, 596.95, 0.00, 0.00, 0.00
3564.0, -28687.17, -40076.99, -20569.57, -187500.02, -187500.02, -12201.10, -39447.68, 507.70, 0.00, 0.00, 0.00
3568.0, -28713.74, -40106.16, -20601.85, -187500.02, -187500.02, -12205.75, -39444.26, 522.40, 0.00, 0.00, 0.00
3572.0, -28728.85, -40124.57, -20619.77, -187500.02, -187500.02, -12233.58, -39454.09, 598.60, 0.00, 0.00, 0.00
3576.0, -28697.36, -40093.24, -20588.35, -187500.02, -187500.02, -12222.80, -39441.06, 583.29, 0.00, 0.00, 0.00
3580.0, -28683.59, -40078.33, -20574.71, -187500.02, -187500.02, -12212.34, -39428.50, 493.66, 0.00, 0.00, 0.00
3584.0, -28712.22, -40105.20, -20601.24, -187500.02, -187500.02, -12228.68, -39431.32, 484.50, 0.00, 0.00, 0.00
3588.0, -28719.67, -40111.12, -20608.13, -187500.02, -187500.02, -12246.14, -39424.77, 547.60, 0.00, 0.00, 0.00
3592.0, -28695.04, -40086.00, -20582.51, -187500.02, -187500.02, -12238.18, -39418.15, 562.01, 0.00, 0.00, 0.00
3596.0, -28680.53, -40071.63, -20568.50, -187500.02, -187500.02, -12223.68, -39414.44, 490.26, 0.00, 0.00, 0.00
3600.0, -28692.93, -40084.03, -20581.55, -187500.02, -187500.02, -12222.16, -39405.18, 456.87, 0.00, 0.00, 0.00
3604.0, -28710.41, -40101.84, -20600.13, -187500.02, -187500.02, -12229.98, -39405.48, 520.84, 0.00, 0.00, 0.00
3608.0, -28701.45, -40089.62, -20587.88, -187500.02, -187500.02, -12227.97, -39408.94, 551.48, 0.00, 0.00, 0.00
3612.0, -28684.53, -40071.74, -20569.28, -187500.02, -187500.02, -12210.62, -39410.35, 478.10, 0.00, 0.00, 0.00
3616.0, -28697.94, -40086.15, -20585.73, -187500.02, -187500.02, -12212.05, -39409.59, 431.23, 0.00, 0.00, 0.00
3620.0, -28719.11, -40112.46, -20610.70, -187500.02, -187500.02, -12227.79, -39416.38, 491.43, 0.00, 0.00, 0.00
3624.0, -28719.35, -40115.99, -20612.87, -187500.02, -187500.02, -12240.40, -39429.82, 543.35, 0.00, 0.00, 0.00
3628.0, -28697.78, -40090.20, -20586.29, -187500.02, -187500.02, -12232.19, -39430.98, 481.81, 0.00, 0.00, 0.00
3632.0, -28692.84, -40082.09, -20580.68, -187500.02, -187500.02, -12219.56, -39421.10, 412.81, 0.00, 0.00, 0.00
3636.0, -28712.92, -40104.88, -20603.55, -187500.02, -187500.02, -12232.01, -39430.24, 459.40, 0.00, 0.00, 0.00
3640.0, -28714.55, -40108.01, -20608.26, -187500.02, -187500.02, -12242.25, -39439.96, 529.20, 0.00, 0.00, 0.00
3644.0, -28692.42, -40086.09, -20587.32, -187500.02, -187500.02, -12238.38, -39438.96, 494.76, 0.00, 0.00, 0.00
3648.0, -28692.82, -40083.92, -20586.25, -187500.02, -187500.02, -12242.70, -39436.84, 422.14, 0.00, 0.00, 0.00
3652.0, -28709.05, -40095.39, -20599.08, -187500.02, -187500.02, -12243.93, -39425.73, 447.44, 0.00, 0.00, 0.00
3656.0, -28710.26, -40097.46, -20602.36, -187500.02, -187500.02, -12245.98, -39422.51, 526.58, 0.00, 0.00, 0.00
3660.0, -28681.60, -40070.29, -20574.58, -187500.02, -187500.02, -12227.48, -39415.42, 511.54, 0.00, 0.00, 0.00
3664.0, -28674.29, -40059.06, -20562.58, -187500.02, -187500.02, -12209.13, -39404.31, 429.42, 0.00, 0.00, 0.00
3668.0, -28716.31, -40098.11, -20604.71, -187500.02, -187500.02, -12234.81, -39420.41, 448.78, 0.00, 0.00, 0.00
3672.0, -28727.82, -40110.52, -20620.31, -187500.02, -187500.02, -12254.81, -39430.35, 519.72, 0.00, 0.00, 0.00
3676.0, -28704.00, -40087.96, -20597.40, -187500.02, -187500.02, -12248.29, -39421.64, 518.31, 0.00, 0.00, 0.00
3680.0, -28673.51, -40054.88, -20564.83, -187500.02, -187500.02, -12226.22, -39402.53, 425.26, 0.00, 0.00, 0.00
3684.0, -28682.45, -40061.12, -20571.27, -187500.02, -187500.02, -12211.90, -39389.11, 407.45, 0.00, 0.00, 0.00
3688.0, -28714.08, -40091.43, -20600.53, -187500.02, -187500.02, -12241.07, -39406.39, 492.21, 0.00, 0.00, 0.00
3692.0, -28698.01, -40071.51, -20581.13, -187500.02, -187500.02, -12244.82, -39408.45, 518.29, 0.00, 0.00, 0.00
3696.0, -28668.06, -40037.63, -20548.99, -187500.02, -187500.02, -12223.07, -39391.17, 436.93, 0.00, 0.00, 0.00
3700.0, -28688.40, -40057.99, -20571.79, -187500.02, -187500.02, -12218.16, -39388.40, 415.50, 0.00, 0.00, 0.00
3704.0, -28712.27, -40079.18, -20593.76, -187500.02, -187500.02, -12236.31, -39392.47, 483.85, 0.00, 0.00, 0.00
3708.0, -28702.30, -40070.62, -20586.27, -187500.02, -187500.02, -12240.80, -39396.49, 522.14, 0.00, 0.00, 0.00
3712.0, -28681.85, -40049.63, -20565.77, -187500.02, -187500.02, -12231.34, -39396.31, 451.21, 0.00, 0.00, 0.00
3716.0, -28688.26, -40055.53, -20574.42, -187500.02, -187500.02, -12221.98, -39390.50, 397.57, 0.00, 0.00, 0.00
3720.0, -28708.47, -40074.29, -20594.27, -187500.02, -187500.02, -12231.17, -39391.89, 449.67, 0.00, 0.00, 0.00
3724.0, -28709.76, -40072.59, -20589.62, -187500.02, -187500.02, -12234.54, -39400.74, 508.17, 0.00, 0.00, 0.00
3728.0, -28682.09, -40044.94, -20561.73, -187500.02, -187500.02, -12214.56, -39395.15, 454.30, 0.00, 0.00, 0.00
3732.0, -28688.73, -40051.00, -20569.26, -187500.02, -187500.02, -12213.01, -39394.28, 395.09, 0.00, 0.00, 0.00
3736.0, -28715.15, -40075.94, -20595.25, -187500.02, -187500.02, -12233.40, -39398.91, 440.55, 0.00, 0.00, 0.00
3740.0, -28706.95, -40068.47, -20588.84, -187500.02, -187500.02, -12238.36, -39392.58, 504.14, 0.00, 0.00, 0.00
3744.0, -28681.45, -40043.15, -20562.31, -187500.02, -187500.02, -12229.44, -39385.43, 467.29, 0.00, 0.00, 0.00
3748.0, -28682.00, -40042.57, -20563.54, -187500.02, -187500.02, -12221.13, -39382.03, 396.72, 0.00, 0.00, 0.00
3752.0, -28726.35, -40087.02, -20612.82, -187500.02, -187500.02, -12247.24, -39402.77, 433.53, 0.00, 0.00, 0.00
3756.0, -28734.91, -40097.29, -20623.33, -187500.02, -187500.02, -12268.89, -39413.52, 499.87, 0.00, 0.00, 0.00
3760.0, -28710.84, -40073.75, -20599.46, -187500.02, -187500.02, -12263.98, -39407.78, 479.60, 0.00, 0.00, 0.00
3764.0, -28690.92, -40051.35, -20578.40, -187500.02, -187500.02, -12240.13, -39392.58, 388.72, 0.00, 0.00, 0.00
3768.0, -28714.35, -40074.42, -20602.34, -187500.02, -187500.02, -12238.92, -39389.41, 393.37, 0.00, 0.00, 0.00
3772.0, -28737.14, -40100.46, -20627.53, -187500.02, -187500.02, -12259.98, -39400.09, 471.35, 0.00, 0.00, 0.00
3776.0, -28722.82, -40087.72, -20613.36, -187500.02, -187500.02, -12253.83, -39403.75, 478.66, 0.00, 0.00, 0.00
3780.0, -28715.11, -40074.38, -20600.28, -187500.02, -187500.02, -12242.05, -39401.68, 396.77, 0.00, 0.00, 0.00
3784.0, -28732.14, -40093.48, -20619.39, -187500.02, -187500.02, -12246.57, -39398.41, 382.93, 0.00, 0.00, 0.00
3788.0, -28745.97, -40111.55, -20637.68, -187500.02, -187500.02, -12257.56, -39402.75, 453.20, 0.00, 0.00, 0.00
3792.0, -28732.88, -40099.61, -20626.77, -187500.02, -187500.02, -12257.00, -39401.27, 478.19, 0.00, 0.00, 0.00
3796.0, -28715.60, -40078.60, -20607.35, -187500.02, -187500.02, -12247.44, -39393.41, 407.67, 0.00, 0.00, 0.00
3800.0, -28734.06, -40092.66, -20624.04, -187500.02, -187500.02, -12241.85, -39393.88, 379.33, 0.00, 0.00, 0.00
3804.0, -28753.04, -40110.61, -20642.42, -187500.02, -187500.02, -12251.93, -39396.94, 448.00, 0.00, 0.00, 0.00
3808.0, -28732.67, -40088.50, -20619.28, -187500.02, -187500.02, -12252.42, -39391.44, 489.03, 0.00, 0.00, 0.00
3812.0, -28691.12, -40046.70, -20578.69, -187500.02, -187500.02, -12233.58, -39372.84, 422.94, 0.00, 0.00, 0.00
3816.0, -28696.11, -40048.87, -20582.85, -187500.02, -187500.02, -12228.84, -39363.05, 375.02, 0.00, 0.00, 0.00
3820.0, -28729.63, -40081.57, -20617.29, -187500.02, -187500.02, -12250.66, -39382.81, 440.80, 0.00, 0.00, 0.00
3824.0, -28725.05, -40076.27, -20612.60, -187500.02, -187500.02, -12260.96, -39395.13, 503.67, 0.00, 0.00, 0.00
3828.0, -28703.10, -40049.30, -20584.26, -187500.02, -187500.02, -12245.74, -39393.32, 458.81, 0.00, 0.00, 0.00
3832.0, -28692.49, -40037.61, -20575.50, -187500.02, -187500.02, -12232.98, -39382.63, 387.31, 0.00, 0.00, 0.00
3836.0, -28718.44, -40066.48, -20606.50, -187500.02, -187500.02, -12248.40, -39387.62, 427.50, 0.00, 0.00, 0.00
3840.0, -28721.77, -40068.85, -20608.31, -187500.02, -187500.02, -12267.55, -39391.46, 493.77, 0.00, 0.00, 0.00
3844.0, -28709.52, -40055.44, -20593.67, -187500.02, -187500.02, -12257.74, -39396.67, 468.89, 0.00, 0.00, 0.00
3848.0, -28691.57, -40040.11, -20580.88, -187500.02, -187500.02, -12246.83, -39386.36, 384.56, 0.00, 0.00, 0.00
3852.0, -28714.53, -40064.09, -20604.55, -187500.02, -187500.02, -12247.19, -39383.68, 406.51, 0.00, 0.00, 0.00
3856.0, -28733.32, -40080.52, -20617.40, -187500.02, -187500.02, -12265.07, -39382.74, 484.50, 0.00, 0.00, 0.00
3860.0, -28718.55, -40063.98, -20600.95, -187500.02, -187500.02, -12268.25, -39376.84, 475.18, 0.00, 0.00, 0.00
3864.0, -28686.59, -40032.02, -20572.50, -187500.02, -187500.02, -12240.19, -39352.97, 387.89, 0.00, 0.00, 0.00
3868.0, -28706.21, -40051.89, -20592.59, -187500.02, -187500.02, -12236.98, -39349.37, 391.85, 0.00, 0.00, 0.00
3872.0, -28735.98, -40079.47, -20619.69, -187500.02, -187500.02, -12257.07, -39363.34, 474.13, 0.00, 0.00, 0.00
3876.0, -28711.11, -40055.38, -20594.76, -187500.02, -187500.02, -12253.40, -39360.77, 483.09, 0.00, 0.00, 0.00
3880.0, -28684.28, -40028.31, -20568.34, -187500.02, -187500.02, -12238.05, -39351.77, 404.99, 0.00, 0.00, 0.00
3884.0, -28700.96, -40041.79, -20582.51, -187500.02, -187500.02, -12232.82, -39341.10, 388.94, 0.00, 0.00, 0.00
3888.0, -28737.12, -40076.54, -20617.74, -187500.02, -187500.02, -12260.74, -39353.69, 471.64, 0.00, 0.00, 0.00
3892.0, -28726.33, -40067.49, -20610.01, -187500.02, -187500.02, -12268.74, -39359.57, 507.18, 0.00, 0.00, 0.00
3896.0, -28692.98, -40032.02, -20575.25, -187500.02, -187500.02, -12235.37, -39344.34, 427.12, 0.00, 0.00, 0.00
3900.0, -28701.74, -40037.65, -20582.96, -187500.02, -187500.02, -12220.41, -39335.92, 388.52, 0.00, 0.00, 0.00
3904.0, -28733.88, -40071.18, -20618.68, -187500.02, -187500.02, -12242.97, -39351.95, 462.68, 0.00, 0.00, 0.00
3908.0, -28725.70, -40063.29, -20611.55, -187500.02, -187500.02, -12253.02, -39355.52, 509.44, 0.00, 0.00, 0.00
3912.0, -28692.11, -40024.75, -20573.55, -187500.02, -187500.02, -12216.68, -39339.34, 444.98, 0.00, 0.00, 0.00
3916.0, -28695.59, -40024.75, -20574.42, -187500.02, -187500.02, -12205.64, -39329.88, 393.75, 0.00, 0.00, 0.00
3920.0, -28709.74, -40040.40, -20590.58, -187500.02, -187500.02, -12215.50, -39329.73, 448.55, 0.00, 0.00, 0.00
3924.0, -28707.35, -40037.41, -20587.36, -187500.02, -187500.02, -12229.49, -39335.76, 510.38, 0.00, 0.00, 0.00
3928.0, -28683.68, -40011.39, -20561.28, -187500.02, -187500.02, -12226.90, -39335.52, 461.92, 0.00, 0.00, 0.00
3932.0, -28669.08, -39998.33, -20548.32, -187500.02, -187500.02, -12204.66, -39323.40, 392.14, 0.00, 0.00, 0.00
3936.0, -28697.76, -40026.63, -20577.44, -187500.02, -187500.02, -12207.14, -39325.68, 430.74, 0.00, 0.00, 0.00
3940.0, -28712.58, -40044.63, -20594.88, -187500.02, -187500.02, -12226.22, -39339.20, 503.54, 0.00, 0.00, 0.00
3944.0, -28694.45, -40026.21, -20577.89, -187500.02, -187500.02, -12231.59, -39339.11, 484.12, 0.00, 0.00, 0.00
3948.0, -28680.30, -40013.44, -20567.31, -187500.02, -187500.02, -12217.84, -39325.61, 407.07, 0.00, 0.00, 0.00
3952.0, -28704.45, -40038.14, -20593.49, -187500.02, -187500.02, -12233.00, -39329.03, 426.83, 0.00, 0.00, 0.00
3956.0, -28707.93, -40038.93, -20594.90, -187500.02, -187500.02, -12247.48, -39326.62, 495.38, 0.00, 0.00, 0.00
3960.0, -28685.74, -40016.15, -20571.03, -187500.02, -187500.02, -12232.21, -39324.09, 492.48, 0.00, 0.00, 0.00
3964.0, -28674.16, -40003.16, -20557.53, -187500.02, -187500.02, -12210.42, -39317.37, 422.63, 0.00, 0.00, 0.00
3968.0, -28694.63, -40022.63, -20576.68, -187500.02, -187500.02, -12212.46, -39319.62, 427.90, 0.00, 0.00, 0.00
3972.0, -28711.31, -40041.09, -20594.54, -187500.02, -187500.02, -12231.12, -39328.99, 503.12, 0.00, 0.00, 0.00
3976.0, -28686.50, -40016.77, -20568.16, -187500.02, -187500.02, -12217.31, -39320.72, 514.74, 0.00, 0.00, 0.00
3980.0, -28672.64, -40001.60, -20554.08, -187500.02, -187500.02, -12197.95, -39317.03, 444.02, 0.00, 0.00, 0.00
3984.0, -28689.98, -40016.48, -20570.24, -187500.02, -187500.02, -12199.42, -39318.91, 417.11, 0.00, 0.00, 0.00
3988.0, -28704.15, -40031.88, -20587.88, -187500.02, -187500.02, -12216.03, -39327.42, 481.81, 0.00, 0.00, 0.00
3992.0, -28696.85, -40025.94, -20580.95, -187500.02, -187500.02, -12224.37, -39342.18, 522.52, 0.00, 0.00, 0.00
3996.0, -28667.59, -39995.07, -20550.30, -187500.02, -187500.02, -12206.04, -39338.40, 446.63, 0.00, 0.00, 0.00
4000.0, -28680.46, -40008.48, -20563.07, -187500.02, -187500.02, -12207.20, -39340.95, 405.89, 0.00, 0.00, 0.00
4004.0, -28699.88, -40031.05, -20587.19, -187500.02, -187500.02, -12224.41, -39349.71, 462.32, 0.00, 0.00, 0.00
4008.0, -28700.80, -40031.44, -20587.86, -187500.02, -187500.02, -12229.67, -39359.70, 513.13, 0.00, 0.00, 0.00
4012.0, -28679.01, -40005.73, -20561.75, -187500.02, -187500.02, -12213.46, -39357.24, 453.81, 0.00, 0.00, 0.00
4016.0, -28681.22, -40006.13, -20562.31, -187500.02, -187500.02, -12204.70, -39351.79, 395.29, 0.00, 0.00, 0.00
4020.0, -28708.87, -40033.70, -20589.31, -187500.02, -187500.02, -12224.35, -39360.88, 440.04, 0.00, 0.00, 0.00
4024.0, -28710.93, -40036.49, -20590.45, -187500.02, -187500.02, -12244.44, -39367.81, 498.47, 0.00, 0.00, 0.00
4028.0, -28676.21, -40002.07, -20554.35, -187500.02, -187500.02, -12233.49, -39357.75, 452.91, 0.00, 0.00, 0.00
4032.0, -28659.79, -39987.54, -20541.63, -187500.02, -187500.02, -12210.02, -39342.96, 385.81, 0.00, 0.00, 0.00
4036.0, -28688.11, -40016.15, -20573.06, -187500.02, -187500.02, -12217.13, -39347.00, 429.73, 0.00, 0.00, 0.00
4040.0, -28697.36, -40025.20, -20581.80, -187500.02, -187500.02, -12235.19, -39358.85, 498.89, 0.00, 0.00, 0.00
4044.0, -28667.09, -39995.14, -20551.33, -187500.02, -187500.02, -12212.86, -39348.55, 477.41, 0.00, 0.00, 0.00
4048.0, -28669.46, -39992.57, -20549.50, -187500.02, -187500.02, -12202.24, -39338.78, 412.34, 0.00, 0.00, 0.00
4052.0, -28699.30, -40023.19, -20581.44, -187500.02, -187500.02, -12206.82, -39344.41, 430.25, 0.00, 0.00, 0.00
4056.0, -28717.45, -40041.67, -20599.81, -187500.02, -187500.02, -12217.11, -39352.66, 505.60, 0.00, 0.00, 0.00
4060.0, -28704.67, -40029.36, -20586.31, -187500.02, -187500.02, -12219.21, -39358.98, 511.30, 0.00, 0.00, 0.00
4064.0, -28669.84, -39991.34, -20545.86, -187500.02, -187500.02, -12191.00, -39332.09, 423.59, 0.00, 0.00, 0.00
4068.0, -28693.18, -40012.97, -20568.70, -187500.02, -187500.02, -12184.87, -39328.50, 422.76, 0.00, 0.00, 0.00
4072.0, -28719.58, -40036.42, -20591.46, -187500.02, -187500.02, -12199.94, -39345.93, 495.49, 0.00, 0.00, 0.00
4076.0, -28715.53, -40032.84, -20588.37, -187500.02, -187500.02, -12199.16, -39361.53, 516.71, 0.00, 0.00, 0.00
4080.0, -28696.53, -40018.50, -20574.85, -187500.02, -187500.02, -12200.88, -39370.50, 435.66, 0.00, 0.00, 0.00
4084.0, -28693.29, -40017.13, -20575.14, -187500.02, -187500.02, -12193.17, -39357.15, 397.37, 0.00, 0.00, 0.00
4088.0, -28712.92, -40034.59, -20593.22, -187500.02, -187500.02, -12202.93, -39352.30, 461.74, 0.00, 0.00, 0.00
4092.0, -28703.30, -40024.75, -20582.63, -187500.02, -187500.02, -12201.26, -39354.87, 499.23, 0.00, 0.00, 0.00
4096.0, -28686.65, -40008.41, -20566.85, -187500.02, -187500.02, -12196.21, -39356.64, 439.95, 0.00, 0.00, 0.00
4100.0, -28693.87, -40014.16, -20573.97, -187500.02, -187500.02, -12196.65, -39350.71, 389.99, 0.00, 0.00, 0.00
4104.0, -28728.63, -40047.44, -20607.73, -187500.02, -187500.02, -12216.99, -39370.14, 445.60, 0.00, 0.00, 0.00
4108.0, -28720.94, -40041.63, -20601.65, -187500.02, -187500.02, -12219.61, -39377.65, 489.93, 0.00, 0.00, 0.00
4112.0, -28691.48, -40010.25, -20571.09, -187500.02, -187500.02, -12195.20, -39362.67, 427.10, 0.00, 0.00, 0.00
4116.0, -28693.69, -40011.10, -20573.35, -187500.02, -187500.02, -12185.52, -39352.01, 361.27, 0.00, 0.00, 0.00
4120.0, -28714.41, -40036.76, -20599.50, -187500.02, -187500.02, -12192.88, -39358.49, 401.95, 0.00, 0.00, 0.00
4124.0, -28719.69, -40048.45, -20612.49, -187500.02, -187500.02, -12201.24, -39373.85, 469.01, 0.00, 0.00, 0.00
4128.0, -28703.26, -40029.16, -20593.13, -187500.02, -187500.02, -12191.24, -39381.43, 439.01, 0.00, 0.00, 0.00
4132.0, -28699.55, -40018.61, -20583.65, -187500.02, -187500.02, -12177.16, -39374.30, 365.88, 0.00, 0.00, 0.00
4136.0, -28718.84, -40037.65, -20603.90, -187500.02, -187500.02, -12186.37, -39371.30, 392.61, 0.00, 0.00, 0.00
4140.0, -28738.13, -40058.28, -20623.02, -187500.02, -187500.02, -12208.61, -39386.48, 475.38, 0.00, 0.00, 0.00
4144.0, -28715.22, -40035.64, -20597.89, -187500.02, -187500.02, -12208.43, -39381.29, 464.67, 0.00, 0.00, 0.00
4148.0, -28689.78, -40009.02, -20571.96, -187500.02, -187500.02, -12173.30, -39361.00, 381.07, 0.00, 0.00, 0.00
4152.0, -28718.21, -40036.24, -20601.96, -187500.02, -187500.02, -12177.25, -39369.29, 392.41, 0.00, 0.00, 0.00
4156.0, -28743.87, -40062.46, -20627.55, -187500.02, -187500.02, -12210.11, -39394.52, 472.40, 0.00, 0.00, 0.00
4160.0, -28717.10, -40037.81, -20599.34, -187500.02, -187500.02, -12210.85, -39385.98, 472.67, 0.00, 0.00, 0.00
4164.0, -28691.64, -40011.01, -20572.77, -187500.02, -187500.02, -12187.09, -39368.48, 389.66, 0.00, 0.00, 0.00
4168.0, -28710.05, -40029.43, -20592.93, -187500.02, -187500.02, -12189.30, -39368.71, 379.33, 0.00, 0.00, 0.00
4172.0, -28723.94, -40041.34, -20603.66, -187500.02, -187500.02, -12198.04, -39368.39, 447.77, 0.00, 0.00, 0.00
4176.0, -28713.94, -40035.75, -20595.03, -187500.02, -187500.02, -12194.78, -39375.93, 477.41, 0.00, 0.00, 0.00
4180.0, -28699.13, -40021.00, -20581.66, -187500.02, -187500.02, -12188.67, -39372.66, 409.73, 0.00, 0.00, 0.00
4184.0, -28718.73, -40038.99, -20601.85, -187500.02, -187500.02, -12190.55, -39371.37, 379.82, 0.00, 0.00, 0.00
4188.0, -28746.62, -40069.12, -20633.97, -187500.02, -187500.02, -12217.33, -39388.36, 446.77, 0.00, 0.00, 0.00
4192.0, -28734.15, -40058.95, -20623.44, -187500.02, -187500.02, -12220.68, -39388.91, 486.31, 0.00, 0.00, 0.00
4196.0, -28704.60, -40030.12, -20594.99, -187500.02, -187500.02, -12207.56, -39384.15, 422.58, 0.00, 0.00, 0.00
4200.0, -28703.95, -40027.59, -20593.13, -187500.02, -187500.02, -12196.70, -39376.31, 366.66, 0.00, 0.00, 0.00
4204.0, -28734.33, -40055.35, -20620.76, -187500.02, -187500.02, -12214.94, -39383.64, 418.83, 0.00, 0.00, 0.00
4208.0, -28742.42, -40063.27, -20628.33, -187500.02, -187500.02, -12231.79, -39398.46, 475.82, 0.00, 0.00, 0.00
4212.0, -28721.50, -40040.78, -20604.93, -187500.02, -187500.02, -12217.15, -39399.35, 428.57, 0.00, 0.00, 0.00
4216.0, -28714.70, -40035.23, -20600.19, -187500.02, -187500.02, -12194.64, -39384.46, 364.31, 0.00, 0.00, 0.00
4220.0, -28738.98, -40065.88, -20631.55, -187500.02, -187500.02, -12212.08, -39392.60, 414.04, 0.00, 0.00, 0.00
4224.0, -28734.66, -40062.62, -20631.13, -187500.02, -187500.02, -12227.66, -39396.82, 483.94, 0.00, 0.00, 0.00
4228.0, -28695.97, -40023.23, -20594.81, -187500.02, -187500.02, -12211.14, -39385.07, 450.43, 0.00, 0.00, 0.00
4232.0, -28694.43, -40022.32, -20595.19, -187500.02, -187500.02, -12194.53, -39380.00, 382.91, 0.00, 0.00, 0.00
4236.0, -28732.70, -40058.84, -20631.71, -187500.02, -187500.02, -12215.85, -39395.20, 414.98, 0.00, 0.00, 0.00
4240.0, -28741.35, -40069.05, -20640.36, -187500.02, -187500.02, -12226.63, -39404.07, 488.77, 0.00, 0.00, 0.00
4244.0, -28708.47, -40036.27, -20605.89, -187500.02, -187500.02, -12210.22, -39397.14, 473.70, 0.00, 0.00, 0.00
4248.0, -28692.08, -40012.68, -20582.85, -187500.02, -187500.02, -12183.51, -39383.10, 398.00, 0.00, 0.00, 0.00
4252.0, -28716.67, -40034.05, -20605.22, -187500.02, -187500.02, -12195.38, -39385.79, 412.26, 0.00, 0.00, 0.00
4256.0, -28717.45, -40034.34, -20602.99, -187500.02, -187500.02, -12199.94, -39382.45, 484.27, 0.00, 0.00, 0.00
4260.0, -28701.45, -40016.33, -20584.82, -187500.02, -187500.02, -12180.16, -39376.26, 498.02, 0.00, 0.00, 0.00
4264.0, -28699.01, -40014.29, -20583.01, -187500.02, -187500.02, -12183.02, -39379.79, 429.98, 0.00, 0.00, 0.00
4268.0, -28705.43, -40023.95, -20592.57, -187500.02, -187500.02, -12182.91, -39371.28, 403.85, 0.00, 0.00, 0.00
4272.0, -28715.46, -40034.81, -20602.23, -187500.02, -187500.02, -12183.35, -39366.27, 475.18, 0.00, 0.00, 0.00
4276.0, -28717.14, -40035.86, -20603.48, -187500.02, -187500.02, -12203.99, -39385.76, 517.60, 0.00, 0.00, 0.00
4280.0, -28685.76, -40003.56, -20572.86, -187500.02, -187500.02, -12183.87, -39376.78, 439.90, 0.00, 0.00, 0.00
4284.0, -28709.18, -40023.17, -20595.32, -187500.02, -187500.02, -12175.53, -39378.56, 410.22, 0.00, 0.00, 0.00
