%OpenBCI Raw EEG Data
%
%Sample Rate = 250.0 Hz
%First Column = Time (ms)
%Other Columns = EEG data in microvolts followed by Accel Data (in G) interleaved with Aux Data
0.0, 2489.56, 2606.86, -3717.14, 16496.73, 315.23, -4042.67, 16370.89, 39504.36, 0.00, 0.00, 0.00
4.0, 2484.42, 2614.24, -3707.46, 16431.50, 321.26, -4031.18, 16363.29, 39695.71, 0.00, 0.00, 0.00
8.0, 2524.14, 2643.27, -3668.30, 16412.08, 354.52, -3993.41, 16324.17, 39432.86, 0.00, 0.00, 0.00
12.0, 2522.73, 2628.61, -3689.58, 16486.91, 336.48, -4015.09, 16341.11, 39265.78, 0.00, 0.00, 0.00
16.0, 2478.61, 2596.33, -3731.24, 16486.49, 300.16, -4053.91, 16350.48, 39454.98, 0.00, 0.00, 0.00
20.0, 2475.25, 2603.73, -3723.38, 16428.40, 303.27, -4042.67, 16360.67, 39690.68, 0.00, 0.00, 0.00
24.0, 2510.08, 2631.94, -3684.53, 16392.23, 332.73, -4002.59, 16330.25, 39486.95, 0.00, 0.00, 0.00
28.0, 2516.36, 2628.07, -3690.52, 16465.43, 326.65, -4012.81, 16336.31, 39255.32, 0.00, 0.00, 0.00
32.0, 2478.34, 2592.13, -3731.47, 16485.21, 286.21, -4053.80, 16349.79, 39398.41, 0.00, 0.00, 0.00
36.0, 2471.41, 2589.65, -3734.26, 16431.95, 283.62, -4054.23, 16360.72, 39673.07, 0.00, 0.00, 0.00
40.0, 2515.15, 2620.14, -3697.00, 16385.48, 321.89, -4014.78, 16322.61, 39544.66, 0.00, 0.00, 0.00
44.0, 2501.85, 2627.54, -3686.16, 16443.78, 336.26, -4011.74, 16323.72, 39264.66, 0.00, 0.00, 0.00
48.0, 2472.28, 2595.37, -3722.59, 16484.84, 305.08, -4049.80, 16342.75, 39350.07, 0.00, 0.00, 0.00
52.0, 2461.55, 2588.11, -3732.12, 16447.15, 295.40, -4055.14, 16352.78, 39631.81, 0.00, 0.00, 0.00
56.0, 2486.34, 2615.11, -3697.43, 16390.60, 325.51, -4017.26, 16326.83, 39603.67, 0.00, 0.00, 0.00
60.0, 2514.82, 2629.53, -3679.45, 16439.10, 340.35, -4006.21, 16313.38, 39304.11, 0.00, 0.00, 0.00
64.0, 2491.97, 2602.99, -3713.38, 16494.42, 308.77, -4043.12, 16328.02, 39319.71, 0.00, 0.00, 0.00
68.0, 2463.97, 2590.41, -3732.00, 16463.91, 291.06, -4057.69, 16348.87, 39582.95, 0.00, 0.00, 0.00
72.0, 2485.58, 2618.98, -3696.35, 16409.26, 323.54, -4022.46, 16331.50, 39618.64, 0.00, 0.00, 0.00
76.0, 2529.50, 2649.49, -3660.46, 16442.03, 360.33, -3989.03, 16314.54, 39301.61, 0.00, 0.00, 0.00
80.0, 2501.52, 2621.03, -3695.97, 16509.47, 329.08, -4025.48, 16339.10, 39255.03, 0.00, 0.00, 0.00
84.0, 2473.53, 2595.44, -3726.73, 16488.23, 299.65, -4055.25, 16349.34, 39524.70, 0.00, 0.00, 0.00
88.0, 2487.26, 2614.28, -3704.44, 16427.57, 319.76, -4030.18, 16337.40, 39650.00, 0.00, 0.00, 0.00
92.0, 2528.12, 2644.17, -3666.60, 16437.03, 356.02, -3995.46, 16314.96, 39345.19, 0.00, 0.00, 0.00
96.0, 2525.50, 2625.75, -3690.54, 16518.50, 339.14, -4023.29, 16334.18, 39230.57, 0.00, 0.00, 0.00
100.0, 2505.03, 2602.99, -3727.20, 16517.74, 311.58, -4053.53, 16351.73, 39450.83, 0.00, 0.00, 0.00
104.0, 2462.78, 2607.06, -3720.31, 16447.93, 313.24, -4046.02, 16345.74, 39653.58, 0.00, 0.00, 0.00
108.0, 2503.48, 2639.38, -3675.50, 16428.67, 348.49, -4005.97, 16314.38, 39406.44, 0.00, 0.00, 0.00
112.0, 2510.86, 2624.85, -3693.02, 16504.71, 336.42, -4026.22, 16331.12, 39226.62, 0.00, 0.00, 0.00
116.0, 2476.77, 2596.36, -3728.96, 16509.31, 304.32, -4061.76, 16336.84, 39401.90, 0.00, 0.00, 0.00
120.0, 2466.74, 2603.11, -3725.77, 16448.83, 305.28, -4052.97, 16343.06, 39640.28, 0.00, 0.00, 0.00
124.0, 2507.60, 2635.05, -3684.26, 16414.16, 341.11, -4010.17, 16319.63, 39465.27, 0.00, 0.00, 0.00
128.0, 2517.57, 2636.88, -3687.34, 16480.30, 339.99, -4014.84, 16329.56, 39225.43, 0.00, 0.00, 0.00
132.0, 2480.24, 2605.07, -3723.89, 16509.62, 304.18, -4052.62, 16349.09, 39368.37, 0.00, 0.00, 0.00
136.0, 2466.78, 2605.50, -3723.85, 16461.93, 302.87, -4046.69, 16357.92, 39629.60, 0.00, 0.00, 0.00
140.0, 2503.71, 2640.84, -3680.68, 16419.43, 342.32, -4001.81, 16326.18, 39516.83, 0.00, 0.00, 0.00
144.0, 2523.11, 2643.27, -3674.05, 16472.25, 350.23, -4000.72, 16313.44, 39240.09, 0.00, 0.00, 0.00
148.0, 2491.28, 2610.86, -3714.10, 16514.88, 315.63, -4042.02, 16341.49, 39321.10, 0.00, 0.00, 0.00
152.0, 2474.14, 2604.72, -3724.52, 16472.77, 306.80, -4049.38, 16350.01, 39586.75, 0.00, 0.00, 0.00
156.0, 2518.77, 2637.15, -3688.71, 16415.97, 338.05, -4008.99, 16334.07, 39560.24, 0.00, 0.00, 0.00
160.0, 2512.63, 2648.70, -3670.07, 16454.21, 354.61, -3995.17, 16328.69, 39260.46, 0.00, 0.00, 0.00
164.0, 2483.88, 2617.52, -3703.48, 16514.50, 324.14, -4033.46, 16342.46, 39268.19, 0.00, 0.00, 0.00
168.0, 2463.21, 2595.89, -3731.62, 16481.37, 296.90, -4059.86, 16354.12, 39544.28, 0.00, 0.00, 0.00
172.0, 2481.29, 2616.83, -3703.75, 16420.17, 321.15, -4030.11, 16330.63, 39621.06, 0.00, 0.00, 0.00
176.0, 2527.45, 2646.74, -3667.50, 16443.57, 355.30, -3998.21, 16313.33, 39285.47, 0.00, 0.00, 0.00
180.0, 2502.46, 2619.78, -3702.66, 16515.73, 325.33, -4033.95, 16341.85, 39232.36, 0.00, 0.00, 0.00
184.0, 2464.99, 2594.50, -3734.75, 16492.14, 294.33, -4062.25, 16358.19, 39505.34, 0.00, 0.00, 0.00
188.0, 2473.60, 2607.40, -3715.66, 16428.49, 308.48, -4041.28, 16339.82, 39660.06, 0.00, 0.00, 0.00
192.0, 2522.26, 2639.11, -3672.48, 16433.70, 350.23, -3999.42, 16304.28, 39365.62, 0.00, 0.00, 0.00
196.0, 2525.79, 2632.97, -3683.08, 16513.40, 343.03, -4013.34, 16330.25, 39209.79, 0.00, 0.00, 0.00
200.0, 2477.62, 2601.43, -3723.02, 16510.43, 303.63, -4051.88, 16357.21, 39440.61, 0.00, 0.00, 0.00
204.0, 2475.88, 2604.74, -3717.21, 16443.91, 304.86, -4042.34, 16347.91, 39665.02, 0.00, 0.00, 0.00
208.0, 2535.09, 2632.95, -3678.94, 16426.41, 337.82, -4002.30, 16317.35, 39422.35, 0.00, 0.00, 0.00
212.0, 2506.44, 2622.89, -3688.35, 16500.37, 330.11, -4016.23, 16334.34, 39224.52, 0.00, 0.00, 0.00
216.0, 2466.29, 2591.48, -3724.72, 16519.12, 292.03, -4054.18, 16349.88, 39409.66, 0.00, 0.00, 0.00
220.0, 2462.94, 2592.94, -3723.29, 16458.93, 292.49, -4048.73, 16350.75, 39667.93, 0.00, 0.00, 0.00
224.0, 2507.46, 2632.25, -3671.63, 16421.80, 340.62, -3995.87, 16319.03, 39485.07, 0.00, 0.00, 0.00
228.0, 2526.28, 2638.82, -3664.84, 16493.73, 352.11, -3992.54, 16332.11, 39217.27, 0.00, 0.00, 0.00
232.0, 2494.30, 2606.12, -3704.40, 16524.42, 318.96, -4034.91, 16349.03, 39337.39, 0.00, 0.00, 0.00
236.0, 2475.08, 2602.64, -3713.32, 16473.77, 311.99, -4039.09, 16355.80, 39611.67, 0.00, 0.00, 0.00
240.0, 2491.68, 2623.67, -3684.77, 16418.52, 337.04, -4008.38, 16326.41, 39538.47, 0.00, 0.00, 0.00
244.0, 2515.33, 2631.00, -3673.02, 16471.25, 347.52, -4001.01, 16322.34, 39243.31, 0.00, 0.00, 0.00
248.0, 2489.11, 2597.18, -3712.36, 16517.56, 309.37, -4042.83, 16342.59, 39312.00, 0.00, 0.00, 0.00
252.0, 2461.02, 2587.13, -3728.72, 16472.14, 293.84, -4054.58, 16353.65, 39591.38, 0.00, 0.00, 0.00
256.0, 2492.89, 2620.56, -3689.31, 16418.00, 327.30, -4011.89, 16334.61, 39582.19, 0.00, 0.00, 0.00
260.0, 2540.32, 2640.86, -3666.31, 16463.65, 348.78, -3990.52, 16328.22, 39257.20, 0.00, 0.00, 0.00
264.0, 2510.30, 2605.61, -3712.62, 16521.89, 308.54, -4036.77, 16342.90, 39256.52, 0.00, 0.00, 0.00
268.0, 2441.77, 2583.82, -3735.38, 16486.27, 285.68, -4059.52, 16352.27, 39546.47, 0.00, 0.00, 0.00
272.0, 2471.03, 2607.98, -3702.12, 16423.26, 310.82, -4025.82, 16339.15, 39631.72, 0.00, 0.00, 0.00
276.0, 2509.59, 2629.10, -3675.81, 16441.36, 335.28, -4002.84, 16317.85, 39319.11, 0.00, 0.00, 0.00
280.0, 2496.24, 2605.23, -3706.88, 16509.91, 310.47, -4036.90, 16341.81, 39244.77, 0.00, 0.00, 0.00
284.0, 2463.23, 2584.67, -3735.78, 16496.75, 285.10, -4063.66, 16352.04, 39486.68, 0.00, 0.00, 0.00
288.0, 2474.85, 2602.17, -3712.33, 16439.51, 305.88, -4038.76, 16342.39, 39648.95, 0.00, 0.00, 0.00
292.0, 2510.79, 2632.19, -3676.28, 16437.85, 340.95, -4003.18, 16317.64, 39361.44, 0.00, 0.00, 0.00
296.0, 2510.64, 2620.94, -3690.81, 16519.41, 332.77, -4022.91, 16333.49, 39194.36, 0.00, 0.00, 0.00
300.0, 2475.19, 2592.85, -3727.11, 16517.42, 301.97, -4058.99, 16353.18, 39399.15, 0.00, 0.00, 0.00
304.0, 2459.90, 2590.63, -3730.39, 16448.96, 297.12, -4059.01, 16349.38, 39642.47, 0.00, 0.00, 0.00
308.0, 2501.96, 2623.11, -3686.20, 16421.98, 335.25, -4015.85, 16305.87, 39418.13, 0.00, 0.00, 0.00
312.0, 2510.53, 2618.57, -3691.44, 16497.44, 330.29, -4025.24, 16318.02, 39206.25, 0.00, 0.00, 0.00
316.0, 2474.92, 2585.90, -3727.87, 16517.25, 292.74, -4060.57, 16334.74, 39368.37, 0.00, 0.00, 0.00
320.0, 2463.34, 2587.06, -3727.18, 16461.68, 290.48, -4055.50, 16340.67, 39627.59, 0.00, 0.00, 0.00
324.0, 2515.64, 2623.22, -3685.27, 16420.28, 326.38, -4010.06, 16312.17, 39480.98, 0.00, 0.00, 0.00
328.0, 2508.02, 2630.98, -3679.37, 16478.73, 333.24, -4009.17, 16317.87, 39204.02, 0.00, 0.00, 0.00
332.0, 2463.39, 2593.94, -3717.59, 16510.63, 298.49, -4055.41, 16331.99, 39315.62, 0.00, 0.00, 0.00
336.0, 2459.72, 2589.83, -3724.96, 16465.30, 290.46, -4057.94, 16337.58, 39589.81, 0.00, 0.00, 0.00
340.0, 2486.83, 2620.29, -3685.78, 16414.09, 325.33, -4017.21, 16313.60, 39532.25, 0.00, 0.00, 0.00
344.0, 2510.37, 2630.91, -3671.45, 16462.19, 340.75, -4005.41, 16307.07, 39232.68, 0.00, 0.00, 0.00
348.0, 2487.84, 2600.16, -3706.57, 16511.03, 309.50, -4042.78, 16328.91, 39271.79, 0.00, 0.00, 0.00
352.0, 2454.82, 2582.99, -3730.22, 16475.20, 286.71, -4063.41, 16339.21, 39560.53, 0.00, 0.00, 0.00
356.0, 2473.80, 2609.39, -3696.13, 16408.59, 311.83, -4024.68, 16320.48, 39586.19, 0.00, 0.00, 0.00
360.0, 2507.49, 2625.08, -3670.13, 16440.29, 330.52, -4003.18, 16308.66, 39268.88, 0.00, 0.00, 0.00
364.0, 2485.20, 2594.41, -3705.23, 16501.15, 299.16, -4042.16, 16329.92, 39239.20, 0.00, 0.00, 0.00
368.0, 2453.73, 2580.33, -3730.77, 16482.58, 279.35, -4065.27, 16346.48, 39499.58, 0.00, 0.00, 0.00
372.0, 2465.46, 2601.09, -3705.14, 16421.42, 301.73, -4036.61, 16325.71, 39600.34, 0.00, 0.00, 0.00
376.0, 2497.52, 2620.70, -3678.83, 16431.88, 322.56, -4013.08, 16298.31, 39291.91, 0.00, 0.00, 0.00
380.0, 2477.56, 2590.84, -3713.43, 16498.47, 291.78, -4052.93, 16306.78, 39207.71, 0.00, 0.00, 0.00
384.0, 2437.79, 2556.79, -3752.84, 16478.35, 254.92, -4092.36, 16314.45, 39453.24, 0.00, 0.00, 0.00
388.0, 2446.73, 2571.59, -3738.75, 16411.10, 269.07, -4074.99, 16296.83, 39636.46, 0.00, 0.00, 0.00
392.0, 2508.58, 2609.81, -3695.57, 16406.87, 310.98, -4030.89, 16264.83, 39345.21, 0.00, 0.00, 0.00
396.0, 2474.03, 2590.03, -3711.08, 16486.04, 295.89, -4052.24, 16290.64, 39161.42, 0.00, 0.00, 0.00
400.0, 2432.96, 2549.64, -3753.46, 16488.12, 257.67, -4095.64, 16299.12, 39376.75, 0.00, 0.00, 0.00
404.0, 2427.04, 2557.24, -3751.83, 16424.58, 258.05, -4090.50, 16290.35, 39608.43, 0.00, 0.00, 0.00
408.0, 2464.12, 2591.82, -3712.49, 16393.86, 292.65, -4051.07, 16256.96, 39400.45, 0.00, 0.00, 0.00
412.0, 2478.05, 2589.96, -3715.49, 16463.15, 291.85, -4057.78, 16262.48, 39157.42, 0.00, 0.00, 0.00
416.0, 2448.95, 2562.67, -3748.77, 16491.74, 261.27, -4092.58, 16280.34, 39289.14, 0.00, 0.00, 0.00
420.0, 2428.32, 2554.33, -3759.00, 16436.04, 249.85, -4101.12, 16286.69, 39564.78, 0.00, 0.00, 0.00
424.0, 2455.16, 2578.77, -3725.32, 16380.45, 280.18, -4067.06, 16247.91, 39435.94, 0.00, 0.00, 0.00
428.0, 2470.52, 2578.68, -3725.88, 16445.54, 286.35, -4070.95, 16246.95, 39150.38, 0.00, 0.00, 0.00
432.0, 2421.88, 2532.47, -3781.40, 16475.83, 237.91, -4127.90, 16254.46, 39266.96, 0.00, 0.00, 0.00
436.0, 2398.21, 2527.22, -3792.58, 16425.31, 225.44, -4135.99, 16254.03, 39547.59, 0.00, 0.00, 0.00
440.0, 2428.58, 2561.93, -3753.62, 16368.70, 258.12, -4095.09, 16223.01, 39494.88, 0.00, 0.00, 0.00
444.0, 2459.00, 2579.73, -3732.00, 16413.73, 282.57, -4078.05, 16208.72, 39175.66, 0.00, 0.00, 0.00
448.0, 2434.13, 2552.32, -3767.48, 16469.97, 252.33, -4115.22, 16231.70, 39191.17, 0.00, 0.00, 0.00
452.0, 2406.93, 2529.86, -3797.38, 16427.77, 223.54, -4142.83, 16232.26, 39475.04, 0.00, 0.00, 0.00
456.0, 2441.73, 2550.62, -3770.11, 16361.57, 247.52, -4111.20, 16201.17, 39514.39, 0.00, 0.00, 0.00
460.0, 2445.64, 2579.37, -3736.18, 16390.24, 286.53, -4082.64, 16186.82, 39188.15, 0.00, 0.00, 0.00
464.0, 2422.91, 2550.98, -3771.16, 16461.90, 261.05, -4123.61, 16207.27, 39152.32, 0.00, 0.00, 0.00
468.0, 2391.14, 2518.17, -3804.87, 16435.77, 226.56, -4155.88, 16208.90, 39418.37, 0.00, 0.00, 0.00
472.0, 2402.83, 2537.79, -3779.30, 16371.20, 247.01, -4127.18, 16194.73, 39539.07, 0.00, 0.00, 0.00
476.0, 2441.84, 2571.84, -3740.83, 16382.89, 283.11, -4089.83, 16181.90, 39257.29, 0.00, 0.00, 0.00
480.0, 2434.28, 2551.85, -3763.27, 16455.00, 264.02, -4116.50, 16193.46, 39149.46, 0.00, 0.00, 0.00
484.0, 2403.89, 2526.28, -3791.88, 16453.10, 236.70, -4142.81, 16208.30, 39367.97, 0.00, 0.00, 0.00
488.0, 2401.31, 2531.51, -3778.81, 16390.69, 241.40, -4125.28, 16210.29, 39567.14, 0.00, 0.00, 0.00
492.0, 2449.93, 2572.26, -3729.63, 16378.08, 283.06, -4078.68, 16189.90, 39302.86, 0.00, 0.00, 0.00
496.0, 2443.78, 2559.97, -3746.40, 16451.82, 268.02, -4098.84, 16209.17, 39131.67, 0.00, 0.00, 0.00
500.0, 2412.78, 2528.36, -3781.29, 16462.53, 237.51, -4131.14, 16226.36, 39319.69, 0.00, 0.00, 0.00
504.0, 2408.80, 2533.41, -3777.80, 16407.68, 241.04, -4121.57, 16231.75, 39553.96, 0.00, 0.00, 0.00
508.0, 2455.03, 2567.63, -3733.50, 16379.20, 279.04, -4076.73, 16200.39, 39353.46, 0.00, 0.00, 0.00
512.0, 2468.73, 2567.97, -3732.47, 16455.96, 281.36, -4081.43, 16218.67, 39114.23, 0.00, 0.00, 0.00
516.0, 2440.92, 2536.34, -3766.69, 16485.39, 250.23, -4117.95, 16233.42, 39247.72, 0.00, 0.00, 0.00
520.0, 2439.22, 2524.25, -3781.56, 16428.20, 233.60, -4127.56, 16241.92, 39535.38, 0.00, 0.00, 0.00
524.0, 2452.72, 2558.29, -3741.50, 16377.08, 267.98, -4082.10, 16214.49, 39428.66, 0.00, 0.00, 0.00
528.0, 2460.99, 2572.24, -3722.39, 16441.56, 285.28, -4071.73, 16220.06, 39147.31, 0.00, 0.00, 0.00
532.0, 2431.06, 2534.89, -3765.26, 16481.62, 242.43, -4116.79, 16240.89, 39242.06, 0.00, 0.00, 0.00
536.0, 2409.61, 2524.38, -3779.95, 16433.45, 228.93, -4127.56, 16247.37, 39531.76, 0.00, 0.00, 0.00
540.0, 2444.50, 2558.00, -3737.95, 16378.87, 263.84, -4082.68, 16229.24, 39510.20, 0.00, 0.00, 0.00
544.0, 2477.20, 2573.16, -3715.73, 16428.51, 284.67, -4066.07, 16219.52, 39191.70, 0.00, 0.00, 0.00
548.0, 2453.53, 2543.27, -3749.10, 16490.13, 255.99, -4102.42, 16238.68, 39195.88, 0.00, 0.00, 0.00
552.0, 2424.14, 2526.40, -3770.85, 16459.06, 235.50, -4120.68, 16260.98, 39476.27, 0.00, 0.00, 0.00
556.0, 2436.74, 2542.58, -3746.22, 16393.26, 257.36, -4094.44, 16238.39, 39550.18, 0.00, 0.00, 0.00
560.0, 2476.75, 2569.51, -3713.21, 16417.42, 287.71, -4064.02, 16222.22, 39242.89, 0.00, 0.00, 0.00
564.0, 2461.73, 2553.20, -3738.75, 16485.28, 267.46, -4089.88, 16256.78, 39185.45, 0.00, 0.00, 0.00
568.0, 2428.58, 2532.77, -3764.68, 16461.19, 243.88, -4112.70, 16273.92, 39442.18, 0.00, 0.00, 0.00
572.0, 2440.79, 2553.40, -3739.54, 16399.21, 265.61, -4084.76, 16259.75, 39579.82, 0.00, 0.00, 0.00
576.0, 2477.94, 2579.66, -3704.33, 16405.04, 300.05, -4050.00, 16233.13, 39286.50, 0.00, 0.00, 0.00
580.0, 2469.42, 2565.69, -3724.49, 16479.02, 282.48, -4074.14, 16259.80, 39158.64, 0.00, 0.00, 0.00
584.0, 2439.40, 2539.05, -3758.31, 16476.10, 247.70, -4106.35, 16276.18, 39376.66, 0.00, 0.00, 0.00
588.0, 2452.72, 2543.16, -3752.75, 16413.98, 248.80, -4094.37, 16268.43, 39577.54, 0.00, 0.00, 0.00
592.0, 2457.69, 2571.79, -3711.22, 16391.41, 280.92, -4057.53, 16236.60, 39336.75, 0.00, 0.00, 0.00
596.0, 2471.63, 2570.20, -3716.13, 16474.51, 279.13, -4065.11, 16261.52, 39140.09, 0.00, 0.00, 0.00
600.0, 2438.82, 2545.17, -3752.90, 16493.60, 249.20, -4096.90, 16286.84, 39319.98, 0.00, 0.00, 0.00
604.0, 2428.65, 2547.92, -3750.87, 16438.23, 252.04, -4092.25, 16287.78, 39580.78, 0.00, 0.00, 0.00
608.0, 2468.77, 2582.57, -3706.21, 16396.77, 291.40, -4047.83, 16252.53, 39403.64, 0.00, 0.00, 0.00
612.0, 2487.15, 2586.90, -3700.64, 16466.55, 298.02, -4046.47, 16256.45, 39136.52, 0.00, 0.00, 0.00
616.0, 2451.65, 2556.70, -3737.79, 16501.67, 266.39, -4086.03, 16281.46, 39253.86, 0.00, 0.00, 0.00
620.0, 2432.34, 2548.19, -3747.78, 16447.06, 254.43, -4094.75, 16288.79, 39541.75, 0.00, 0.00, 0.00
624.0, 2465.82, 2574.16, -3707.57, 16397.66, 284.87, -4055.14, 16259.26, 39461.82, 0.00, 0.00, 0.00
628.0, 2488.89, 2586.14, -3693.22, 16458.64, 302.89, -4044.59, 16255.06, 39158.22, 0.00, 0.00, 0.00
632.0, 2461.58, 2558.47, -3731.09, 16514.12, 271.69, -4085.61, 16275.33, 39220.14, 0.00, 0.00, 0.00
636.0, 2435.18, 2539.94, -3749.97, 16466.35, 249.96, -4100.79, 16285.15, 39521.57, 0.00, 0.00, 0.00
640.0, 2464.37, 2570.07, -3710.28, 16400.46, 283.29, -4058.34, 16262.99, 39513.93, 0.00, 0.00, 0.00
644.0, 2490.34, 2582.10, -3693.98, 16434.25, 302.26, -4045.04, 16250.90, 39197.56, 0.00, 0.00, 0.00
648.0, 2465.78, 2549.28, -3728.41, 16492.61, 271.66, -4082.12, 16271.94, 39189.47, 0.00, 0.00, 0.00
652.0, 2438.44, 2528.00, -3750.49, 16468.74, 245.96, -4103.20, 16282.04, 39460.04, 0.00, 0.00, 0.00
656.0, 2459.59, 2543.52, -3727.22, 16404.93, 263.93, -4079.84, 16255.66, 39544.19, 0.00, 0.00, 0.00
660.0, 2515.91, 2565.78, -3700.02, 16423.08, 290.42, -4052.82, 16236.04, 39218.41, 0.00, 0.00, 0.00
664.0, 2459.76, 2537.33, -3733.28, 16495.05, 261.52, -4087.98, 16253.85, 39144.54, 0.00, 0.00, 0.00
668.0, 2421.72, 2515.64, -3759.38, 16481.30, 238.45, -4116.72, 16267.58, 39398.19, 0.00, 0.00, 0.00
672.0, 2438.31, 2534.15, -3741.84, 16408.82, 252.71, -4095.38, 16260.07, 39561.76, 0.00, 0.00, 0.00
676.0, 2476.69, 2563.28, -3705.85, 16401.13, 286.15, -4057.87, 16231.81, 39276.93, 0.00, 0.00, 0.00
680.0, 2468.08, 2546.36, -3726.77, 16482.80, 269.70, -4081.03, 16247.59, 39126.86, 0.00, 0.00, 0.00
684.0, 2437.79, 2521.19, -3758.94, 16492.44, 239.30, -4111.27, 16271.87, 39329.50, 0.00, 0.00, 0.00
688.0, 2432.65, 2530.53, -3749.37, 16429.74, 243.59, -4096.92, 16274.71, 39550.25, 0.00, 0.00, 0.00
692.0, 2465.24, 2557.13, -3714.01, 16397.93, 271.28, -4061.62, 16238.74, 39336.81, 0.00, 0.00, 0.00
696.0, 2476.77, 2554.02, -3716.58, 16466.53, 270.99, -4069.11, 16246.12, 39108.46, 0.00, 0.00, 0.00
700.0, 2437.46, 2516.23, -3760.61, 16481.24, 232.75, -4113.12, 16262.10, 39273.15, 0.00, 0.00, 0.00
704.0, 2423.80, 2516.49, -3761.71, 16419.12, 230.42, -4111.96, 16263.08, 39537.06, 0.00, 0.00, 0.00
708.0, 2464.97, 2553.53, -3714.06, 16384.23, 272.09, -4063.88, 16231.19, 39370.14, 0.00, 0.00, 0.00
712.0, 2481.87, 2553.78, -3713.61, 16451.69, 275.78, -4066.36, 16233.31, 39092.06, 0.00, 0.00, 0.00
716.0, 2450.60, 2526.51, -3749.04, 16485.84, 244.22, -4102.84, 16257.72, 39193.69, 0.00, 0.00, 0.00
720.0, 2427.33, 2519.44, -3762.42, 16441.59, 229.62, -4112.48, 16275.15, 39487.35, 0.00, 0.00, 0.00
724.0, 2457.64, 2545.33, -3726.62, 16378.60, 260.15, -4077.54, 16244.11, 39429.46, 0.00, 0.00, 0.00
728.0, 2489.11, 2562.72, -3706.79, 16434.41, 282.48, -4062.36, 16236.82, 39103.06, 0.00, 0.00, 0.00
732.0, 2459.56, 2521.70, -3751.34, 16487.94, 245.27, -4109.37, 16249.38, 39158.06, 0.00, 0.00, 0.00
736.0, 2429.21, 2507.22, -3774.32, 16449.59, 226.67, -4127.74, 16255.84, 39452.08, 0.00, 0.00, 0.00
740.0, 2449.04, 2538.82, -3739.58, 16389.04, 259.30, -4090.23, 16232.40, 39472.60, 0.00, 0.00, 0.00
744.0, 2483.77, 2563.34, -3708.85, 16421.33, 286.91, -4063.44, 16229.02, 39157.80, 0.00, 0.00, 0.00
748.0, 2464.86, 2537.12, -3739.85, 16489.08, 263.75, -4099.44, 16247.19, 39133.97, 0.00, 0.00, 0.00
752.0, 2429.30, 2518.33, -3768.15, 16467.49, 238.54, -4125.80, 16253.76, 39405.92, 0.00, 0.00, 0.00
756.0, 2446.04, 2541.93, -3740.03, 16403.59, 257.81, -4096.27, 16237.94, 39516.56, 0.00, 0.00, 0.00
760.0, 2504.22, 2577.25, -3700.35, 16419.50, 297.35, -4058.83, 16223.05, 39203.24, 0.00, 0.00, 0.00
764.0, 2497.45, 2563.52, -3722.28, 16496.93, 281.83, -4080.71, 16253.96, 39099.77, 0.00, 0.00, 0.00
768.0, 2425.54, 2536.10, -3753.93, 16484.50, 253.16, -4115.54, 16266.77, 39351.05, 0.00, 0.00, 0.00
772.0, 2427.96, 2545.01, -3743.29, 16409.71, 259.28, -4100.79, 16254.59, 39533.28, 0.00, 0.00, 0.00
776.0, 2471.59, 2568.24, -3711.78, 16395.63, 283.44, -4066.92, 16222.58, 39264.61, 0.00, 0.00, 0.00
780.0, 2480.55, 2556.84, -3722.62, 16473.53, 274.32, -4082.46, 16240.24, 39084.06, 0.00, 0.00, 0.00
784.0, 2441.97, 2529.28, -3755.81, 16481.24, 242.76, -4116.07, 16262.15, 39289.25, 0.00, 0.00, 0.00
788.0, 2435.13, 2532.45, -3747.85, 16422.45, 245.27, -4104.74, 16259.98, 39529.91, 0.00, 0.00, 0.00
792.0, 2479.66, 2567.41, -3703.39, 16390.40, 282.10, -4059.68, 16222.74, 39314.59, 0.00, 0.00, 0.00
796.0, 2487.70, 2567.95, -3708.15, 16463.58, 280.85, -4068.64, 16235.88, 39075.34, 0.00, 0.00, 0.00
800.0, 2453.04, 2533.21, -3747.54, 16489.13, 244.37, -4106.53, 16251.68, 39220.11, 0.00, 0.00, 0.00
804.0, 2434.95, 2527.47, -3752.66, 16429.04, 240.19, -4105.39, 16260.18, 39501.07, 0.00, 0.00, 0.00
808.0, 2469.76, 2560.37, -3707.77, 16382.93, 280.94, -4059.68, 16230.47, 39372.39, 0.00, 0.00, 0.00
812.0, 2483.70, 2563.05, -3706.68, 16443.87, 284.45, -4061.67, 16233.47, 39089.94, 0.00, 0.00, 0.00
816.0, 2444.92, 2525.39, -3750.06, 16480.68, 241.82, -4107.47, 16254.81, 39186.77, 0.00, 0.00, 0.00
820.0, 2418.86, 2517.07, -3763.68, 16430.90, 229.35, -4117.66, 16256.13, 39477.43, 0.00, 0.00, 0.00
824.0, 2448.21, 2548.75, -3725.01, 16376.65, 262.39, -4076.42, 16232.33, 39429.88, 0.00, 0.00, 0.00
828.0, 2476.30, 2557.04, -3711.60, 16428.20, 275.91, -4066.74, 16227.86, 39115.62, 0.00, 0.00, 0.00
832.0, 2446.87, 2523.42, -3754.51, 16484.21, 238.74, -4111.40, 16247.55, 39158.60, 0.00, 0.00, 0.00
836.0, 2414.75, 2508.29, -3775.95, 16448.16, 216.01, -4128.19, 16252.29, 39444.70, 0.00, 0.00, 0.00
840.0, 2435.80, 2532.07, -3742.44, 16384.48, 242.96, -4091.87, 16230.05, 39482.75, 0.00, 0.00, 0.00
844.0, 2473.00, 2551.76, -3713.72, 16413.78, 268.91, -4067.50, 16212.50, 39160.10, 0.00, 0.00, 0.00
848.0, 2468.30, 2525.14, -3747.96, 16482.15, 239.21, -4105.50, 16232.26, 39122.91, 0.00, 0.00, 0.00
852.0, 2433.19, 2502.70, -3781.16, 16453.81, 210.02, -4132.37, 16243.68, 39380.93, 0.00, 0.00, 0.00
856.0, 2419.49, 2524.88, -3748.75, 16385.91, 234.63, -4101.92, 16234.99, 39506.59, 0.00, 0.00, 0.00
860.0, 2463.59, 2556.21, -3710.81, 16392.99, 268.87, -4066.72, 16211.38, 39205.99, 0.00, 0.00, 0.00
864.0, 2458.42, 2537.88, -3735.38, 16466.28, 251.14, -4095.53, 16232.15, 39092.11, 0.00, 0.00, 0.00
868.0, 2424.29, 2514.95, -3767.03, 16459.00, 226.18, -4124.28, 16247.64, 39326.29, 0.00, 0.00, 0.00
872.0, 2428.23, 2532.03, -3751.25, 16401.24, 242.05, -4103.22, 16243.19, 39520.36, 0.00, 0.00, 0.00
876.0, 2470.18, 2573.62, -3700.31, 16393.78, 288.27, -4054.65, 16220.24, 39252.52, 0.00, 0.00, 0.00
880.0, 2469.06, 2559.68, -3716.09, 16472.63, 276.78, -4075.21, 16237.54, 39080.55, 0.00, 0.00, 0.00
884.0, 2430.37, 2525.99, -3755.16, 16478.91, 240.97, -4114.71, 16252.69, 39277.11, 0.00, 0.00, 0.00
888.0, 2420.11, 2530.31, -3753.24, 16409.38, 243.34, -4108.97, 16249.52, 39522.67, 0.00, 0.00, 0.00
892.0, 2463.81, 2567.95, -3706.90, 16376.05, 283.33, -4063.26, 16213.51, 39317.95, 0.00, 0.00, 0.00
896.0, 2468.55, 2564.30, -3712.65, 16446.53, 279.71, -4071.30, 16222.45, 39074.56, 0.00, 0.00, 0.00
900.0, 2436.63, 2531.80, -3750.69, 16476.54, 243.12, -4110.55, 16246.14, 39226.42, 0.00, 0.00, 0.00
904.0, 2419.15, 2532.43, -3752.54, 16427.77, 241.64, -4111.33, 16257.94, 39508.85, 0.00, 0.00, 0.00
908.0, 2453.57, 2566.49, -3711.53, 16378.02, 280.38, -4068.11, 16228.10, 39399.55, 0.00, 0.00, 0.00
912.0, 2479.59, 2577.02, -3698.97, 16440.85, 294.06, -4058.34, 16232.60, 39099.41, 0.00, 0.00, 0.00
916.0, 2451.52, 2546.33, -3733.99, 16491.25, 261.00, -4092.36, 16262.19, 39172.35, 0.00, 0.00, 0.00
920.0, 2426.84, 2536.61, -3748.99, 16442.10, 242.40, -4102.77, 16272.70, 39470.23, 0.00, 0.00, 0.00
924.0, 2456.01, 2571.37, -3707.51, 16384.01, 278.46, -4060.37, 16240.67, 39440.79, 0.00, 0.00, 0.00
928.0, 2489.54, 2590.16, -3686.12, 16434.10, 303.09, -4043.70, 16229.22, 39120.00, 0.00, 0.00, 0.00
932.0, 2457.10, 2552.10, -3731.13, 16488.86, 261.20, -4091.02, 16256.04, 39138.95, 0.00, 0.00, 0.00
936.0, 2415.82, 2522.10, -3764.46, 16441.67, 229.19, -4122.69, 16262.95, 39438.11, 0.00, 0.00, 0.00
940.0, 2442.35, 2558.38, -3723.73, 16381.24, 268.51, -4082.55, 16236.08, 39490.37, 0.00, 0.00, 0.00
944.0, 2480.86, 2580.15, -3693.98, 16412.13, 297.19, -4056.57, 16221.76, 39167.47, 0.00, 0.00, 0.00
948.0, 2461.69, 2555.34, -3723.98, 16487.21, 274.43, -4088.94, 16233.24, 39113.32, 0.00, 0.00, 0.00
952.0, 2433.97, 2534.08, -3751.16, 16474.13, 248.42, -4117.08, 16243.26, 39344.61, 0.00, 0.00, 0.00
956.0, 2451.05, 2543.58, -3733.03, 16408.91, 261.56, -4099.71, 16229.53, 39489.41, 0.00, 0.00, 0.00
960.0, 2509.72, 2571.93, -3700.35, 16409.85, 292.85, -4067.97, 16196.21, 39185.80, 0.00, 0.00, 0.00
964.0, 2465.20, 2548.50, -3727.20, 16482.76, 265.81, -4095.00, 16228.04, 39065.39, 0.00, 0.00, 0.00
968.0, 2416.58, 2520.34, -3757.64, 16474.04, 238.47, -4125.89, 16244.64, 39307.51, 0.00, 0.00, 0.00
972.0, 2424.69, 2531.65, -3745.66, 16412.57, 248.48, -4109.66, 16241.20, 39519.74, 0.00, 0.00, 0.00
976.0, 2464.30, 2562.83, -3706.28, 16393.95, 282.97, -4069.38, 16208.63, 39274.16, 0.00, 0.00, 0.00
980.0, 2470.23, 2554.13, -3715.51, 16463.22, 274.95, -4083.71, 16222.02, 39072.77, 0.00, 0.00, 0.00
984.0, 2435.87, 2526.26, -3752.43, 16473.79, 242.70, -4117.57, 16244.89, 39239.98, 0.00, 0.00, 0.00
988.0, 2419.60, 2525.86, -3757.57, 16415.61, 238.34, -4116.34, 16248.47, 39500.96, 0.00, 0.00, 0.00
992.0, 2461.73, 2561.82, -3709.67, 16385.42, 281.14, -4067.66, 16214.25, 39322.75, 0.00, 0.00, 0.00
996.0, 2480.02, 2569.49, -3701.47, 16458.64, 289.08, -4062.65, 16226.27, 39058.78, 0.00, 0.00, 0.00
1000.0, 2439.20, 2528.38, -3749.19, 16482.27, 242.81, -4111.07, 16244.26, 39200.27, 0.00, 0.00, 0.00
1004.0, 2424.40, 2523.29, -3753.68, 16425.04, 235.10, -4112.81, 16252.09, 39489.92, 0.00, 0.00, 0.00
1008.0, 2457.66, 2556.64, -3709.47, 16382.84, 272.00, -4066.88, 16223.01, 39388.94, 0.00, 0.00, 0.00
1012.0, 2478.45, 2565.26, -3698.12, 16437.67, 283.11, -4059.55, 16217.02, 39089.98, 0.00, 0.00, 0.00
1016.0, 2458.71, 2538.80, -3725.45, 16486.78, 256.46, -4090.06, 16241.89, 39145.14, 0.00, 0.00, 0.00
1020.0, 2426.13, 2524.99, -3748.88, 16450.17, 235.72, -4107.42, 16257.90, 39447.09, 0.00, 0.00, 0.00
1024.0, 2448.72, 2554.85, -3712.49, 16382.46, 265.27, -4069.81, 16225.82, 39450.31, 0.00, 0.00, 0.00
1028.0, 2486.14, 2581.63, -3681.04, 16430.01, 295.11, -4041.66, 16221.29, 39109.36, 0.00, 0.00, 0.00
1032.0, 2457.66, 2550.13, -3723.11, 16482.53, 260.67, -4083.84, 16247.55, 39119.08, 0.00, 0.00, 0.00
1036.0, 2425.03, 2534.60, -3747.54, 16448.16, 240.66, -4106.04, 16256.98, 39401.23, 0.00, 0.00, 0.00
1040.0, 2438.22, 2549.66, -3722.53, 16381.71, 258.92, -4080.22, 16236.22, 39490.93, 0.00, 0.00, 0.00
1044.0, 2475.34, 2569.76, -3692.64, 16403.12, 287.18, -4051.54, 16208.10, 39174.67, 0.00, 0.00, 0.00
1048.0, 2468.33, 2544.16, -3724.78, 16475.98, 262.28, -4086.08, 16224.37, 39109.34, 0.00, 0.00, 0.00
1052.0, 2445.15, 2523.27, -3757.15, 16458.79, 235.52, -4112.70, 16241.63, 39362.20, 0.00, 0.00, 0.00
1056.0, 2431.87, 2554.78, -3719.06, 16400.86, 266.57, -4076.24, 16240.75, 39512.72, 0.00, 0.00, 0.00
1060.0, 2469.58, 2586.19, -3678.81, 16405.67, 301.75, -4040.39, 16219.97, 39230.73, 0.00, 0.00, 0.00
1064.0, 2468.66, 2568.35, -3698.57, 16480.32, 286.93, -4063.35, 16244.98, 39088.53, 0.00, 0.00, 0.00
1068.0, 2434.51, 2543.18, -3730.89, 16481.59, 255.66, -4093.41, 16260.63, 39303.21, 0.00, 0.00, 0.00
1072.0, 2434.75, 2556.50, -3718.41, 16427.48, 266.72, -4075.80, 16257.47, 39519.87, 0.00, 0.00, 0.00
1076.0, 2483.50, 2594.93, -3668.99, 16409.60, 309.59, -4026.73, 16237.00, 39272.21, 0.00, 0.00, 0.00
1080.0, 2491.01, 2587.97, -3678.29, 16488.75, 303.78, -4039.81, 16254.01, 39052.07, 0.00, 0.00, 0.00
1084.0, 2451.52, 2553.42, -3720.02, 16500.10, 268.00, -4082.12, 16269.03, 39220.49, 0.00, 0.00, 0.00
1088.0, 2434.64, 2549.31, -3726.17, 16441.36, 261.27, -4083.86, 16269.68, 39485.16, 0.00, 0.00, 0.00
1092.0, 2466.02, 2575.05, -3691.93, 16394.04, 290.91, -4047.36, 16233.27, 39327.18, 0.00, 0.00, 0.00
1096.0, 2475.46, 2573.92, -3692.89, 16461.68, 291.18, -4050.96, 16238.21, 39067.92, 0.00, 0.00, 0.00
1100.0, 2435.09, 2537.71, -3735.58, 16497.78, 253.80, -4092.29, 16249.47, 39184.08, 0.00, 0.00, 0.00
1104.0, 2411.95, 2530.64, -3747.25, 16450.41, 242.94, -4100.76, 16262.41, 39466.21, 0.00, 0.00, 0.00
1108.0, 2439.80, 2554.85, -3714.12, 16393.46, 270.41, -4066.65, 16233.96, 39413.72, 0.00, 0.00, 0.00
1112.0, 2470.11, 2570.81, -3694.65, 16443.44, 291.85, -4049.60, 16227.83, 39095.79, 0.00, 0.00, 0.00
1116.0, 2442.71, 2542.35, -3731.31, 16495.56, 260.35, -4087.11, 16253.85, 39149.82, 0.00, 0.00, 0.00
1120.0, 2413.07, 2525.37, -3754.80, 16457.23, 241.80, -4108.38, 16262.30, 39439.47, 0.00, 0.00, 0.00
1124.0, 2436.85, 2551.43, -3720.78, 16398.80, 269.81, -4074.99, 16227.34, 39442.09, 0.00, 0.00, 0.00
1128.0, 2465.08, 2569.96, -3697.18, 16431.62, 291.89, -4053.58, 16209.42, 39126.37, 0.00, 0.00, 0.00
1132.0, 2448.03, 2543.65, -3726.06, 16495.54, 266.97, -4085.68, 16232.93, 39106.05, 0.00, 0.00, 0.00
1136.0, 2406.75, 2514.88, -3758.98, 16459.18, 232.97, -4115.85, 16247.64, 39387.44, 0.00, 0.00, 0.00
1140.0, 2421.52, 2536.01, -3733.23, 16390.69, 251.79, -4085.12, 16237.13, 39489.45, 0.00, 0.00, 0.00
1144.0, 2461.13, 2560.64, -3699.73, 16406.83, 281.39, -4052.42, 16213.08, 39172.48, 0.00, 0.00, 0.00
1148.0, 2450.73, 2539.52, -3722.50, 16482.53, 262.05, -4080.56, 16226.14, 39079.54, 0.00, 0.00, 0.00
1152.0, 2423.89, 2512.76, -3755.70, 16472.54, 233.13, -4113.03, 16241.65, 39322.28, 0.00, 0.00, 0.00
1156.0, 2440.41, 2525.77, -3742.71, 16404.91, 244.15, -4092.29, 16239.75, 39504.74, 0.00, 0.00, 0.00
1160.0, 2454.49, 2565.44, -3691.23, 16399.12, 287.40, -4046.00, 16214.98, 39207.95, 0.00, 0.00, 0.00
1164.0, 2453.33, 2555.39, -3703.86, 16478.96, 276.56, -4063.14, 16235.93, 39040.18, 0.00, 0.00, 0.00
1168.0, 2421.27, 2521.46, -3744.07, 16477.17, 237.84, -4100.29, 16252.31, 39253.13, 0.00, 0.00, 0.00
1172.0, 2415.17, 2527.24, -3737.30, 16420.66, 242.70, -4089.16, 16251.80, 39485.83, 0.00, 0.00, 0.00
1176.0, 2454.98, 2561.82, -3695.50, 16391.74, 278.32, -4046.87, 16225.78, 39264.14, 0.00, 0.00, 0.00
1180.0, 2462.13, 2554.27, -3703.84, 16461.84, 270.95, -4061.16, 16239.57, 39049.75, 0.00, 0.00, 0.00
1184.0, 2421.66, 2517.72, -3746.87, 16471.98, 231.32, -4105.21, 16246.28, 39214.93, 0.00, 0.00, 0.00
1188.0, 2410.43, 2525.59, -3744.43, 16419.28, 235.45, -4098.28, 16255.84, 39470.25, 0.00, 0.00, 0.00
1192.0, 2442.87, 2558.78, -3703.21, 16372.41, 273.34, -4053.58, 16232.48, 39335.05, 0.00, 0.00, 0.00
1196.0, 2462.67, 2565.73, -3698.90, 16432.20, 283.62, -4051.61, 16236.20, 39061.28, 0.00, 0.00, 0.00
1200.0, 2426.82, 2532.01, -3742.04, 16472.12, 247.95, -4097.16, 16251.98, 39166.69, 0.00, 0.00, 0.00
1204.0, 2402.39, 2528.74, -3754.40, 16426.47, 239.68, -4104.79, 16258.57, 39446.04, 0.00, 0.00, 0.00
1208.0, 2433.05, 2560.01, -3713.61, 16377.32, 273.92, -4063.64, 16234.38, 39390.25, 0.00, 0.00, 0.00
1212.0, 2460.95, 2577.27, -3693.51, 16431.68, 296.45, -4047.90, 16225.11, 39069.82, 0.00, 0.00, 0.00
1216.0, 2435.36, 2545.24, -3731.06, 16488.39, 263.26, -4088.33, 16245.76, 39104.42, 0.00, 0.00, 0.00
1220.0, 2406.30, 2527.11, -3753.80, 16453.32, 243.99, -4109.68, 16248.67, 39387.15, 0.00, 0.00, 0.00
1224.0, 2422.35, 2546.42, -3725.68, 16385.26, 268.04, -4081.00, 16217.06, 39437.21, 0.00, 0.00, 0.00
1228.0, 2459.32, 2565.47, -3699.24, 16412.75, 292.67, -4059.72, 16193.37, 39105.65, 0.00, 0.00, 0.00
1232.0, 2437.39, 2535.54, -3734.42, 16478.44, 262.16, -4097.50, 16216.23, 39063.32, 0.00, 0.00, 0.00
1236.0, 2403.51, 2513.05, -3760.23, 16457.68, 237.22, -4122.15, 16231.32, 39331.78, 0.00, 0.00, 0.00
1240.0, 2413.23, 2528.59, -3736.99, 16390.78, 255.06, -4095.33, 16217.42, 39464.48, 0.00, 0.00, 0.00
1244.0, 2465.46, 2558.02, -3696.73, 16398.76, 291.00, -4058.74, 16195.27, 39150.64, 0.00, 0.00, 0.00
1248.0, 2466.72, 2536.43, -3722.93, 16464.27, 269.87, -4082.86, 16214.89, 39045.30, 0.00, 0.00, 0.00
1252.0, 2397.76, 2513.05, -3750.00, 16455.87, 244.22, -4110.98, 16234.65, 39269.98, 0.00, 0.00, 0.00
1256.0, 2406.21, 2528.68, -3728.43, 16400.57, 260.58, -4088.36, 16231.86, 39460.68, 0.00, 0.00, 0.00
1260.0, 2452.21, 2559.41, -3690.47, 16392.50, 292.76, -4047.92, 16205.26, 39193.98, 0.00, 0.00, 0.00
1264.0, 2446.91, 2545.75, -3711.15, 16467.71, 275.78, -4070.99, 16221.55, 39027.11, 0.00, 0.00, 0.00
1268.0, 2404.85, 2513.36, -3752.48, 16472.34, 238.11, -4108.81, 16239.35, 39238.80, 0.00, 0.00, 0.00
1272.0, 2390.76, 2513.79, -3750.33, 16405.73, 239.30, -4103.13, 16234.63, 39492.69, 0.00, 0.00, 0.00
1276.0, 2436.59, 2551.07, -3703.15, 16374.44, 279.42, -4058.23, 16200.25, 39283.66, 0.00, 0.00, 0.00
1280.0, 2444.86, 2546.87, -3707.37, 16444.02, 274.61, -4066.61, 16213.02, 39048.90, 0.00, 0.00, 0.00
1284.0, 2410.81, 2517.23, -3745.77, 16472.54, 240.48, -4104.58, 16233.94, 39190.00, 0.00, 0.00, 0.00
1288.0, 2388.69, 2511.71, -3755.43, 16419.72, 234.47, -4109.95, 16233.24, 39468.87, 0.00, 0.00, 0.00
1292.0, 2433.32, 2554.67, -3703.93, 16377.26, 279.89, -4056.75, 16205.89, 39322.35, 0.00, 0.00, 0.00
1296.0, 2447.56, 2555.32, -3705.38, 16439.42, 278.23, -4062.07, 16214.76, 39046.77, 0.00, 0.00, 0.00
1300.0, 2412.27, 2519.89, -3746.38, 16479.47, 242.43, -4104.70, 16233.38, 39140.88, 0.00, 0.00, 0.00
1304.0, 2388.48, 2513.36, -3757.53, 16434.43, 235.43, -4110.11, 16240.35, 39427.40, 0.00, 0.00, 0.00
1308.0, 2423.20, 2550.20, -3712.98, 16378.15, 275.08, -4063.01, 16215.36, 39385.02, 0.00, 0.00, 0.00
1312.0, 2455.96, 2564.19, -3695.06, 16425.60, 293.86, -4050.90, 16207.09, 39067.07, 0.00, 0.00, 0.00
1316.0, 2429.79, 2533.03, -3731.42, 16480.50, 261.76, -4090.61, 16230.76, 39087.57, 0.00, 0.00, 0.00
1320.0, 2402.88, 2518.28, -3751.78, 16452.47, 242.23, -4107.49, 16248.58, 39374.16, 0.00, 0.00, 0.00
1324.0, 2423.71, 2545.80, -3717.18, 16390.18, 268.76, -4071.64, 16228.37, 39428.41, 0.00, 0.00, 0.00
1328.0, 2460.61, 2562.47, -3693.76, 16412.24, 291.00, -4051.12, 16209.48, 39107.68, 0.00, 0.00, 0.00
1332.0, 2453.91, 2529.30, -3735.04, 16474.24, 255.15, -4093.45, 16221.17, 39054.40, 0.00, 0.00, 0.00
1336.0, 2385.85, 2508.78, -3761.11, 16447.38, 229.35, -4119.45, 16231.68, 39308.63, 0.00, 0.00, 0.00
1340.0, 2394.41, 2528.23, -3735.07, 16386.78, 251.28, -4091.38, 16226.83, 39455.10, 0.00, 0.00, 0.00
1344.0, 2439.31, 2555.90, -3699.73, 16393.30, 283.51, -4057.29, 16202.42, 39156.10, 0.00, 0.00, 0.00
1348.0, 2429.14, 2534.60, -3724.23, 16464.27, 262.63, -4085.16, 16221.06, 39036.61, 0.00, 0.00, 0.00
1352.0, 2391.12, 2504.02, -3758.40, 16456.61, 229.98, -4119.20, 16234.88, 39254.85, 0.00, 0.00, 0.00
1356.0, 2389.85, 2515.20, -3743.36, 16395.85, 242.02, -4101.37, 16229.13, 39456.46, 0.00, 0.00, 0.00
1360.0, 2438.73, 2553.31, -3694.92, 16386.35, 284.83, -4055.12, 16201.59, 39200.49, 0.00, 0.00, 0.00
1364.0, 2434.48, 2537.48, -3715.40, 16456.99, 271.98, -4081.16, 16215.50, 39024.45, 0.00, 0.00, 0.00
1368.0, 2399.77, 2510.75, -3752.23, 16468.34, 241.58, -4116.61, 16233.47, 39201.07, 0.00, 0.00, 0.00
1372.0, 2393.76, 2517.61, -3750.38, 16412.68, 239.12, -4107.83, 16241.34, 39459.14, 0.00, 0.00, 0.00
1376.0, 2434.64, 2555.52, -3701.54, 16380.34, 276.33, -4060.02, 16210.00, 39271.75, 0.00, 0.00, 0.00
1380.0, 2446.91, 2556.88, -3698.99, 16452.94, 276.96, -4060.10, 16226.49, 39016.09, 0.00, 0.00, 0.00
1384.0, 2413.45, 2527.85, -3737.81, 16481.24, 242.99, -4097.34, 16245.09, 39144.00, 0.00, 0.00, 0.00
1388.0, 2394.34, 2520.14, -3748.48, 16436.31, 232.53, -4104.03, 16255.33, 39445.31, 0.00, 0.00, 0.00
1392.0, 2422.01, 2544.25, -3713.09, 16383.52, 259.35, -4065.65, 16227.46, 39367.52, 0.00, 0.00, 0.00
1396.0, 2455.07, 2561.80, -3694.43, 16444.31, 279.17, -4050.18, 16228.28, 39059.80, 0.00, 0.00, 0.00
1400.0, 2444.10, 2523.29, -3737.32, 16481.46, 239.74, -4094.48, 16235.32, 39120.83, 0.00, 0.00, 0.00
1404.0, 2395.26, 2507.02, -3755.61, 16431.30, 217.08, -4111.18, 16246.77, 39402.53, 0.00, 0.00, 0.00
1408.0, 2403.06, 2533.01, -3718.44, 16374.26, 246.50, -4077.56, 16220.68, 39396.96, 0.00, 0.00, 0.00
1412.0, 2448.03, 2547.09, -3696.53, 16417.45, 270.17, -4060.24, 16207.99, 39071.50, 0.00, 0.00, 0.00
1416.0, 2426.39, 2514.17, -3734.40, 16473.37, 238.63, -4099.31, 16224.53, 39065.06, 0.00, 0.00, 0.00
1420.0, 2391.06, 2492.04, -3764.61, 16442.23, 209.44, -4126.18, 16234.43, 39350.16, 0.00, 0.00, 0.00
1424.0, 2411.86, 2518.33, -3733.55, 16385.30, 237.24, -4092.27, 16217.49, 39426.02, 0.00, 0.00, 0.00
1428.0, 2448.45, 2542.67, -3702.45, 16408.66, 268.62, -4062.36, 16202.20, 39096.93, 0.00, 0.00, 0.00
1432.0, 2438.15, 2518.86, -3730.51, 16478.26, 245.85, -4095.93, 16223.12, 39020.20, 0.00, 0.00, 0.00
1436.0, 2397.63, 2489.00, -3769.09, 16453.83, 212.54, -4132.10, 16230.07, 39277.13, 0.00, 0.00, 0.00
1440.0, 2400.55, 2503.08, -3752.05, 16388.70, 227.88, -4108.72, 16211.36, 39432.79, 0.00, 0.00, 0.00
1444.0, 2435.22, 2534.06, -3711.84, 16389.93, 263.06, -4070.34, 16192.14, 39144.95, 0.00, 0.00, 0.00
1448.0, 2429.34, 2521.59, -3732.20, 16467.87, 246.74, -4094.59, 16217.51, 39014.16, 0.00, 0.00, 0.00
1452.0, 2391.73, 2494.68, -3769.11, 16465.93, 214.20, -4129.51, 16233.49, 39238.38, 0.00, 0.00, 0.00
1456.0, 2389.69, 2502.79, -3756.90, 16407.14, 223.74, -4114.02, 16231.14, 39459.39, 0.00, 0.00, 0.00
1460.0, 2428.27, 2537.33, -3715.13, 16388.05, 258.01, -4070.10, 16200.95, 39225.77, 0.00, 0.00, 0.00
1464.0, 2432.45, 2531.31, -3724.40, 16454.50, 251.48, -4083.19, 16210.09, 39019.11, 0.00, 0.00, 0.00
1468.0, 2397.22, 2503.73, -3759.12, 16468.07, 222.18, -4119.34, 16223.48, 39179.16, 0.00, 0.00, 0.00
1472.0, 2390.12, 2515.67, -3751.92, 16425.89, 229.75, -4107.56, 16235.39, 39432.57, 0.00, 0.00, 0.00
1476.0, 2424.56, 2549.24, -3707.73, 16393.06, 269.14, -4063.12, 16209.24, 39271.43, 0.00, 0.00, 0.00
1480.0, 2442.33, 2548.52, -3704.71, 16459.94, 275.80, -4065.72, 16211.09, 39016.33, 0.00, 0.00, 0.00
1484.0, 2409.29, 2516.23, -3743.96, 16493.24, 241.80, -4105.03, 16230.58, 39137.93, 0.00, 0.00, 0.00
1488.0, 2390.41, 2518.95, -3748.66, 16445.43, 237.38, -4106.10, 16241.65, 39411.69, 0.00, 0.00, 0.00
1492.0, 2426.59, 2548.32, -3713.27, 16400.59, 269.09, -4070.16, 16211.36, 39332.00, 0.00, 0.00, 0.00
1496.0, 2464.86, 2551.56, -3710.88, 16448.22, 276.09, -4067.32, 16204.10, 39037.68, 0.00, 0.00, 0.00
1500.0, 2400.93, 2520.74, -3749.39, 16492.86, 245.04, -4105.70, 16225.82, 39091.32, 0.00, 0.00, 0.00
1504.0, 2370.25, 2509.18, -3764.46, 16448.76, 230.25, -4120.90, 16243.08, 39378.54, 0.00, 0.00, 0.00
1508.0, 2411.82, 2538.62, -3728.05, 16388.32, 259.30, -4083.48, 16219.79, 39381.27, 0.00, 0.00, 0.00
1512.0, 2448.21, 2563.59, -3697.00, 16429.13, 283.89, -4057.42, 16205.10, 39048.65, 0.00, 0.00, 0.00
1516.0, 2420.31, 2529.73, -3733.08, 16494.89, 247.34, -4096.38, 16224.44, 39043.89, 0.00, 0.00, 0.00
1520.0, 2387.41, 2508.27, -3758.47, 16463.09, 221.64, -4117.66, 16238.41, 39319.13, 0.00, 0.00, 0.00
1524.0, 2399.50, 2530.75, -3727.47, 16397.55, 247.12, -4083.60, 16224.62, 39412.52, 0.00, 0.00, 0.00
1528.0, 2440.90, 2559.25, -3692.93, 16414.85, 279.78, -4051.83, 16203.32, 39091.14, 0.00, 0.00, 0.00
1532.0, 2428.32, 2538.89, -3718.75, 16486.56, 260.67, -4079.15, 16225.85, 39004.87, 0.00, 0.00, 0.00
1536.0, 2391.82, 2513.25, -3750.56, 16470.20, 231.07, -4108.45, 16238.34, 39254.63, 0.00, 0.00, 0.00
1540.0, 2393.51, 2524.56, -3736.12, 16402.25, 240.71, -4091.71, 16230.20, 39425.26, 0.00, 0.00, 0.00
1544.0, 2434.89, 2554.78, -3697.92, 16403.12, 275.17, -4055.32, 16204.63, 39147.69, 0.00, 0.00, 0.00
1548.0, 2426.19, 2531.25, -3722.26, 16474.76, 253.83, -4083.48, 16209.37, 39007.88, 0.00, 0.00, 0.00
1552.0, 2389.54, 2501.36, -3754.47, 16474.53, 218.71, -4116.86, 16220.30, 39219.58, 0.00, 0.00, 0.00
1556.0, 2383.52, 2510.30, -3742.93, 16418.90, 225.22, -4104.54, 16224.42, 39452.44, 0.00, 0.00, 0.00
1560.0, 2433.30, 2545.17, -3692.98, 16401.22, 267.10, -4057.71, 16193.75, 39221.81, 0.00, 0.00, 0.00
1564.0, 2443.00, 2535.34, -3700.58, 16479.54, 260.08, -4071.64, 16209.08, 38999.90, 0.00, 0.00, 0.00
1568.0, 2412.16, 2500.47, -3739.25, 16492.48, 224.77, -4110.91, 16221.17, 39154.09, 0.00, 0.00, 0.00
1572.0, 2420.27, 2497.05, -3746.76, 16440.20, 219.83, -4112.41, 16221.58, 39412.34, 0.00, 0.00, 0.00
1576.0, 2419.89, 2528.00, -3710.68, 16392.08, 253.49, -4073.27, 16183.06, 39263.39, 0.00, 0.00, 0.00
1580.0, 2428.90, 2537.48, -3699.88, 16459.02, 266.61, -4069.98, 16193.23, 38994.83, 0.00, 0.00, 0.00
1584.0, 2395.48, 2505.81, -3742.02, 16492.59, 230.74, -4111.56, 16212.26, 39100.69, 0.00, 0.00, 0.00
1588.0, 2374.45, 2496.56, -3757.15, 16441.36, 221.62, -4119.56, 16220.28, 39390.07, 0.00, 0.00, 0.00
1592.0, 2415.26, 2532.14, -3713.61, 16388.79, 261.60, -4073.09, 16203.25, 39332.07, 0.00, 0.00, 0.00
1596.0, 2440.05, 2546.38, -3696.69, 16440.91, 279.26, -4059.99, 16201.30, 39018.75, 0.00, 0.00, 0.00
1600.0, 2409.21, 2516.00, -3735.42, 16492.86, 243.99, -4101.63, 16219.61, 39058.69, 0.00, 0.00, 0.00
1604.0, 2380.26, 2495.30, -3760.48, 16450.32, 217.77, -4126.06, 16228.80, 39338.13, 0.00, 0.00, 0.00
1608.0, 2397.81, 2509.52, -3739.65, 16377.01, 233.73, -4103.24, 16203.38, 39366.29, 0.00, 0.00, 0.00
1612.0, 2429.46, 2529.97, -3714.66, 16405.91, 261.65, -4078.81, 16190.31, 39041.97, 0.00, 0.00, 0.00
1616.0, 2398.68, 2515.55, -3740.39, 16478.51, 249.27, -4104.32, 16220.06, 39020.49, 0.00, 0.00, 0.00
1620.0, 2372.73, 2503.46, -3762.80, 16454.24, 231.81, -4125.22, 16236.13, 39295.91, 0.00, 0.00, 0.00
1624.0, 2382.11, 2524.05, -3741.15, 16387.02, 248.80, -4099.00, 16221.84, 39412.74, 0.00, 0.00, 0.00
1628.0, 2415.15, 2550.38, -3709.07, 16399.43, 278.35, -4067.82, 16203.47, 39114.52, 0.00, 0.00, 0.00
1632.0, 2403.77, 2531.11, -3732.76, 16471.69, 260.58, -4093.86, 16224.35, 39018.79, 0.00, 0.00, 0.00
1636.0, 2371.10, 2510.15, -3758.47, 16460.81, 238.74, -4116.10, 16245.54, 39242.98, 0.00, 0.00, 0.00
1640.0, 2393.31, 2521.46, -3741.41, 16405.29, 252.98, -4094.53, 16241.54, 39426.44, 0.00, 0.00, 0.00
1644.0, 2432.38, 2556.59, -3698.97, 16400.12, 288.94, -4050.47, 16215.77, 39148.52, 0.00, 0.00, 0.00
1648.0, 2397.36, 2547.70, -3707.08, 16479.47, 284.16, -4068.89, 16236.17, 38986.02, 0.00, 0.00, 0.00
1652.0, 2365.86, 2518.46, -3745.28, 16480.83, 252.15, -4108.38, 16250.25, 39189.56, 0.00, 0.00, 0.00
1656.0, 2358.96, 2527.09, -3742.06, 16413.60, 258.52, -4101.17, 16248.62, 39433.97, 0.00, 0.00, 0.00
1660.0, 2392.62, 2555.79, -3703.66, 16378.31, 292.27, -4061.47, 16210.51, 39226.53, 0.00, 0.00, 0.00
1664.0, 2401.18, 2549.08, -3711.62, 16442.86, 285.86, -4071.12, 16219.23, 38988.66, 0.00, 0.00, 0.00
1668.0, 2368.19, 2518.24, -3751.87, 16464.70, 250.74, -4110.44, 16238.52, 39130.30, 0.00, 0.00, 0.00
1672.0, 2356.68, 2525.97, -3751.18, 16418.36, 253.71, -4104.25, 16248.40, 39389.20, 0.00, 0.00, 0.00
1676.0, 2387.93, 2558.36, -3711.13, 16377.14, 287.96, -4061.67, 16218.54, 39272.24, 0.00, 0.00, 0.00
1680.0, 2408.78, 2563.70, -3702.48, 16436.60, 294.37, -4057.98, 16227.41, 39002.99, 0.00, 0.00, 0.00
1684.0, 2378.87, 2531.74, -3740.61, 16475.94, 259.08, -4098.21, 16253.18, 39110.95, 0.00, 0.00, 0.00
1688.0, 2362.33, 2520.07, -3750.96, 16432.78, 247.75, -4106.75, 16259.64, 39393.34, 0.00, 0.00, 0.00
1692.0, 2396.38, 2551.99, -3710.10, 16383.38, 283.06, -4063.93, 16234.92, 39336.23, 0.00, 0.00, 0.00
1696.0, 2425.19, 2573.94, -3691.82, 16441.34, 307.07, -4047.39, 16237.94, 39027.11, 0.00, 0.00, 0.00
1700.0, 2387.70, 2543.54, -3733.84, 16490.40, 272.04, -4090.75, 16258.35, 39069.29, 0.00, 0.00, 0.00
1704.0, 2359.49, 2525.75, -3752.99, 16449.41, 250.29, -4109.64, 16269.03, 39344.23, 0.00, 0.00, 0.00
1708.0, 2377.22, 2546.33, -3721.77, 16380.27, 271.44, -4078.86, 16247.55, 39390.50, 0.00, 0.00, 0.00
1712.0, 2409.94, 2568.17, -3696.33, 16405.15, 295.02, -4055.63, 16230.38, 39070.91, 0.00, 0.00, 0.00
1716.0, 2396.84, 2543.38, -3728.27, 16475.54, 270.30, -4088.27, 16251.68, 39023.17, 0.00, 0.00, 0.00
1720.0, 2355.52, 2512.54, -3763.12, 16450.64, 237.13, -4120.59, 16261.97, 39291.50, 0.00, 0.00, 0.00
1724.0, 2363.70, 2531.71, -3739.00, 16382.13, 258.30, -4091.31, 16253.16, 39425.88, 0.00, 0.00, 0.00
1728.0, 2417.74, 2568.42, -3690.30, 16388.66, 299.04, -4045.76, 16233.94, 39118.99, 0.00, 0.00, 0.00
1732.0, 2418.86, 2550.31, -3707.57, 16468.18, 281.48, -4068.44, 16259.84, 38991.61, 0.00, 0.00, 0.00
1736.0, 2404.02, 2522.57, -3744.45, 16467.49, 246.50, -4102.04, 16281.48, 39231.96, 0.00, 0.00, 0.00
1740.0, 2377.04, 2539.25, -3720.69, 16411.68, 265.94, -4074.66, 16280.21, 39426.73, 0.00, 0.00, 0.00
1744.0, 2417.79, 2579.75, -3665.78, 16409.11, 313.73, -4024.45, 16256.33, 39162.45, 0.00, 0.00, 0.00
1748.0, 2419.60, 2563.41, -3686.90, 16483.25, 296.63, -4048.46, 16269.81, 38994.52, 0.00, 0.00, 0.00
1752.0, 2376.39, 2530.71, -3727.26, 16483.76, 261.81, -4086.19, 16285.55, 39179.30, 0.00, 0.00, 0.00
1756.0, 2360.70, 2525.17, -3732.45, 16417.65, 254.99, -4087.71, 16279.20, 39429.95, 0.00, 0.00, 0.00
1760.0, 2407.39, 2555.99, -3686.16, 16380.23, 295.53, -4043.36, 16239.30, 39227.62, 0.00, 0.00, 0.00
1764.0, 2423.06, 2559.59, -3685.47, 16453.88, 301.28, -4045.24, 16258.46, 38982.54, 0.00, 0.00, 0.00
1768.0, 2398.36, 2540.68, -3716.16, 16483.03, 272.89, -4076.98, 16277.05, 39105.25, 0.00, 0.00, 0.00
1772.0, 2379.63, 2539.49, -3720.72, 16435.53, 266.50, -4078.01, 16287.25, 39384.02, 0.00, 0.00, 0.00
1776.0, 2409.92, 2570.05, -3678.18, 16391.83, 302.26, -4037.64, 16261.59, 39293.16, 0.00, 0.00, 0.00
1780.0, 2429.90, 2574.74, -3673.08, 16453.30, 310.53, -4036.37, 16257.61, 39015.82, 0.00, 0.00, 0.00
1784.0, 2403.24, 2545.33, -3708.02, 16500.57, 283.60, -4071.33, 16273.17, 39090.41, 0.00, 0.00, 0.00
1788.0, 2373.33, 2530.53, -3729.75, 16453.99, 266.08, -4089.18, 16277.88, 39377.20, 0.00, 0.00, 0.00
1792.0, 2399.79, 2564.44, -3689.80, 16398.04, 300.50, -4046.60, 16253.43, 39354.74, 0.00, 0.00, 0.00
1796.0, 2435.92, 2581.94, -3666.85, 16450.68, 319.63, -4028.16, 16248.56, 39030.17, 0.00, 0.00, 0.00
1800.0, 2411.60, 2546.96, -3706.81, 16508.73, 281.70, -4072.02, 16268.58, 39036.63, 0.00, 0.00, 0.00
1804.0, 2377.78, 2530.62, -3730.77, 16476.39, 262.57, -4092.85, 16277.84, 39304.02, 0.00, 0.00, 0.00
1808.0, 2396.69, 2552.81, -3704.04, 16411.97, 287.18, -4066.48, 16256.85, 39368.30, 0.00, 0.00, 0.00
1812.0, 2420.14, 2566.43, -3685.49, 16419.75, 304.12, -4050.16, 16234.09, 39070.29, 0.00, 0.00, 0.00
1816.0, 2402.88, 2543.36, -3714.21, 16481.66, 278.82, -4078.77, 16253.38, 39007.50, 0.00, 0.00, 0.00
1820.0, 2365.73, 2523.69, -3741.30, 16467.11, 252.91, -4102.24, 16268.02, 39257.51, 0.00, 0.00, 0.00
1824.0, 2378.96, 2545.44, -3718.82, 16407.72, 270.55, -4075.04, 16259.51, 39400.83, 0.00, 0.00, 0.00
1828.0, 2432.72, 2571.08, -3685.49, 16413.85, 298.62, -4043.45, 16235.43, 39116.02, 0.00, 0.00, 0.00
1832.0, 2417.48, 2544.84, -3714.35, 16477.95, 274.99, -4074.37, 16247.42, 38992.21, 0.00, 0.00, 0.00
1836.0, 2360.43, 2524.72, -3737.26, 16479.70, 254.05, -4100.92, 16265.43, 39206.32, 0.00, 0.00, 0.00
1840.0, 2357.82, 2531.92, -3733.97, 16421.69, 259.28, -4090.91, 16264.11, 39435.61, 0.00, 0.00, 0.00
1844.0, 2402.05, 2570.81, -3690.23, 16403.01, 303.00, -4045.82, 16227.10, 39197.61, 0.00, 0.00, 0.00
1848.0, 2404.47, 2568.17, -3696.20, 16485.48, 300.99, -4055.01, 16250.72, 38994.36, 0.00, 0.00, 0.00
1852.0, 2370.89, 2537.93, -3733.34, 16500.71, 268.85, -4092.00, 16272.38, 39180.13, 0.00, 0.00, 0.00
1856.0, 2370.69, 2548.77, -3721.72, 16447.73, 277.52, -4076.60, 16274.73, 39419.56, 0.00, 0.00, 0.00
1860.0, 2409.32, 2582.03, -3679.32, 16410.87, 312.46, -4033.98, 16248.91, 39251.79, 0.00, 0.00, 0.00
1864.0, 2421.41, 2580.80, -3680.71, 16478.98, 309.84, -4039.32, 16252.15, 38996.95, 0.00, 0.00, 0.00
1868.0, 2379.61, 2543.58, -3725.41, 16503.37, 270.41, -4083.86, 16268.14, 39125.07, 0.00, 0.00, 0.00
1872.0, 2354.15, 2532.83, -3739.20, 16446.73, 255.61, -4095.33, 16274.26, 39422.89, 0.00, 0.00, 0.00
1876.0, 2388.66, 2568.19, -3695.21, 16390.58, 293.46, -4049.33, 16243.86, 39338.78, 0.00, 0.00, 0.00
1880.0, 2412.07, 2575.28, -3684.15, 16447.73, 305.24, -4040.99, 16242.59, 39044.90, 0.00, 0.00, 0.00
1884.0, 2390.21, 2546.44, -3717.12, 16501.96, 278.70, -4076.18, 16262.32, 39093.33, 0.00, 0.00, 0.00
1888.0, 2369.58, 2540.83, -3729.41, 16475.00, 270.08, -4086.44, 16279.42, 39374.79, 0.00, 0.00, 0.00
1892.0, 2394.45, 2569.98, -3693.92, 16414.38, 301.44, -4048.79, 16260.40, 39377.56, 0.00, 0.00, 0.00
1896.0, 2426.53, 2588.00, -3669.87, 16450.73, 326.40, -4027.27, 16250.57, 39046.17, 0.00, 0.00, 0.00
1900.0, 2402.66, 2552.77, -3709.32, 16513.04, 292.43, -4068.55, 16261.70, 39044.18, 0.00, 0.00, 0.00
1904.0, 2383.57, 2527.42, -3743.85, 16478.62, 265.25, -4098.39, 16259.19, 39315.36, 0.00, 0.00, 0.00
1908.0, 2360.72, 2548.88, -3718.10, 16413.36, 284.45, -4069.14, 16251.51, 39416.36, 0.00, 0.00, 0.00
1912.0, 2396.89, 2574.09, -3682.41, 16432.38, 314.96, -4035.41, 16233.47, 39102.99, 0.00, 0.00, 0.00
1916.0, 2389.69, 2555.59, -3706.79, 16499.23, 295.78, -4063.77, 16257.36, 39029.90, 0.00, 0.00, 0.00
1920.0, 2361.10, 2535.36, -3734.26, 16483.09, 267.15, -4091.17, 16269.37, 39281.27, 0.00, 0.00, 0.00
1924.0, 2369.37, 2552.99, -3713.83, 16421.78, 282.53, -4066.52, 16261.43, 39446.56, 0.00, 0.00, 0.00
1928.0, 2417.86, 2588.06, -3670.40, 16417.98, 322.92, -4025.84, 16230.79, 39149.93, 0.00, 0.00, 0.00
1932.0, 2406.57, 2568.73, -3697.00, 16491.74, 302.89, -4055.41, 16249.34, 39008.42, 0.00, 0.00, 0.00
1936.0, 2361.48, 2539.11, -3740.01, 16487.25, 265.78, -4093.68, 16265.39, 39227.54, 0.00, 0.00, 0.00
1940.0, 2351.85, 2545.39, -3732.54, 16424.42, 270.25, -4083.02, 16257.85, 39452.57, 0.00, 0.00, 0.00
1944.0, 2397.25, 2583.77, -3681.69, 16400.12, 311.61, -4036.19, 16226.63, 39218.50, 0.00, 0.00, 0.00
1948.0, 2406.12, 2580.06, -3689.07, 16476.63, 308.63, -4046.34, 16249.36, 39000.91, 0.00, 0.00, 0.00
1952.0, 2369.66, 2545.44, -3727.87, 16490.98, 272.94, -4085.61, 16263.82, 39162.78, 0.00, 0.00, 0.00
1956.0, 2357.44, 2547.56, -3723.73, 16435.88, 273.41, -4079.57, 16264.34, 39427.65, 0.00, 0.00, 0.00
1960.0, 2392.93, 2581.60, -3681.38, 16393.53, 308.30, -4036.68, 16233.16, 39279.32, 0.00, 0.00, 0.00
1964.0, 2413.52, 2587.37, -3675.21, 16461.25, 317.66, -4034.96, 16239.12, 39002.09, 0.00, 0.00, 0.00
1968.0, 2380.37, 2554.45, -3716.63, 16497.78, 282.95, -4076.67, 16260.16, 39107.64, 0.00, 0.00, 0.00
1972.0, 2358.67, 2545.17, -3729.48, 16450.39, 274.39, -4086.55, 16268.20, 39400.07, 0.00, 0.00, 0.00
1976.0, 2391.37, 2576.06, -3691.64, 16400.57, 307.65, -4046.87, 16238.52, 39339.09, 0.00, 0.00, 0.00
1980.0, 2412.89, 2584.29, -3678.34, 16456.61, 323.39, -4034.58, 16240.35, 39041.37, 0.00, 0.00, 0.00
1984.0, 2396.26, 2543.83, -3718.86, 16504.73, 281.92, -4077.65, 16246.37, 39091.10, 0.00, 0.00, 0.00
1988.0, 2382.76, 2534.93, -3736.97, 16470.35, 264.44, -4089.90, 16257.16, 39360.39, 0.00, 0.00, 0.00
1992.0, 2365.89, 2562.81, -3703.86, 16407.25, 290.75, -4054.81, 16246.72, 39396.96, 0.00, 0.00, 0.00
1996.0, 2408.94, 2582.25, -3676.12, 16438.61, 316.32, -4031.83, 16230.29, 39080.70, 0.00, 0.00, 0.00
2000.0, 2388.75, 2553.98, -3711.64, 16500.97, 289.03, -4069.94, 16248.22, 39058.31, 0.00, 0.00, 0.00
2004.0, 2351.83, 2531.76, -3741.03, 16473.97, 260.44, -4098.06, 16270.04, 39330.48, 0.00, 0.00, 0.00
2008.0, 2361.44, 2550.96, -3716.38, 16406.94, 280.27, -4069.38, 16254.43, 39427.61, 0.00, 0.00, 0.00
2012.0, 2405.11, 2581.85, -3678.54, 16424.62, 315.41, -4032.17, 16230.58, 39105.94, 0.00, 0.00, 0.00
2016.0, 2387.75, 2559.48, -3709.29, 16497.11, 291.11, -4065.29, 16246.32, 39013.98, 0.00, 0.00, 0.00
2020.0, 2348.68, 2529.50, -3745.35, 16480.97, 257.02, -4099.09, 16253.88, 39256.21, 0.00, 0.00, 0.00
2024.0, 2362.76, 2547.58, -3721.10, 16421.38, 275.28, -4072.93, 16245.34, 39418.35, 0.00, 0.00, 0.00
2028.0, 2408.11, 2581.81, -3675.32, 16415.70, 315.38, -4030.33, 16225.42, 39125.92, 0.00, 0.00, 0.00
2032.0, 2404.18, 2564.91, -3692.93, 16490.24, 302.73, -4051.95, 16247.91, 38969.04, 0.00, 0.00, 0.00
2036.0, 2360.66, 2529.10, -3735.60, 16486.20, 267.62, -4091.71, 16254.23, 39170.31, 0.00, 0.00, 0.00
2040.0, 2355.76, 2536.23, -3729.41, 16427.03, 272.78, -4081.29, 16258.37, 39402.82, 0.00, 0.00, 0.00
2044.0, 2393.51, 2571.70, -3685.67, 16400.57, 310.98, -4037.31, 16229.24, 39194.88, 0.00, 0.00, 0.00
2048.0, 2403.71, 2571.37, -3689.13, 16479.38, 312.37, -4043.63, 16244.33, 38963.98, 0.00, 0.00, 0.00
2052.0, 2371.03, 2546.94, -3723.11, 16506.76, 282.15, -4077.34, 16266.01, 39111.50, 0.00, 0.00, 0.00
2056.0, 2355.00, 2544.79, -3730.75, 16448.51, 276.31, -4078.61, 16275.22, 39388.80, 0.00, 0.00, 0.00
2060.0, 2385.51, 2574.79, -3689.87, 16396.08, 311.83, -4037.37, 16240.31, 39263.16, 0.00, 0.00, 0.00
2064.0, 2403.80, 2582.70, -3681.82, 16461.37, 320.73, -4033.33, 16243.44, 38987.61, 0.00, 0.00, 0.00
2068.0, 2374.22, 2552.17, -3718.91, 16492.84, 287.40, -4072.49, 16265.57, 39089.63, 0.00, 0.00, 0.00
2072.0, 2368.30, 2544.37, -3731.56, 16454.30, 277.94, -4079.73, 16277.43, 39375.32, 0.00, 0.00, 0.00
2076.0, 2385.60, 2564.82, -3704.58, 16394.20, 300.09, -4049.40, 16243.17, 39345.06, 0.00, 0.00, 0.00
2080.0, 2387.75, 2583.55, -3677.96, 16449.99, 325.82, -4028.48, 16242.97, 39037.25, 0.00, 0.00, 0.00
2084.0, 2371.01, 2557.44, -3712.07, 16502.47, 296.25, -4064.13, 16265.99, 39059.36, 0.00, 0.00, 0.00
2088.0, 2348.79, 2544.50, -3730.37, 16463.94, 277.34, -4080.51, 16276.36, 39330.24, 0.00, 0.00, 0.00
2092.0, 2371.70, 2567.16, -3697.11, 16402.58, 301.93, -4047.23, 16251.01, 39370.94, 0.00, 0.00, 0.00
2096.0, 2405.85, 2584.44, -3672.44, 16432.58, 325.13, -4025.48, 16238.32, 39047.78, 0.00, 0.00, 0.00
2100.0, 2375.90, 2550.09, -3714.52, 16493.35, 287.91, -4069.58, 16257.12, 39016.55, 0.00, 0.00, 0.00
2104.0, 2341.32, 2531.18, -3742.89, 16475.47, 263.21, -4093.81, 16265.95, 39270.76, 0.00, 0.00, 0.00
2108.0, 2350.46, 2546.60, -3726.55, 16411.46, 276.25, -4073.47, 16246.95, 39404.02, 0.00, 0.00, 0.00
2112.0, 2391.93, 2568.62, -3693.67, 16415.59, 306.35, -4044.08, 16219.97, 39106.97, 0.00, 0.00, 0.00
2116.0, 2387.34, 2551.99, -3715.35, 16488.97, 288.02, -4069.00, 16243.91, 38992.68, 0.00, 0.00, 0.00
2120.0, 2349.86, 2525.46, -3750.96, 16479.63, 256.67, -4101.23, 16263.42, 39227.87, 0.00, 0.00, 0.00
2124.0, 2340.03, 2530.02, -3744.10, 16408.77, 259.68, -4091.20, 16251.57, 39432.25, 0.00, 0.00, 0.00
2128.0, 2383.46, 2564.21, -3697.40, 16395.43, 297.81, -4048.10, 16217.91, 39174.25, 0.00, 0.00, 0.00
2132.0, 2383.48, 2558.67, -3705.45, 16470.44, 293.34, -4058.83, 16238.03, 38996.17, 0.00, 0.00, 0.00
2136.0, 2348.12, 2530.87, -3737.86, 16481.44, 264.98, -4090.91, 16255.93, 39175.97, 0.00, 0.00, 0.00
2140.0, 2337.97, 2536.34, -3734.64, 16426.27, 267.10, -4084.76, 16256.00, 39421.70, 0.00, 0.00, 0.00
2144.0, 2382.99, 2579.46, -3683.23, 16397.42, 314.85, -4033.51, 16226.70, 39206.68, 0.00, 0.00, 0.00
2148.0, 2398.25, 2580.31, -3684.77, 16473.01, 319.09, -4037.86, 16246.03, 38960.61, 0.00, 0.00, 0.00
2152.0, 2355.74, 2544.72, -3729.81, 16490.65, 279.58, -4081.61, 16263.22, 39109.20, 0.00, 0.00, 0.00
2156.0, 2353.30, 2533.01, -3744.41, 16430.88, 264.29, -4091.49, 16259.24, 39395.06, 0.00, 0.00, 0.00
2160.0, 2372.88, 2562.38, -3701.52, 16382.29, 298.13, -4049.15, 16220.24, 39270.09, 0.00, 0.00, 0.00
2164.0, 2385.83, 2577.04, -3682.09, 16448.25, 314.33, -4038.83, 16229.06, 38980.37, 0.00, 0.00, 0.00
2168.0, 2364.19, 2548.64, -3721.45, 16490.65, 282.15, -4076.67, 16250.30, 39050.78, 0.00, 0.00, 0.00
2172.0, 2340.07, 2538.78, -3736.99, 16449.21, 266.79, -4091.17, 16254.90, 39337.13, 0.00, 0.00, 0.00
2176.0, 2370.80, 2569.80, -3694.32, 16396.17, 299.36, -4049.55, 16233.60, 39311.51, 0.00, 0.00, 0.00
2180.0, 2400.11, 2579.08, -3681.20, 16440.20, 311.05, -4039.16, 16223.70, 38997.63, 0.00, 0.00, 0.00
2184.0, 2369.58, 2540.41, -3723.29, 16494.42, 270.48, -4084.20, 16233.62, 39024.60, 0.00, 0.00, 0.00
2188.0, 2343.56, 2524.14, -3740.03, 16463.42, 254.12, -4096.69, 16245.99, 39295.59, 0.00, 0.00, 0.00
2192.0, 2367.03, 2548.14, -3707.42, 16398.45, 278.03, -4064.17, 16235.03, 39361.55, 0.00, 0.00, 0.00
2196.0, 2404.42, 2573.78, -3679.48, 16423.79, 309.19, -4039.94, 16216.84, 39041.41, 0.00, 0.00, 0.00
2200.0, 2379.77, 2545.64, -3714.41, 16493.57, 282.88, -4079.62, 16233.76, 38988.44, 0.00, 0.00, 0.00
2204.0, 2344.97, 2524.63, -3739.65, 16475.34, 259.08, -4103.02, 16245.56, 39233.88, 0.00, 0.00, 0.00
2208.0, 2357.13, 2544.99, -3715.11, 16421.76, 279.89, -4075.21, 16233.96, 39371.97, 0.00, 0.00, 0.00
2212.0, 2395.12, 2574.32, -3679.63, 16427.93, 311.52, -4039.32, 16216.44, 39083.01, 0.00, 0.00, 0.00
2216.0, 2391.32, 2554.54, -3699.37, 16502.67, 293.66, -4062.45, 16233.22, 38947.54, 0.00, 0.00, 0.00
2220.0, 2345.66, 2515.09, -3744.30, 16488.79, 253.76, -4104.43, 16245.81, 39178.61, 0.00, 0.00, 0.00
2224.0, 2336.00, 2517.21, -3740.07, 16420.11, 255.23, -4096.40, 16229.85, 39392.94, 0.00, 0.00, 0.00
2228.0, 2382.05, 2548.75, -3698.70, 16409.29, 292.72, -4054.90, 16198.38, 39142.08, 0.00, 0.00, 0.00
2232.0, 2401.65, 2537.73, -3713.59, 16482.51, 281.83, -4071.28, 16208.95, 38951.67, 0.00, 0.00, 0.00
2236.0, 2368.57, 2514.64, -3742.40, 16494.22, 253.38, -4096.81, 16228.46, 39106.92, 0.00, 0.00, 0.00
2240.0, 2336.65, 2522.01, -3730.08, 16443.35, 256.67, -4084.36, 16250.43, 39355.86, 0.00, 0.00, 0.00
2244.0, 2372.84, 2548.93, -3694.27, 16402.74, 286.68, -4045.51, 16224.57, 39194.72, 0.00, 0.00, 0.00
2248.0, 2390.03, 2550.11, -3692.66, 16472.65, 291.09, -4047.63, 16232.86, 38945.28, 0.00, 0.00, 0.00
2252.0, 2360.86, 2520.23, -3728.92, 16509.36, 258.97, -4085.92, 16250.14, 39071.36, 0.00, 0.00, 0.00
2256.0, 2344.09, 2514.50, -3736.07, 16456.05, 251.19, -4090.19, 16260.69, 39343.54, 0.00, 0.00, 0.00
2260.0, 2367.99, 2541.53, -3703.57, 16404.41, 279.69, -4055.70, 16227.08, 39249.57, 0.00, 0.00, 0.00
2264.0, 2392.02, 2549.28, -3691.57, 16460.40, 290.53, -4046.18, 16221.62, 38957.52, 0.00, 0.00, 0.00
2268.0, 2369.91, 2523.71, -3720.34, 16508.30, 264.80, -4079.08, 16242.43, 39008.84, 0.00, 0.00, 0.00
2272.0, 2344.70, 2516.07, -3733.77, 16471.25, 249.45, -4089.61, 16260.45, 39299.91, 0.00, 0.00, 0.00
2276.0, 2364.08, 2542.31, -3700.58, 16413.36, 275.06, -4054.74, 16235.88, 39303.11, 0.00, 0.00, 0.00
2280.0, 2395.01, 2553.15, -3681.91, 16450.88, 292.07, -4039.94, 16225.49, 38988.91, 0.00, 0.00, 0.00
2284.0, 2366.74, 2518.84, -3720.34, 16501.69, 259.01, -4081.47, 16238.50, 38984.41, 0.00, 0.00, 0.00
2288.0, 2334.91, 2499.77, -3747.11, 16473.03, 236.62, -4106.24, 16245.34, 39263.36, 0.00, 0.00, 0.00
2292.0, 2343.49, 2520.29, -3722.91, 16408.26, 256.62, -4078.17, 16227.57, 39361.00, 0.00, 0.00, 0.00
2296.0, 2391.82, 2553.04, -3686.09, 16431.79, 293.39, -4043.97, 16211.81, 39036.25, 0.00, 0.00, 0.00
2300.0, 2377.53, 2530.69, -3716.11, 16507.52, 271.53, -4076.09, 16236.37, 38969.35, 0.00, 0.00, 0.00
2304.0, 2333.59, 2500.15, -3754.78, 16489.71, 237.89, -4112.01, 16244.33, 39236.39, 0.00, 0.00, 0.00
2308.0, 2339.67, 2514.66, -3735.60, 16425.85, 252.19, -4089.43, 16233.62, 39398.37, 0.00, 0.00, 0.00
2312.0, 2385.74, 2547.67, -3694.59, 16427.48, 290.84, -4049.80, 16210.00, 39109.92, 0.00, 0.00, 0.00
2316.0, 2379.37, 2530.40, -3715.98, 16505.56, 275.13, -4073.99, 16228.04, 38955.56, 0.00, 0.00, 0.00
2320.0, 2337.97, 2496.04, -3754.00, 16502.02, 239.03, -4110.51, 16238.72, 39176.80, 0.00, 0.00, 0.00
2324.0, 2348.27, 2504.13, -3742.37, 16437.12, 244.15, -4094.88, 16237.31, 39386.93, 0.00, 0.00, 0.00
2328.0, 2399.21, 2533.35, -3705.63, 16413.42, 275.80, -4056.75, 16207.92, 39157.39, 0.00, 0.00, 0.00
2332.0, 2377.42, 2531.58, -3702.12, 16489.02, 275.11, -4061.20, 16221.13, 38932.89, 0.00, 0.00, 0.00
2336.0, 2338.62, 2496.89, -3744.36, 16508.80, 234.54, -4102.35, 16236.93, 39088.44, 0.00, 0.00, 0.00
2340.0, 2332.85, 2494.75, -3747.96, 16448.87, 230.20, -4102.08, 16240.84, 39360.08, 0.00, 0.00, 0.00
2344.0, 2366.07, 2527.13, -3702.77, 16402.18, 269.65, -4057.87, 16208.34, 39200.31, 0.00, 0.00, 0.00
2348.0, 2386.34, 2534.96, -3694.16, 16469.08, 280.87, -4052.75, 16210.16, 38919.77, 0.00, 0.00, 0.00
2352.0, 2353.48, 2509.90, -3727.98, 16510.36, 252.53, -4085.68, 16239.99, 39032.98, 0.00, 0.00, 0.00
2356.0, 2326.28, 2501.27, -3741.95, 16463.51, 240.75, -4094.55, 16249.92, 39338.67, 0.00, 0.00, 0.00
2360.0, 2360.84, 2530.64, -3702.32, 16409.44, 274.26, -4055.34, 16214.54, 39279.70, 0.00, 0.00, 0.00
2364.0, 2391.19, 2551.76, -3680.82, 16463.13, 297.68, -4037.73, 16210.69, 38957.41, 0.00, 0.00, 0.00
2368.0, 2353.50, 2516.27, -3727.00, 16511.30, 260.76, -4082.41, 16236.62, 39008.80, 0.00, 0.00, 0.00
2372.0, 2322.99, 2499.08, -3753.13, 16465.32, 239.14, -4102.82, 16240.42, 39304.78, 0.00, 0.00, 0.00
2376.0, 2355.67, 2533.48, -3711.75, 16406.87, 274.79, -4060.86, 16212.93, 39311.91, 0.00, 0.00, 0.00
2380.0, 2394.16, 2556.57, -3682.11, 16450.91, 301.50, -4036.08, 16206.87, 38979.74, 0.00, 0.00, 0.00
2384.0, 2366.58, 2524.70, -3717.56, 16513.27, 267.26, -4073.74, 16237.54, 38976.43, 0.00, 0.00, 0.00
2388.0, 2337.37, 2507.11, -3737.75, 16485.48, 245.91, -4091.53, 16251.77, 39246.29, 0.00, 0.00, 0.00
2392.0, 2355.18, 2533.37, -3707.73, 16422.09, 269.27, -4058.96, 16238.16, 39340.57, 0.00, 0.00, 0.00
2396.0, 2393.78, 2561.60, -3675.34, 16442.37, 299.54, -4028.99, 16219.97, 39030.37, 0.00, 0.00, 0.00
2400.0, 2374.78, 2530.69, -3709.70, 16514.43, 270.32, -4069.38, 16226.70, 38948.67, 0.00, 0.00, 0.00
2404.0, 2335.85, 2495.62, -3747.87, 16504.55, 234.34, -4109.46, 16228.17, 39206.57, 0.00, 0.00, 0.00
2408.0, 2344.59, 2511.73, -3726.28, 16444.49, 250.56, -4086.30, 16212.90, 39382.81, 0.00, 0.00, 0.00
2412.0, 2393.74, 2545.71, -3679.03, 16437.79, 290.10, -4043.56, 16186.73, 39093.00, 0.00, 0.00, 0.00
2416.0, 2402.68, 2533.23, -3692.31, 16521.52, 282.77, -4060.71, 16207.88, 38918.34, 0.00, 0.00, 0.00
2420.0, 2362.76, 2494.50, -3735.11, 16529.49, 242.09, -4101.25, 16225.49, 39131.38, 0.00, 0.00, 0.00
2424.0, 2354.06, 2497.54, -3727.96, 16468.23, 242.87, -4090.68, 16223.92, 39370.18, 0.00, 0.00, 0.00
2428.0, 2398.81, 2531.71, -3682.61, 16440.47, 279.80, -4044.64, 16193.48, 39144.83, 0.00, 0.00, 0.00
2432.0, 2401.76, 2524.12, -3692.62, 16510.16, 269.34, -4057.87, 16202.02, 38923.46, 0.00, 0.00, 0.00
2436.0, 2365.91, 2488.46, -3736.07, 16519.84, 226.89, -4100.92, 16219.95, 39086.56, 0.00, 0.00, 0.00
2440.0, 2341.70, 2485.98, -3741.26, 16455.22, 218.98, -4101.39, 16225.89, 39361.11, 0.00, 0.00, 0.00
2444.0, 2369.20, 2521.57, -3699.35, 16410.52, 258.79, -4056.37, 16197.39, 39230.98, 0.00, 0.00, 0.00
2448.0, 2384.33, 2528.72, -3696.17, 16470.26, 267.17, -4055.12, 16197.35, 38949.32, 0.00, 0.00, 0.00
2452.0, 2349.21, 2492.69, -3738.46, 16505.58, 228.14, -4099.80, 16216.59, 39056.34, 0.00, 0.00, 0.00
2456.0, 2332.70, 2492.40, -3744.36, 16461.14, 225.62, -4100.58, 16224.19, 39320.72, 0.00, 0.00, 0.00
2460.0, 2359.81, 2523.98, -3706.57, 16405.35, 259.26, -4058.99, 16203.49, 39255.50, 0.00, 0.00, 0.00
2464.0, 2388.86, 2544.92, -3685.00, 16457.54, 281.94, -4039.99, 16207.52, 38934.01, 0.00, 0.00, 0.00
2468.0, 2355.47, 2505.70, -3730.73, 16507.79, 242.00, -4086.48, 16220.37, 38977.57, 0.00, 0.00, 0.00
2472.0, 2349.97, 2495.77, -3749.50, 16475.72, 228.70, -4099.18, 16233.07, 39247.02, 0.00, 0.00, 0.00
2476.0, 2340.03, 2519.42, -3718.03, 16415.70, 253.85, -4066.63, 16216.82, 39301.99, 0.00, 0.00, 0.00
2480.0, 2367.52, 2541.01, -3686.20, 16447.66, 281.05, -4040.93, 16202.13, 39002.09, 0.00, 0.00, 0.00
2484.0, 2354.26, 2516.92, -3713.54, 16510.58, 254.90, -4071.24, 16228.62, 38970.00, 0.00, 0.00, 0.00
2488.0, 2329.32, 2500.47, -3733.66, 16490.20, 236.21, -4089.43, 16244.64, 39225.66, 0.00, 0.00, 0.00
2492.0, 2348.32, 2519.24, -3708.20, 16434.30, 258.56, -4061.78, 16228.10, 39335.16, 0.00, 0.00, 0.00
2496.0, 2386.54, 2537.55, -3676.10, 16440.11, 283.02, -4032.30, 16204.99, 39044.92, 0.00, 0.00, 0.00
2500.0, 2378.25, 2517.10, -3698.77, 16519.37, 263.21, -4056.48, 16221.58, 38933.18, 0.00, 0.00, 0.00
2504.0, 2346.73, 2507.87, -3719.11, 16525.94, 249.53, -4076.27, 16238.16, 39166.76, 0.00, 0.00, 0.00
2508.0, 2353.39, 2526.31, -3701.27, 16471.31, 266.30, -4055.59, 16238.00, 39358.25, 0.00, 0.00, 0.00
2512.0, 2397.98, 2553.26, -3660.68, 16456.43, 299.83, -4018.55, 16209.35, 39106.81, 0.00, 0.00, 0.00
2516.0, 2403.80, 2542.69, -3671.18, 16532.67, 290.82, -4035.58, 16226.20, 38928.33, 0.00, 0.00, 0.00
2520.0, 2367.39, 2515.09, -3705.61, 16541.23, 257.74, -4069.72, 16242.36, 39124.45, 0.00, 0.00, 0.00
2524.0, 2366.24, 2521.46, -3696.29, 16484.21, 259.97, -4058.32, 16251.98, 39366.85, 0.00, 0.00, 0.00
2528.0, 2408.94, 2555.92, -3652.45, 16455.89, 299.74, -4015.38, 16219.01, 39154.24, 0.00, 0.00, 0.00
2532.0, 2418.44, 2542.51, -3667.45, 16528.24, 290.35, -4035.70, 16222.87, 38924.58, 0.00, 0.00, 0.00
2536.0, 2375.52, 2497.05, -3718.59, 16542.44, 245.06, -4086.10, 16228.82, 39074.13, 0.00, 0.00, 0.00
2540.0, 2373.44, 2493.45, -3725.61, 16491.09, 240.68, -4088.36, 16231.46, 39341.59, 0.00, 0.00, 0.00
2544.0, 2415.89, 2523.42, -3689.02, 16444.20, 274.90, -4048.10, 16197.71, 39215.22, 0.00, 0.00, 0.00
2548.0, 2410.08, 2534.53, -3674.49, 16511.52, 288.47, -4042.09, 16201.80, 38918.41, 0.00, 0.00, 0.00
2552.0, 2375.97, 2495.64, -3714.06, 16543.93, 249.53, -4083.98, 16215.50, 39008.26, 0.00, 0.00, 0.00
2556.0, 2357.57, 2484.33, -3724.45, 16497.58, 235.92, -4092.00, 16227.79, 39292.18, 0.00, 0.00, 0.00
2560.0, 2386.63, 2514.82, -3682.96, 16439.17, 268.33, -4049.82, 16205.44, 39258.04, 0.00, 0.00, 0.00
2564.0, 2419.87, 2532.36, -3662.53, 16486.18, 287.02, -4030.91, 16201.62, 38941.72, 0.00, 0.00, 0.00
2568.0, 2389.11, 2497.29, -3706.28, 16531.82, 250.85, -4073.38, 16219.27, 38966.06, 0.00, 0.00, 0.00
2572.0, 2349.50, 2475.93, -3739.09, 16484.52, 223.14, -4098.93, 16219.95, 39246.89, 0.00, 0.00, 0.00
2576.0, 2360.95, 2493.92, -3718.68, 16414.76, 243.14, -4072.24, 16194.08, 39292.33, 0.00, 0.00, 0.00
2580.0, 2389.87, 2515.13, -3695.79, 16437.76, 266.52, -4052.24, 16181.79, 38978.49, 0.00, 0.00, 0.00
2584.0, 2375.79, 2492.93, -3726.13, 16502.49, 242.99, -4086.01, 16206.27, 38920.55, 0.00, 0.00, 0.00
2588.0, 2334.42, 2467.68, -3762.45, 16482.47, 214.02, -4118.58, 16218.87, 39181.82, 0.00, 0.00, 0.00
2592.0, 2340.07, 2487.68, -3740.88, 16418.32, 232.88, -4092.94, 16206.36, 39329.70, 0.00, 0.00, 0.00
2596.0, 2377.26, 2519.18, -3703.35, 16428.02, 267.10, -4055.88, 16184.38, 39038.75, 0.00, 0.00, 0.00
2600.0, 2374.49, 2509.85, -3715.17, 16507.86, 257.22, -4070.45, 16208.57, 38910.90, 0.00, 0.00, 0.00
2604.0, 2346.33, 2490.39, -3741.48, 16505.71, 232.55, -4092.98, 16229.04, 39135.29, 0.00, 0.00, 0.00
2608.0, 2345.73, 2504.47, -3723.17, 16447.38, 243.48, -4070.74, 16231.12, 39339.98, 0.00, 0.00, 0.00
2612.0, 2388.31, 2540.16, -3673.73, 16436.53, 284.05, -4023.90, 16207.79, 39094.79, 0.00, 0.00, 0.00
2616.0, 2391.44, 2531.98, -3681.62, 16517.74, 275.89, -4038.47, 16230.00, 38906.18, 0.00, 0.00, 0.00
2620.0, 2370.96, 2497.45, -3723.15, 16526.79, 235.74, -4079.95, 16244.64, 39089.96, 0.00, 0.00, 0.00
2624.0, 2346.91, 2496.56, -3722.50, 16465.43, 232.48, -4075.21, 16249.58, 39342.33, 0.00, 0.00, 0.00
2628.0, 2367.90, 2534.69, -3668.97, 16425.78, 276.65, -4024.79, 16214.60, 39163.77, 0.00, 0.00, 0.00
2632.0, 2392.11, 2535.20, -3667.76, 16497.44, 282.48, -4025.68, 16226.43, 38910.27, 0.00, 0.00, 0.00
2636.0, 2356.48, 2502.03, -3709.67, 16523.66, 245.11, -4069.07, 16244.96, 39046.29, 0.00, 0.00, 0.00
2640.0, 2332.16, 2494.48, -3718.06, 16470.31, 237.06, -4077.00, 16244.22, 39319.64, 0.00, 0.00, 0.00
2644.0, 2375.07, 2529.55, -3672.91, 16428.69, 277.97, -4031.18, 16219.63, 39217.83, 0.00, 0.00, 0.00
2648.0, 2396.98, 2536.61, -3667.12, 16493.04, 287.31, -4029.75, 16219.34, 38935.80, 0.00, 0.00, 0.00
2652.0, 2363.05, 2504.42, -3708.06, 16534.57, 250.70, -4071.59, 16230.99, 39006.18, 0.00, 0.00, 0.00
2656.0, 2340.32, 2493.72, -3722.82, 16491.29, 235.32, -4081.52, 16244.78, 39277.78, 0.00, 0.00, 0.00
2660.0, 2364.21, 2518.01, -3689.67, 16434.32, 267.55, -4045.53, 16223.23, 39261.15, 0.00, 0.00, 0.00
2664.0, 2395.19, 2531.22, -3671.52, 16481.30, 290.19, -4030.06, 16213.15, 38943.31, 0.00, 0.00, 0.00
2668.0, 2366.24, 2498.97, -3710.12, 16542.44, 255.39, -4071.50, 16231.19, 38942.64, 0.00, 0.00, 0.00
2672.0, 2327.42, 2478.43, -3741.26, 16509.20, 226.33, -4096.61, 16244.55, 39224.49, 0.00, 0.00, 0.00
2676.0, 2341.64, 2501.83, -3716.29, 16442.63, 247.34, -4066.34, 16223.10, 39303.04, 0.00, 0.00, 0.00
2680.0, 2391.48, 2531.74, -3679.77, 16457.92, 282.44, -4031.09, 16201.15, 38983.52, 0.00, 0.00, 0.00
2684.0, 2375.14, 2505.81, -3714.21, 16524.31, 253.78, -4064.44, 16225.98, 38909.56, 0.00, 0.00, 0.00
2688.0, 2301.29, 2477.98, -3744.90, 16496.88, 222.94, -4097.88, 16239.06, 39174.85, 0.00, 0.00, 0.00
2692.0, 2313.38, 2496.78, -3722.48, 16431.59, 240.19, -4075.04, 16229.06, 39323.51, 0.00, 0.00, 0.00
2696.0, 2365.04, 2529.08, -3680.68, 16429.25, 274.66, -4035.09, 16200.30, 39032.70, 0.00, 0.00, 0.00
2700.0, 2353.01, 2511.98, -3703.93, 16503.63, 257.47, -4059.37, 16221.64, 38906.52, 0.00, 0.00, 0.00
2704.0, 2312.11, 2483.75, -3740.25, 16495.21, 225.37, -4095.11, 16233.07, 39125.83, 0.00, 0.00, 0.00
2708.0, 2318.19, 2500.31, -3722.50, 16434.52, 240.42, -4075.80, 16231.75, 39337.30, 0.00, 0.00, 0.00
2712.0, 2358.29, 2536.95, -3677.11, 16422.45, 282.26, -4030.27, 16209.84, 39099.55, 0.00, 0.00, 0.00
2716.0, 2366.13, 2527.69, -3687.57, 16498.78, 274.35, -4045.38, 16227.72, 38894.85, 0.00, 0.00, 0.00
2720.0, 2326.21, 2492.93, -3731.44, 16513.07, 238.11, -4086.99, 16236.15, 39061.06, 0.00, 0.00, 0.00
2724.0, 2309.72, 2490.97, -3733.79, 16458.06, 236.01, -4084.96, 16234.05, 39305.92, 0.00, 0.00, 0.00
2728.0, 2353.44, 2524.16, -3689.02, 16420.37, 274.66, -4040.44, 16204.54, 39147.13, 0.00, 0.00, 0.00
2732.0, 2368.30, 2522.44, -3689.49, 16484.05, 277.16, -4044.35, 16210.02, 38892.68, 0.00, 0.00, 0.00
2736.0, 2322.30, 2484.02, -3735.33, 16512.71, 234.87, -4089.05, 16229.40, 39011.71, 0.00, 0.00, 0.00
2740.0, 2309.09, 2481.09, -3740.83, 16465.55, 228.46, -4092.27, 16236.89, 39281.65, 0.00, 0.00, 0.00
2744.0, 2339.76, 2511.02, -3702.30, 16415.12, 260.84, -4052.93, 16209.64, 39206.93, 0.00, 0.00, 0.00
2748.0, 2360.52, 2520.56, -3692.44, 16475.27, 270.70, -4047.41, 16206.33, 38918.70, 0.00, 0.00, 0.00
2752.0, 2334.71, 2488.08, -3729.99, 16525.07, 237.33, -4088.00, 16215.32, 38978.78, 0.00, 0.00, 0.00
2756.0, 2308.80, 2474.20, -3747.18, 16484.10, 219.65, -4102.71, 16219.30, 39262.83, 0.00, 0.00, 0.00
2760.0, 2334.26, 2505.92, -3708.31, 16426.25, 251.73, -4061.78, 16204.19, 39270.34, 0.00, 0.00, 0.00
2764.0, 2376.12, 2532.54, -3676.91, 16467.87, 281.54, -4034.78, 16202.76, 38946.24, 0.00, 0.00, 0.00
2768.0, 2362.27, 2501.61, -3716.11, 16524.87, 247.84, -4078.97, 16217.67, 38943.02, 0.00, 0.00, 0.00
2772.0, 2337.88, 2479.66, -3750.06, 16493.42, 219.00, -4106.26, 16226.58, 39216.40, 0.00, 0.00, 0.00
2776.0, 2320.04, 2500.87, -3719.26, 16424.87, 245.78, -4076.67, 16205.68, 39307.73, 0.00, 0.00, 0.00
2780.0, 2360.48, 2528.30, -3683.95, 16439.15, 277.63, -4045.76, 16186.31, 38994.72, 0.00, 0.00, 0.00
2784.0, 2353.57, 2506.21, -3711.04, 16502.47, 255.84, -4072.67, 16212.12, 38912.51, 0.00, 0.00, 0.00
2788.0, 2318.43, 2480.42, -3743.27, 16490.11, 226.07, -4102.48, 16231.19, 39143.91, 0.00, 0.00, 0.00
2792.0, 2321.05, 2492.96, -3731.33, 16424.82, 235.21, -4086.01, 16220.75, 39318.82, 0.00, 0.00, 0.00
2796.0, 2360.39, 2524.23, -3692.87, 16416.42, 269.85, -4047.39, 16192.85, 39043.31, 0.00, 0.00, 0.00
2800.0, 2351.14, 2505.70, -3714.95, 16491.43, 253.54, -4071.66, 16214.02, 38900.50, 0.00, 0.00, 0.00
2804.0, 2315.64, 2479.88, -3747.38, 16491.41, 222.60, -4103.65, 16225.51, 39100.15, 0.00, 0.00, 0.00
2808.0, 2316.29, 2485.80, -3738.75, 16425.18, 224.57, -4094.08, 16223.03, 39324.18, 0.00, 0.00, 0.00
2812.0, 2353.62, 2519.56, -3696.58, 16394.36, 260.31, -4050.11, 16192.23, 39098.92, 0.00, 0.00, 0.00
2816.0, 2364.39, 2520.56, -3698.48, 16478.98, 262.88, -4054.03, 16212.05, 38874.09, 0.00, 0.00, 0.00
2820.0, 2322.84, 2488.15, -3737.75, 16492.79, 227.50, -4092.58, 16229.06, 39033.70, 0.00, 0.00, 0.00
2824.0, 2314.23, 2490.45, -3733.12, 16435.68, 228.55, -4085.09, 16239.37, 39294.41, 0.00, 0.00, 0.00
2828.0, 2357.64, 2530.64, -3681.13, 16397.78, 274.35, -4032.48, 16218.67, 39146.75, 0.00, 0.00, 0.00
2832.0, 2373.24, 2531.47, -3678.40, 16466.04, 278.86, -4033.98, 16221.31, 38896.28, 0.00, 0.00, 0.00
2836.0, 2333.79, 2494.86, -3722.68, 16498.67, 241.60, -4077.96, 16226.74, 39005.47, 0.00, 0.00, 0.00
2840.0, 2319.89, 2490.72, -3731.60, 16454.50, 231.65, -4083.48, 16233.98, 39276.95, 0.00, 0.00, 0.00
2844.0, 2366.49, 2520.00, -3698.41, 16402.56, 259.19, -4047.48, 16209.13, 39221.01, 0.00, 0.00, 0.00
2848.0, 2356.45, 2530.51, -3686.90, 16447.78, 275.06, -4040.35, 16205.95, 38912.91, 0.00, 0.00, 0.00
2852.0, 2325.63, 2501.85, -3719.78, 16499.95, 249.02, -4078.77, 16225.85, 38961.50, 0.00, 0.00, 0.00
2856.0, 2299.46, 2485.38, -3743.11, 16465.52, 228.79, -4100.74, 16227.88, 39249.57, 0.00, 0.00, 0.00
2860.0, 2318.05, 2507.89, -3715.80, 16404.32, 252.11, -4069.78, 16207.32, 39277.11, 0.00, 0.00, 0.00
2864.0, 2359.74, 2532.50, -3687.55, 16444.24, 277.01, -4044.79, 16196.36, 38953.05, 0.00, 0.00, 0.00
2868.0, 2338.31, 2502.64, -3726.24, 16507.08, 244.55, -4083.91, 16217.44, 38920.82, 0.00, 0.00, 0.00
2872.0, 2305.34, 2484.71, -3754.40, 16479.18, 220.25, -4108.97, 16228.13, 39169.82, 0.00, 0.00, 0.00
2876.0, 2316.45, 2500.44, -3733.43, 16417.02, 236.19, -4088.45, 16210.74, 39287.08, 0.00, 0.00, 0.00
2880.0, 2344.47, 2515.26, -3711.22, 16422.25, 256.55, -4069.22, 16180.09, 39004.11, 0.00, 0.00, 0.00
2884.0, 2340.88, 2502.39, -3727.67, 16491.21, 245.11, -4089.01, 16199.87, 38891.63, 0.00, 0.00, 0.00
2888.0, 2309.81, 2476.75, -3759.63, 16485.51, 217.39, -4118.69, 16214.18, 39110.48, 0.00, 0.00, 0.00
2892.0, 2307.12, 2484.89, -3748.52, 16418.34, 225.17, -4104.65, 16200.10, 39291.13, 0.00, 0.00, 0.00
2896.0, 2337.23, 2508.74, -3713.94, 16401.02, 255.39, -4071.17, 16166.32, 39027.04, 0.00, 0.00, 0.00
2900.0, 2333.12, 2494.66, -3733.30, 16477.62, 241.76, -4092.96, 16183.62, 38868.07, 0.00, 0.00, 0.00
2904.0, 2301.27, 2468.84, -3766.81, 16484.03, 212.43, -4124.48, 16204.32, 39059.67, 0.00, 0.00, 0.00
2908.0, 2296.55, 2480.75, -3755.34, 16428.67, 223.74, -4110.13, 16204.43, 39284.48, 0.00, 0.00, 0.00
2912.0, 2337.19, 2516.65, -3709.20, 16393.98, 261.81, -4066.23, 16177.14, 39081.49, 0.00, 0.00, 0.00
2916.0, 2376.28, 2515.80, -3712.54, 16467.60, 260.93, -4073.87, 16195.25, 38849.81, 0.00, 0.00, 0.00
2920.0, 2307.55, 2476.01, -3756.79, 16486.62, 220.43, -4118.85, 16205.60, 38997.55, 0.00, 0.00, 0.00
2924.0, 2284.26, 2476.22, -3756.48, 16441.47, 217.53, -4118.51, 16214.49, 39265.15, 0.00, 0.00, 0.00
2928.0, 2320.51, 2503.24, -3721.48, 16392.25, 247.30, -4080.24, 16185.48, 39161.51, 0.00, 0.00, 0.00
2932.0, 2344.01, 2519.89, -3705.41, 16449.23, 263.39, -4066.27, 16193.37, 38872.70, 0.00, 0.00, 0.00
2936.0, 2318.93, 2497.25, -3736.07, 16495.21, 237.04, -4100.02, 16219.90, 38952.14, 0.00, 0.00, 0.00
2940.0, 2288.06, 2482.14, -3759.14, 16452.47, 218.64, -4117.93, 16222.76, 39255.18, 0.00, 0.00, 0.00
2944.0, 2313.14, 2507.66, -3724.40, 16398.04, 251.32, -4079.01, 16187.76, 39225.59, 0.00, 0.00, 0.00
2948.0, 2346.40, 2528.07, -3700.47, 16443.24, 274.61, -4056.93, 16184.83, 38902.16, 0.00, 0.00, 0.00
2952.0, 2319.08, 2496.20, -3735.85, 16494.76, 237.80, -4096.02, 16207.88, 38928.00, 0.00, 0.00, 0.00
2956.0, 2295.79, 2485.42, -3749.57, 16464.47, 223.05, -4110.37, 16219.01, 39196.20, 0.00, 0.00, 0.00
2960.0, 2308.73, 2509.94, -3720.65, 16398.20, 245.11, -4077.94, 16200.25, 39250.85, 0.00, 0.00, 0.00
2964.0, 2343.94, 2530.57, -3692.31, 16418.56, 269.47, -4051.52, 16180.70, 38930.66, 0.00, 0.00, 0.00
2968.0, 2336.38, 2509.72, -3719.15, 16491.68, 248.89, -4082.79, 16201.57, 38887.36, 0.00, 0.00, 0.00
2972.0, 2296.40, 2487.59, -3749.68, 16467.18, 220.68, -4109.84, 16215.72, 39152.16, 0.00, 0.00, 0.00
2976.0, 2304.55, 2505.47, -3725.12, 16400.44, 239.81, -4083.08, 16201.24, 39291.19, 0.00, 0.00, 0.00
2980.0, 2350.17, 2534.11, -3685.06, 16411.19, 274.03, -4043.90, 16181.19, 38994.83, 0.00, 0.00, 0.00
2984.0, 2341.93, 2517.95, -3706.86, 16486.56, 258.18, -4066.72, 16206.60, 38879.09, 0.00, 0.00, 0.00
2988.0, 2301.02, 2484.46, -3746.29, 16478.89, 223.72, -4103.71, 16217.13, 39101.22, 0.00, 0.00, 0.00
2992.0, 2302.48, 2492.53, -3732.05, 16414.72, 233.87, -4086.14, 16205.04, 39281.07, 0.00, 0.00, 0.00
2996.0, 2341.41, 2521.46, -3693.22, 16401.11, 264.51, -4051.52, 16175.33, 39031.49, 0.00, 0.00, 0.00
3000.0, 2362.04, 2512.96, -3707.17, 16474.26, 254.34, -4066.85, 16199.07, 38856.70, 0.00, 0.00, 0.00
3004.0, 2309.90, 2479.64, -3748.43, 16482.15, 216.57, -4103.65, 16215.39, 39033.61, 0.00, 0.00, 0.00
3008.0, 2281.02, 2478.63, -3742.02, 16423.48, 213.30, -4099.31, 16218.89, 39277.51, 0.00, 0.00, 0.00
3012.0, 2317.67, 2509.74, -3704.78, 16390.56, 246.34, -4059.43, 16188.94, 39103.62, 0.00, 0.00, 0.00
3016.0, 2329.30, 2513.01, -3707.28, 16460.05, 248.35, -4064.17, 16194.87, 38871.89, 0.00, 0.00, 0.00
3020.0, 2290.45, 2471.90, -3754.69, 16478.53, 204.14, -4113.44, 16205.26, 39014.75, 0.00, 0.00, 0.00
3024.0, 2272.59, 2464.59, -3763.30, 16424.49, 195.53, -4117.41, 16205.30, 39282.88, 0.00, 0.00, 0.00
3028.0, 2309.11, 2502.46, -3721.83, 16379.42, 238.25, -4074.50, 16174.08, 39175.34, 0.00, 0.00, 0.00
3032.0, 2330.93, 2513.16, -3712.11, 16434.07, 252.02, -4068.33, 16171.93, 38874.76, 0.00, 0.00, 0.00
3036.0, 2301.69, 2480.35, -3748.54, 16480.37, 219.11, -4108.72, 16196.36, 38939.17, 0.00, 0.00, 0.00
3040.0, 2277.40, 2474.58, -3761.35, 16442.70, 210.58, -4119.56, 16199.74, 39218.88, 0.00, 0.00, 0.00
3044.0, 2300.35, 2493.11, -3733.05, 16378.98, 232.32, -4087.44, 16176.31, 39210.64, 0.00, 0.00, 0.00
3048.0, 2333.61, 2512.54, -3708.24, 16419.10, 256.46, -4067.03, 16164.24, 38883.20, 0.00, 0.00, 0.00
3052.0, 2312.53, 2486.18, -3741.70, 16481.93, 225.82, -4104.65, 16176.02, 38875.43, 0.00, 0.00, 0.00
3056.0, 2274.31, 2461.35, -3773.35, 16447.91, 197.12, -4133.19, 16180.79, 39161.68, 0.00, 0.00, 0.00
3060.0, 2293.33, 2483.14, -3747.07, 16382.62, 221.64, -4104.20, 16153.69, 39248.45, 0.00, 0.00, 0.00
3064.0, 2354.69, 2498.21, -3721.50, 16401.64, 243.30, -4080.78, 16130.05, 38936.96, 0.00, 0.00, 0.00
3068.0, 2310.79, 2478.43, -3744.83, 16474.55, 224.46, -4106.04, 16145.54, 38859.04, 0.00, 0.00, 0.00
3072.0, 2263.23, 2450.18, -3776.91, 16456.27, 190.95, -4140.41, 16153.92, 39099.88, 0.00, 0.00, 0.00
3076.0, 2265.64, 2456.43, -3771.36, 16378.29, 192.31, -4130.13, 16140.33, 39259.23, 0.00, 0.00, 0.00
3080.0, 2322.17, 2491.91, -3727.26, 16378.60, 232.37, -4090.95, 16119.65, 38971.07, 0.00, 0.00, 0.00
3084.0, 2313.47, 2468.62, -3751.16, 16455.53, 210.42, -4120.81, 16133.96, 38832.00, 0.00, 0.00, 0.00
3088.0, 2278.34, 2439.98, -3783.23, 16456.54, 182.57, -4151.01, 16144.87, 39043.04, 0.00, 0.00, 0.00
3092.0, 2280.39, 2451.16, -3769.51, 16396.93, 191.60, -4132.97, 16154.92, 39252.93, 0.00, 0.00, 0.00
3096.0, 2322.66, 2482.92, -3728.72, 16371.18, 226.71, -4092.20, 16122.74, 39010.41, 0.00, 0.00, 0.00
3100.0, 2327.08, 2476.37, -3740.63, 16443.82, 219.14, -4106.82, 16134.11, 38806.63, 0.00, 0.00, 0.00
3104.0, 2286.43, 2440.61, -3781.89, 16450.03, 181.67, -4151.08, 16144.75, 38983.54, 0.00, 0.00, 0.00
3108.0, 2272.59, 2440.45, -3784.40, 16389.86, 179.35, -4149.24, 16146.54, 39235.82, 0.00, 0.00, 0.00
3112.0, 2311.28, 2475.86, -3741.06, 16354.64, 216.03, -4103.49, 16117.46, 39063.65, 0.00, 0.00, 0.00
3116.0, 2322.48, 2472.13, -3745.35, 16421.78, 215.45, -4110.75, 16122.49, 38812.21, 0.00, 0.00, 0.00
3120.0, 2281.89, 2434.08, -3791.55, 16447.44, 171.28, -4158.65, 16137.85, 38955.31, 0.00, 0.00, 0.00
3124.0, 2277.33, 2433.93, -3796.02, 16401.22, 168.38, -4160.13, 16144.17, 39231.04, 0.00, 0.00, 0.00
3128.0, 2313.72, 2464.93, -3759.72, 16352.54, 203.13, -4118.33, 16114.78, 39145.86, 0.00, 0.00, 0.00
3132.0, 2311.53, 2476.33, -3737.10, 16407.92, 222.00, -4104.88, 16116.46, 38840.74, 0.00, 0.00, 0.00
3136.0, 2284.21, 2446.02, -3775.97, 16458.06, 189.90, -4145.04, 16141.27, 38893.00, 0.00, 0.00, 0.00
3140.0, 2258.87, 2432.38, -3797.29, 16417.02, 172.73, -4161.81, 16156.26, 39185.45, 0.00, 0.00, 0.00
3144.0, 2291.46, 2463.03, -3758.36, 16356.11, 204.38, -4121.13, 16135.63, 39190.50, 0.00, 0.00, 0.00
3148.0, 2328.56, 2484.64, -3730.77, 16394.94, 228.75, -4097.16, 16129.44, 38869.88, 0.00, 0.00, 0.00
3152.0, 2309.09, 2457.46, -3761.53, 16460.25, 201.46, -4129.82, 16152.08, 38855.13, 0.00, 0.00, 0.00
3156.0, 2284.88, 2444.74, -3779.61, 16437.49, 184.02, -4146.36, 16163.91, 39118.86, 0.00, 0.00, 0.00
3160.0, 2290.70, 2458.45, -3761.60, 16370.44, 196.70, -4125.89, 16138.16, 39230.71, 0.00, 0.00, 0.00
3164.0, 2329.79, 2481.98, -3728.05, 16389.33, 226.67, -4096.16, 16109.24, 38919.84, 0.00, 0.00, 0.00
3168.0, 2317.34, 2458.27, -3756.12, 16458.55, 201.75, -4124.95, 16138.92, 38838.82, 0.00, 0.00, 0.00
3172.0, 2276.28, 2431.06, -3791.39, 16438.32, 169.05, -4156.53, 16156.09, 39074.94, 0.00, 0.00, 0.00
3176.0, 2266.96, 2442.44, -3779.26, 16371.78, 179.69, -4140.41, 16142.99, 39244.61, 0.00, 0.00, 0.00
3180.0, 2319.73, 2472.24, -3736.63, 16365.92, 218.44, -4101.54, 16110.09, 38962.66, 0.00, 0.00, 0.00
3184.0, 2324.02, 2459.41, -3748.66, 16441.67, 208.27, -4118.02, 16127.05, 38802.25, 0.00, 0.00, 0.00
3188.0, 2277.78, 2424.23, -3789.83, 16435.60, 167.84, -4157.58, 16143.86, 39024.98, 0.00, 0.00, 0.00
3192.0, 2288.17, 2431.40, -3782.83, 16371.85, 170.95, -4147.66, 16146.45, 39252.52, 0.00, 0.00, 0.00
3196.0, 2323.08, 2453.84, -3753.51, 16344.06, 198.24, -4114.89, 16107.20, 39034.95, 0.00, 0.00, 0.00
3200.0, 2305.54, 2455.43, -3749.06, 16419.21, 204.29, -4118.55, 16116.37, 38803.39, 0.00, 0.00, 0.00
3204.0, 2277.11, 2424.16, -3786.88, 16444.13, 168.85, -4156.87, 16140.35, 38958.78, 0.00, 0.00, 0.00
3208.0, 2265.98, 2423.13, -3791.64, 16390.56, 164.75, -4155.73, 16151.75, 39223.49, 0.00, 0.00, 0.00
3212.0, 2306.25, 2459.38, -3745.35, 16345.94, 204.90, -4109.30, 16123.41, 39060.90, 0.00, 0.00, 0.00
3216.0, 2323.42, 2463.74, -3740.92, 16409.73, 211.18, -4107.96, 16133.04, 38789.20, 0.00, 0.00, 0.00
3220.0, 2286.56, 2426.82, -3784.80, 16442.66, 170.63, -4151.08, 16151.82, 38894.47, 0.00, 0.00, 0.00
3224.0, 2258.38, 2409.43, -3805.70, 16390.06, 148.71, -4165.78, 16159.35, 39182.29, 0.00, 0.00, 0.00
3228.0, 2277.98, 2440.25, -3769.09, 16333.27, 186.77, -4126.24, 16121.11, 39125.14, 0.00, 0.00, 0.00
3232.0, 2313.43, 2458.60, -3747.49, 16393.89, 209.28, -4110.80, 16115.43, 38825.49, 0.00, 0.00, 0.00
3236.0, 2290.18, 2425.59, -3784.42, 16453.90, 176.00, -4152.84, 16133.22, 38862.06, 0.00, 0.00, 0.00
3240.0, 2253.48, 2405.07, -3813.57, 16415.10, 149.64, -4180.29, 16138.14, 39153.46, 0.00, 0.00, 0.00
3244.0, 2275.74, 2426.84, -3782.07, 16347.44, 175.68, -4147.86, 16107.16, 39177.55, 0.00, 0.00, 0.00
3248.0, 2331.76, 2452.93, -3753.33, 16386.58, 205.52, -4120.59, 16096.25, 38844.56, 0.00, 0.00, 0.00
3252.0, 2303.15, 2423.11, -3793.69, 16449.05, 172.56, -4159.84, 16111.52, 38816.46, 0.00, 0.00, 0.00
3256.0, 2247.67, 2406.86, -3812.69, 16426.83, 155.03, -4178.77, 16131.88, 39068.68, 0.00, 0.00, 0.00
3260.0, 2264.59, 2425.88, -3790.25, 16364.67, 172.62, -4152.82, 16120.82, 39186.05, 0.00, 0.00, 0.00
3264.0, 2307.17, 2450.78, -3756.46, 16371.65, 204.52, -4122.58, 16092.76, 38882.51, 0.00, 0.00, 0.00
3268.0, 2300.84, 2433.28, -3779.66, 16440.80, 185.23, -4149.91, 16112.28, 38778.80, 0.00, 0.00, 0.00
3272.0, 2265.33, 2410.77, -3811.02, 16437.00, 157.38, -4180.98, 16129.62, 39008.57, 0.00, 0.00, 0.00
3276.0, 2265.77, 2415.62, -3802.64, 16374.19, 162.70, -4169.29, 16115.00, 39205.34, 0.00, 0.00, 0.00
3280.0, 2309.02, 2447.65, -3759.90, 16364.74, 201.34, -4125.93, 16087.29, 38934.84, 0.00, 0.00, 0.00
3284.0, 2312.80, 2437.10, -3772.30, 16441.52, 191.64, -4143.03, 16103.43, 38770.39, 0.00, 0.00, 0.00
3288.0, 2276.95, 2412.00, -3808.27, 16442.26, 156.98, -4179.02, 16116.79, 38968.12, 0.00, 0.00, 0.00
3292.0, 2264.75, 2417.72, -3801.79, 16383.83, 161.36, -4171.37, 16124.37, 39215.66, 0.00, 0.00, 0.00
3296.0, 2304.76, 2451.36, -3756.48, 16352.83, 198.86, -4125.28, 16096.12, 39011.59, 0.00, 0.00, 0.00
3300.0, 2317.21, 2447.49, -3759.16, 16425.76, 197.19, -4129.93, 16108.83, 38773.48, 0.00, 0.00, 0.00
3304.0, 2282.29, 2406.84, -3801.56, 16443.87, 158.92, -4171.04, 16117.60, 38922.32, 0.00, 0.00, 0.00
3308.0, 2288.95, 2412.31, -3802.03, 16390.51, 158.43, -4167.42, 16121.98, 39178.94, 0.00, 0.00, 0.00
3312.0, 2293.94, 2451.96, -3753.84, 16344.56, 199.51, -4118.33, 16094.42, 39034.26, 0.00, 0.00, 0.00
3316.0, 2313.00, 2456.28, -3746.62, 16412.91, 205.88, -4117.62, 16104.27, 38755.33, 0.00, 0.00, 0.00
3320.0, 2280.66, 2417.39, -3791.35, 16443.46, 168.00, -4164.42, 16114.29, 38849.36, 0.00, 0.00, 0.00
3324.0, 2258.15, 2413.12, -3803.89, 16405.42, 158.07, -4170.99, 16122.94, 39133.39, 0.00, 0.00, 0.00
3328.0, 2284.15, 2440.10, -3768.53, 16349.50, 186.48, -4133.53, 16094.24, 39101.16, 0.00, 0.00, 0.00
3332.0, 2320.58, 2461.24, -3743.63, 16401.26, 211.96, -4113.32, 16092.43, 38779.52, 0.00, 0.00, 0.00
3336.0, 2288.01, 2426.30, -3785.96, 16457.05, 174.28, -4156.80, 16119.38, 38823.48, 0.00, 0.00, 0.00
3340.0, 2259.45, 2410.34, -3806.52, 16424.84, 152.35, -4173.36, 16128.06, 39105.98, 0.00, 0.00, 0.00
3344.0, 2280.95, 2435.11, -3773.67, 16358.30, 178.10, -4140.53, 16105.19, 39147.11, 0.00, 0.00, 0.00
3348.0, 2308.20, 2453.84, -3751.56, 16381.35, 199.67, -4120.41, 16090.77, 38844.96, 0.00, 0.00, 0.00
3352.0, 2293.76, 2432.45, -3781.40, 16445.50, 178.93, -4151.81, 16113.28, 38807.28, 0.00, 0.00, 0.00
3356.0, 2263.43, 2411.66, -3806.35, 16425.09, 155.64, -4176.27, 16128.37, 39066.58, 0.00, 0.00, 0.00
3360.0, 2273.84, 2427.80, -3780.57, 16355.53, 172.73, -4152.04, 16105.19, 39183.90, 0.00, 0.00, 0.00
3364.0, 2316.04, 2451.41, -3747.63, 16362.33, 200.81, -4123.02, 16085.19, 38873.44, 0.00, 0.00, 0.00
3368.0, 2310.25, 2423.82, -3778.32, 16433.52, 174.03, -4158.23, 16101.24, 38781.01, 0.00, 0.00, 0.00
3372.0, 2288.39, 2403.37, -3811.33, 16422.47, 143.95, -4186.75, 16109.88, 39002.90, 0.00, 0.00, 0.00
3376.0, 2250.66, 2410.26, -3799.26, 16357.03, 149.82, -4175.06, 16102.38, 39214.14, 0.00, 0.00, 0.00
3380.0, 2291.81, 2443.22, -3757.48, 16335.97, 188.87, -4134.78, 16068.51, 38954.46, 0.00, 0.00, 0.00
3384.0, 2309.67, 2440.94, -3763.79, 16415.99, 187.15, -4143.72, 16094.40, 38758.01, 0.00, 0.00, 0.00
3388.0, 2268.03, 2404.58, -3806.81, 16421.67, 149.29, -4184.29, 16108.86, 38940.96, 0.00, 0.00, 0.00
3392.0, 2259.07, 2408.15, -3803.22, 16365.90, 152.80, -4177.00, 16106.82, 39191.52, 0.00, 0.00, 0.00
3396.0, 2302.65, 2443.78, -3754.36, 16333.78, 190.28, -4129.91, 16072.94, 39002.86, 0.00, 0.00, 0.00
3400.0, 2317.88, 2441.06, -3755.90, 16408.15, 189.99, -4134.33, 16090.55, 38755.33, 0.00, 0.00, 0.00
3404.0, 2281.58, 2406.77, -3795.64, 16436.64, 156.64, -4174.99, 16106.73, 38883.34, 0.00, 0.00, 0.00
3408.0, 2270.38, 2407.60, -3797.47, 16386.58, 153.31, -4173.54, 16112.77, 39146.80, 0.00, 0.00, 0.00
3412.0, 2304.80, 2436.59, -3756.48, 16333.72, 185.41, -4133.78, 16077.81, 39044.68, 0.00, 0.00, 0.00
3416.0, 2322.26, 2441.79, -3747.81, 16396.23, 196.38, -4129.31, 16079.75, 38753.90, 0.00, 0.00, 0.00
3420.0, 2284.53, 2401.99, -3794.54, 16431.04, 156.04, -4174.32, 16093.93, 38840.22, 0.00, 0.00, 0.00
3424.0, 2275.07, 2397.85, -3801.92, 16389.15, 147.05, -4180.31, 16106.96, 39121.54, 0.00, 0.00, 0.00
3428.0, 2315.82, 2426.08, -3765.51, 16332.73, 176.67, -4139.68, 16082.10, 39097.22, 0.00, 0.00, 0.00
3432.0, 2319.98, 2451.23, -3735.02, 16381.39, 204.74, -4113.95, 16078.59, 38768.83, 0.00, 0.00, 0.00
3436.0, 2293.56, 2427.69, -3767.97, 16442.84, 177.65, -4152.82, 16106.49, 38790.42, 0.00, 0.00, 0.00
3440.0, 2264.21, 2408.04, -3797.29, 16408.75, 152.86, -4177.85, 16116.52, 39083.61, 0.00, 0.00, 0.00
3444.0, 2281.29, 2432.79, -3768.37, 16348.80, 178.72, -4144.44, 16101.03, 39152.61, 0.00, 0.00, 0.00
3448.0, 2317.74, 2461.89, -3736.68, 16373.95, 209.17, -4114.64, 16086.44, 38840.94, 0.00, 0.00, 0.00
3452.0, 2309.00, 2447.43, -3760.08, 16449.05, 191.64, -4138.36, 16114.11, 38773.48, 0.00, 0.00, 0.00
3456.0, 2271.74, 2422.21, -3791.59, 16426.27, 164.51, -4165.36, 16129.42, 39025.45, 0.00, 0.00, 0.00
3460.0, 2270.36, 2431.24, -3779.61, 16357.18, 174.70, -4148.82, 16114.02, 39184.75, 0.00, 0.00, 0.00
3464.0, 2313.16, 2465.20, -3737.19, 16363.71, 214.22, -4106.82, 16084.69, 38881.71, 0.00, 0.00, 0.00
3468.0, 2305.38, 2450.89, -3754.60, 16442.30, 199.78, -4130.29, 16104.32, 38748.78, 0.00, 0.00, 0.00
3472.0, 2260.48, 2415.42, -3796.42, 16433.14, 163.30, -4171.48, 16121.02, 38981.80, 0.00, 0.00, 0.00
3476.0, 2257.21, 2418.41, -3788.46, 16368.25, 164.98, -4160.91, 16117.31, 39211.69, 0.00, 0.00, 0.00
3480.0, 2302.30, 2459.00, -3738.49, 16347.46, 209.61, -4111.00, 16083.82, 38964.25, 0.00, 0.00, 0.00
3484.0, 2315.37, 2459.38, -3740.54, 16429.63, 208.18, -4116.65, 16111.72, 38755.20, 0.00, 0.00, 0.00
3488.0, 2279.68, 2427.62, -3778.54, 16443.64, 173.05, -4155.10, 16132.01, 38934.82, 0.00, 0.00, 0.00
3492.0, 2289.02, 2429.03, -3778.67, 16387.92, 175.53, -4147.57, 16130.76, 39184.62, 0.00, 0.00, 0.00
3496.0, 2312.47, 2458.33, -3738.08, 16343.30, 211.00, -4105.66, 16096.81, 39002.36, 0.00, 0.00, 0.00
3500.0, 2303.64, 2458.85, -3732.32, 16417.40, 215.94, -4110.28, 16105.19, 38748.47, 0.00, 0.00, 0.00
3504.0, 2273.35, 2422.71, -3780.60, 16442.75, 173.87, -4156.80, 16119.16, 38870.98, 0.00, 0.00, 0.00
3508.0, 2258.51, 2422.33, -3786.27, 16398.16, 168.98, -4157.25, 16131.75, 39136.94, 0.00, 0.00, 0.00
3512.0, 2283.52, 2445.97, -3752.10, 16344.51, 196.14, -4121.80, 16103.18, 39061.04, 0.00, 0.00, 0.00
3516.0, 2306.23, 2448.92, -3744.27, 16392.05, 201.81, -4116.43, 16100.90, 38779.09, 0.00, 0.00, 0.00
3520.0, 2269.75, 2411.86, -3786.09, 16434.41, 166.50, -4159.17, 16118.02, 38840.13, 0.00, 0.00, 0.00
3524.0, 2251.49, 2398.92, -3802.59, 16392.63, 150.23, -4174.64, 16118.92, 39118.19, 0.00, 0.00, 0.00
3528.0, 2277.93, 2425.81, -3767.54, 16333.40, 180.09, -4139.23, 16093.19, 39114.95, 0.00, 0.00, 0.00
3532.0, 2321.23, 2440.90, -3743.00, 16369.14, 201.46, -4119.69, 16077.56, 38786.73, 0.00, 0.00, 0.00
3536.0, 2299.10, 2407.64, -3779.70, 16426.59, 165.60, -4159.97, 16096.07, 38764.67, 0.00, 0.00, 0.00
3540.0, 2272.46, 2405.74, -3793.34, 16407.59, 156.91, -4169.70, 16120.46, 39036.83, 0.00, 0.00, 0.00
3544.0, 2287.72, 2446.04, -3755.52, 16353.79, 193.92, -4129.73, 16111.43, 39132.92, 0.00, 0.00, 0.00
3548.0, 2319.04, 2469.80, -3727.42, 16380.39, 219.18, -4103.15, 16098.13, 38837.56, 0.00, 0.00, 0.00
3552.0, 2299.84, 2436.30, -3762.00, 16447.42, 189.63, -4139.57, 16117.55, 38777.73, 0.00, 0.00, 0.00
3556.0, 2263.09, 2410.79, -3792.15, 16429.58, 159.86, -4164.71, 16138.27, 39031.91, 0.00, 0.00, 0.00
3560.0, 2268.75, 2431.22, -3769.69, 16365.25, 177.88, -4135.23, 16130.90, 39191.55, 0.00, 0.00, 0.00
3564.0, 2317.34, 2473.60, -3721.03, 16370.10, 224.08, -4084.13, 16118.87, 38898.61, 0.00, 0.00, 0.00
3568.0, 2327.67, 2458.36, -3743.16, 16449.86, 209.28, -4109.41, 16145.36, 38765.59, 0.00, 0.00, 0.00
3572.0, 2278.78, 2427.18, -3781.83, 16444.71, 176.31, -4145.47, 16159.62, 38979.12, 0.00, 0.00, 0.00
3576.0, 2248.45, 2436.03, -3765.75, 16384.21, 185.41, -4130.27, 16157.94, 39204.71, 0.00, 0.00, 0.00
3580.0, 2305.45, 2472.64, -3715.78, 16371.45, 228.35, -4081.14, 16127.34, 38962.40, 0.00, 0.00, 0.00
3584.0, 2317.72, 2466.02, -3723.06, 16445.97, 224.23, -4092.63, 16140.17, 38741.67, 0.00, 0.00, 0.00
3588.0, 2277.13, 2430.44, -3767.41, 16459.22, 181.67, -4137.44, 16155.08, 38909.80, 0.00, 0.00, 0.00
3592.0, 2261.68, 2426.13, -3773.53, 16400.10, 174.79, -4139.01, 16153.29, 39182.61, 0.00, 0.00, 0.00
3596.0, 2293.91, 2456.48, -3735.02, 16361.48, 208.94, -4098.46, 16117.35, 39046.51, 0.00, 0.00, 0.00
3600.0, 2315.62, 2467.65, -3725.52, 16427.71, 221.48, -4093.97, 16124.21, 38774.02, 0.00, 0.00, 0.00
3604.0, 2287.66, 2439.51, -3761.44, 16465.43, 189.41, -4131.94, 16146.77, 38880.95, 0.00, 0.00, 0.00
3608.0, 2264.54, 2432.34, -3772.82, 16414.85, 178.39, -4139.68, 16153.90, 39163.36, 0.00, 0.00, 0.00
3612.0, 2300.11, 2465.75, -3729.97, 16360.83, 215.56, -4094.26, 16124.10, 39079.03, 0.00, 0.00, 0.00
3616.0, 2324.25, 2476.15, -3716.74, 16416.71, 228.68, -4082.57, 16123.23, 38770.51, 0.00, 0.00, 0.00
3620.0, 2293.20, 2445.06, -3753.17, 16471.36, 197.39, -4122.02, 16149.60, 38823.05, 0.00, 0.00, 0.00
3624.0, 2266.56, 2431.49, -3771.68, 16434.57, 181.29, -4138.25, 16169.27, 39110.25, 0.00, 0.00, 0.00
3628.0, 2291.39, 2461.44, -3737.17, 16380.88, 209.55, -4100.14, 16148.64, 39132.47, 0.00, 0.00, 0.00
3632.0, 2324.92, 2481.00, -3710.30, 16418.18, 232.32, -4077.87, 16137.65, 38819.97, 0.00, 0.00, 0.00
3636.0, 2304.29, 2455.20, -3739.92, 16472.65, 205.68, -4112.70, 16156.76, 38801.38, 0.00, 0.00, 0.00
3640.0, 2281.26, 2439.76, -3763.72, 16450.64, 184.07, -4132.90, 16177.21, 39062.09, 0.00, 0.00, 0.00
3644.0, 2309.63, 2452.17, -3750.82, 16386.40, 192.69, -4112.70, 16163.98, 39185.27, 0.00, 0.00, 0.00
3648.0, 2313.34, 2475.88, -3720.11, 16385.30, 221.42, -4084.16, 16138.07, 38884.52, 0.00, 0.00, 0.00
3652.0, 2304.04, 2463.79, -3727.76, 16463.38, 216.28, -4099.85, 16164.94, 38779.23, 0.00, 0.00, 0.00
3656.0, 2272.97, 2437.68, -3757.82, 16453.88, 187.51, -4127.18, 16186.64, 39018.07, 0.00, 0.00, 0.00
3660.0, 2278.60, 2451.23, -3740.68, 16392.12, 201.03, -4105.34, 16175.78, 39205.16, 0.00, 0.00, 0.00
3664.0, 2325.10, 2488.26, -3695.37, 16389.21, 241.60, -4059.32, 16147.10, 38921.52, 0.00, 0.00, 0.00
3668.0, 2318.55, 2466.05, -3716.92, 16455.76, 221.10, -4084.94, 16164.07, 38774.26, 0.00, 0.00, 0.00
3672.0, 2283.70, 2434.75, -3752.72, 16455.87, 188.29, -4119.34, 16170.39, 38969.44, 0.00, 0.00, 0.00
3676.0, 2278.11, 2440.97, -3745.46, 16396.93, 192.14, -4108.38, 16171.98, 39198.45, 0.00, 0.00, 0.00
3680.0, 2312.29, 2471.75, -3706.61, 16365.01, 224.61, -4070.34, 16145.13, 39005.71, 0.00, 0.00, 0.00
3684.0, 2324.60, 2473.02, -3707.42, 16441.32, 229.75, -4075.37, 16158.25, 38775.65, 0.00, 0.00, 0.00
3688.0, 2285.78, 2441.44, -3749.62, 16469.14, 196.09, -4115.16, 16174.24, 38929.56, 0.00, 0.00, 0.00
3692.0, 2263.18, 2436.70, -3758.13, 16413.02, 189.79, -4119.52, 16173.48, 39196.49, 0.00, 0.00, 0.00
3696.0, 2297.25, 2462.74, -3719.64, 16365.43, 220.72, -4083.91, 16132.95, 39066.33, 0.00, 0.00, 0.00
3700.0, 2318.75, 2468.12, -3712.65, 16435.01, 228.99, -4080.36, 16138.29, 38787.38, 0.00, 0.00, 0.00
3704.0, 2279.34, 2432.36, -3756.52, 16475.65, 191.06, -4123.45, 16149.78, 38886.63, 0.00, 0.00, 0.00
3708.0, 2271.94, 2430.75, -3761.55, 16432.64, 186.55, -4126.15, 16159.84, 39143.91, 0.00, 0.00, 0.00
3712.0, 2315.60, 2463.59, -3726.86, 16381.10, 218.00, -4085.99, 16144.66, 39097.47, 0.00, 0.00, 0.00
3716.0, 2307.88, 2478.74, -3704.40, 16428.58, 238.85, -4072.24, 16138.94, 38797.40, 0.00, 0.00, 0.00
3720.0, 2283.07, 2445.64, -3741.15, 16480.79, 205.70, -4115.34, 16155.13, 38828.98, 0.00, 0.00, 0.00
3724.0, 2258.96, 2422.79, -3770.63, 16441.23, 179.75, -4141.31, 16162.95, 39109.98, 0.00, 0.00, 0.00
3728.0, 2274.04, 2440.21, -3743.63, 16374.46, 199.67, -4112.72, 16138.43, 39155.34, 0.00, 0.00, 0.00
3732.0, 2309.74, 2466.09, -3717.27, 16408.17, 226.24, -4088.38, 16128.33, 38832.00, 0.00, 0.00, 0.00
3736.0, 2287.90, 2440.10, -3754.15, 16472.47, 194.26, -4128.03, 16139.43, 38800.75, 0.00, 0.00, 0.00
3740.0, 2255.96, 2416.92, -3782.16, 16445.18, 168.04, -4155.28, 16144.20, 39064.01, 0.00, 0.00, 0.00
3744.0, 2268.50, 2432.96, -3760.17, 16377.41, 184.76, -4129.42, 16131.14, 39183.14, 0.00, 0.00, 0.00
3748.0, 2307.17, 2459.85, -3723.85, 16384.39, 218.71, -4093.90, 16104.48, 38878.13, 0.00, 0.00, 0.00
3752.0, 2297.40, 2441.84, -3747.43, 16460.05, 199.22, -4118.91, 16126.94, 38761.07, 0.00, 0.00, 0.00
3756.0, 2268.70, 2416.42, -3779.17, 16457.03, 170.83, -4149.51, 16150.23, 38992.13, 0.00, 0.00, 0.00
3760.0, 2260.61, 2422.88, -3772.35, 16394.67, 173.92, -4140.24, 16139.17, 39186.09, 0.00, 0.00, 0.00
3764.0, 2302.70, 2453.33, -3730.26, 16379.45, 211.65, -4100.94, 16099.87, 38927.46, 0.00, 0.00, 0.00
3768.0, 2306.74, 2442.20, -3742.15, 16456.65, 202.35, -4117.91, 16115.07, 38742.25, 0.00, 0.00, 0.00
3772.0, 2261.86, 2407.15, -3783.86, 16460.05, 161.83, -4158.65, 16133.58, 38934.12, 0.00, 0.00, 0.00
3776.0, 2252.12, 2409.88, -3780.40, 16398.33, 159.52, -4150.63, 16137.15, 39188.44, 0.00, 0.00, 0.00
3780.0, 2309.92, 2448.59, -3734.55, 16363.71, 199.80, -4102.37, 16104.32, 38999.93, 0.00, 0.00, 0.00
3784.0, 2323.55, 2454.18, -3732.65, 16442.86, 210.20, -4100.47, 16117.75, 38749.90, 0.00, 0.00, 0.00
3788.0, 2266.42, 2431.36, -3759.43, 16480.34, 188.54, -4131.00, 16144.04, 38885.78, 0.00, 0.00, 0.00
3792.0, 2256.70, 2430.82, -3763.45, 16431.95, 183.02, -4130.71, 16157.81, 39153.91, 0.00, 0.00, 0.00
3796.0, 2288.19, 2456.99, -3726.91, 16377.97, 210.24, -4093.03, 16127.99, 39057.91, 0.00, 0.00, 0.00
3800.0, 2308.31, 2467.54, -3716.25, 16431.73, 221.26, -4083.53, 16122.20, 38769.41, 0.00, 0.00, 0.00
3804.0, 2276.06, 2437.10, -3755.74, 16469.79, 188.22, -4124.41, 16149.63, 38849.01, 0.00, 0.00, 0.00
3808.0, 2250.22, 2423.44, -3774.81, 16426.27, 172.80, -4139.39, 16162.34, 39144.96, 0.00, 0.00, 0.00
3812.0, 2276.77, 2452.48, -3732.65, 16367.85, 205.46, -4097.86, 16124.75, 39115.35, 0.00, 0.00, 0.00
3816.0, 2314.61, 2475.93, -3705.00, 16419.77, 231.47, -4072.64, 16123.56, 38784.61, 0.00, 0.00, 0.00
3820.0, 2283.86, 2442.53, -3746.09, 16475.92, 196.16, -4114.71, 16152.06, 38809.60, 0.00, 0.00, 0.00
3824.0, 2256.92, 2419.60, -3770.18, 16438.50, 172.53, -4137.89, 16159.80, 39086.96, 0.00, 0.00, 0.00
3828.0, 2271.92, 2437.68, -3744.68, 16370.35, 192.11, -4109.64, 16135.52, 39164.01, 0.00, 0.00, 0.00
3832.0, 2302.21, 2458.58, -3717.61, 16390.18, 219.05, -4084.58, 16112.54, 38849.75, 0.00, 0.00, 0.00
3836.0, 2293.38, 2437.66, -3742.08, 16462.91, 199.49, -4113.53, 16136.13, 38781.21, 0.00, 0.00, 0.00
3840.0, 2264.77, 2413.05, -3769.98, 16450.03, 174.43, -4139.63, 16153.34, 39023.93, 0.00, 0.00, 0.00
3844.0, 2290.23, 2427.51, -3751.32, 16393.28, 190.24, -4116.74, 16140.37, 39153.57, 0.00, 0.00, 0.00
3848.0, 2322.73, 2450.51, -3721.43, 16393.28, 214.64, -4086.37, 16114.45, 38863.38, 0.00, 0.00, 0.00
3852.0, 2285.15, 2432.38, -3740.72, 16466.93, 198.84, -4115.76, 16139.08, 38753.41, 0.00, 0.00, 0.00
3856.0, 2252.25, 2403.84, -3777.82, 16451.78, 167.28, -4151.30, 16153.69, 38991.32, 0.00, 0.00, 0.00
3860.0, 2254.13, 2415.20, -3765.91, 16388.59, 178.77, -4135.81, 16138.25, 39188.38, 0.00, 0.00, 0.00
3864.0, 2297.45, 2448.25, -3722.48, 16377.19, 216.95, -4092.22, 16108.48, 38942.06, 0.00, 0.00, 0.00
3868.0, 2306.43, 2439.87, -3731.31, 16455.40, 210.02, -4104.90, 16131.32, 38749.27, 0.00, 0.00, 0.00
3872.0, 2271.09, 2415.66, -3765.29, 16469.53, 181.25, -4139.23, 16154.57, 38920.15, 0.00, 0.00, 0.00
3876.0, 2259.27, 2417.99, -3765.62, 16411.28, 177.99, -4136.73, 16160.20, 39168.04, 0.00, 0.00, 0.00
3880.0, 2292.93, 2450.04, -3726.28, 16373.93, 211.67, -4095.69, 16120.21, 38995.43, 0.00, 0.00, 0.00
3884.0, 2308.26, 2452.68, -3723.82, 16441.99, 216.72, -4098.57, 16126.98, 38736.02, 0.00, 0.00, 0.00
3888.0, 2273.80, 2424.85, -3759.21, 16474.93, 185.88, -4135.21, 16149.29, 38853.23, 0.00, 0.00, 0.00
3892.0, 2255.31, 2420.83, -3769.31, 16422.47, 175.04, -4140.48, 16157.85, 39140.23, 0.00, 0.00, 0.00
3896.0, 2287.90, 2456.88, -3725.72, 16366.62, 213.93, -4096.20, 16127.10, 39046.71, 0.00, 0.00, 0.00
3900.0, 2310.28, 2465.15, -3714.70, 16423.53, 228.08, -4090.97, 16127.72, 38750.52, 0.00, 0.00, 0.00
3904.0, 2277.93, 2431.67, -3754.29, 16464.16, 192.81, -4132.21, 16153.74, 38814.79, 0.00, 0.00, 0.00
3908.0, 2253.59, 2417.79, -3769.11, 16419.14, 177.32, -4146.87, 16156.04, 39098.52, 0.00, 0.00, 0.00
3912.0, 2286.43, 2444.59, -3732.61, 16361.70, 209.08, -4109.64, 16127.86, 39091.66, 0.00, 0.00, 0.00
3916.0, 2341.50, 2466.92, -3709.92, 16409.11, 233.53, -4088.38, 16126.27, 38783.92, 0.00, 0.00, 0.00
3920.0, 2290.05, 2437.46, -3747.43, 16462.75, 199.56, -4127.56, 16151.37, 38791.47, 0.00, 0.00, 0.00
3924.0, 2247.31, 2414.64, -3768.46, 16431.91, 178.17, -4153.02, 16159.62, 39072.77, 0.00, 0.00, 0.00
3928.0, 2270.51, 2433.17, -3742.89, 16369.03, 199.58, -4123.63, 16136.04, 39154.09, 0.00, 0.00, 0.00
3932.0, 2313.41, 2457.93, -3713.27, 16391.83, 228.10, -4096.16, 16107.92, 38847.84, 0.00, 0.00, 0.00
3936.0, 2309.63, 2442.69, -3733.59, 16469.03, 215.94, -4119.67, 16127.54, 38743.02, 0.00, 0.00, 0.00
3940.0, 2269.24, 2418.10, -3766.25, 16454.82, 185.92, -4152.02, 16142.41, 38994.72, 0.00, 0.00, 0.00
3944.0, 2273.98, 2431.60, -3749.08, 16384.07, 199.80, -4131.97, 16125.31, 39156.79, 0.00, 0.00, 0.00
3948.0, 2314.50, 2459.99, -3711.53, 16384.03, 230.47, -4095.42, 16108.48, 38878.67, 0.00, 0.00, 0.00
3952.0, 2308.62, 2442.53, -3729.77, 16461.46, 212.70, -4117.62, 16129.62, 38730.63, 0.00, 0.00, 0.00
3956.0, 2275.70, 2404.78, -3770.99, 16452.47, 172.29, -4158.34, 16142.14, 38951.78, 0.00, 0.00, 0.00
3960.0, 2269.08, 2412.07, -3763.12, 16391.54, 180.13, -4146.40, 16136.19, 39161.62, 0.00, 0.00, 0.00
3964.0, 2307.59, 2447.09, -3722.24, 16377.21, 218.56, -4104.41, 16110.85, 38927.66, 0.00, 0.00, 0.00
3968.0, 2312.71, 2439.36, -3733.23, 16446.12, 210.26, -4119.85, 16119.14, 38726.23, 0.00, 0.00, 0.00
3972.0, 2276.77, 2406.79, -3771.23, 16461.68, 175.17, -4158.63, 16129.49, 38894.54, 0.00, 0.00, 0.00
3976.0, 2264.63, 2409.00, -3772.50, 16404.53, 172.91, -4153.22, 16133.33, 39146.35, 0.00, 0.00, 0.00
3980.0, 2302.39, 2443.92, -3731.18, 16366.17, 207.16, -4110.89, 16105.62, 38991.90, 0.00, 0.00, 0.00
3984.0, 2312.82, 2447.69, -3729.52, 16432.55, 213.53, -4113.46, 16115.38, 38728.66, 0.00, 0.00, 0.00
3988.0, 2276.91, 2416.40, -3767.30, 16466.15, 181.07, -4153.67, 16138.96, 38842.88, 0.00, 0.00, 0.00
3992.0, 2251.16, 2406.70, -3786.07, 16409.06, 165.38, -4165.98, 16139.37, 39133.10, 0.00, 0.00, 0.00
3996.0, 2283.48, 2439.76, -3745.01, 16357.54, 198.98, -4122.71, 16109.86, 39053.46, 0.00, 0.00, 0.00
4000.0, 2311.82, 2453.13, -3726.17, 16415.37, 215.92, -4107.65, 16109.04, 38746.99, 0.00, 0.00, 0.00
4004.0, 2287.46, 2423.11, -3758.76, 16473.88, 187.80, -4142.34, 16129.29, 38789.24, 0.00, 0.00, 0.00
4008.0, 2257.82, 2405.92, -3781.78, 16428.73, 166.97, -4160.29, 16138.27, 39072.03, 0.00, 0.00, 0.00
4012.0, 2299.97, 2433.93, -3747.96, 16364.56, 196.83, -4122.47, 16111.63, 39088.82, 0.00, 0.00, 0.00
4016.0, 2301.65, 2453.28, -3724.87, 16400.21, 219.00, -4103.31, 16103.34, 38775.89, 0.00, 0.00, 0.00
4020.0, 2268.14, 2420.40, -3759.16, 16459.69, 188.00, -4144.91, 16118.54, 38779.40, 0.00, 0.00, 0.00
4024.0, 2252.36, 2409.76, -3776.46, 16433.00, 172.31, -4158.07, 16132.39, 39034.73, 0.00, 0.00, 0.00
4028.0, 2274.85, 2437.82, -3743.78, 16381.12, 199.29, -4122.69, 16125.58, 39130.73, 0.00, 0.00, 0.00
4032.0, 2312.65, 2464.68, -3708.09, 16396.12, 230.20, -4089.18, 16104.72, 38833.96, 0.00, 0.00, 0.00
4036.0, 2300.51, 2446.29, -3733.01, 16472.92, 210.69, -4115.22, 16128.10, 38749.12, 0.00, 0.00, 0.00
4040.0, 2264.54, 2422.77, -3764.01, 16458.39, 181.67, -4143.70, 16136.48, 38990.36, 0.00, 0.00, 0.00
4044.0, 2267.90, 2435.22, -3745.79, 16397.82, 193.36, -4124.81, 16123.74, 39157.33, 0.00, 0.00, 0.00
4048.0, 2304.62, 2464.03, -3708.42, 16391.18, 225.73, -4089.41, 16100.45, 38888.75, 0.00, 0.00, 0.00
4052.0, 2301.40, 2450.49, -3725.39, 16464.18, 213.77, -4108.90, 16122.11, 38733.14, 0.00, 0.00, 0.00
4056.0, 2261.39, 2419.71, -3761.22, 16462.91, 180.51, -4144.08, 16135.32, 38941.12, 0.00, 0.00, 0.00
4060.0, 2259.54, 2428.74, -3749.66, 16402.85, 187.60, -4129.51, 16127.99, 39156.86, 0.00, 0.00, 0.00
4064.0, 2302.92, 2455.16, -3709.45, 16375.22, 216.50, -4091.24, 16107.38, 38945.48, 0.00, 0.00, 0.00
4068.0, 2317.56, 2440.50, -3718.77, 16440.04, 206.87, -4104.63, 16117.24, 38712.19, 0.00, 0.00, 0.00
4072.0, 2279.90, 2415.80, -3755.72, 16458.73, 178.08, -4140.26, 16137.98, 38859.09, 0.00, 0.00, 0.00
4076.0, 2260.16, 2428.03, -3756.57, 16410.87, 184.56, -4135.03, 16150.52, 39141.77, 0.00, 0.00, 0.00
4080.0, 2309.23, 2461.98, -3717.09, 16369.61, 220.86, -4090.75, 16116.84, 39022.52, 0.00, 0.00, 0.00
4084.0, 2332.85, 2469.15, -3708.31, 16439.64, 228.77, -4082.52, 16129.60, 38745.36, 0.00, 0.00, 0.00
4088.0, 2270.45, 2436.74, -3738.98, 16480.90, 198.46, -4122.27, 16148.00, 38837.85, 0.00, 0.00, 0.00
4092.0, 2252.23, 2425.57, -3754.11, 16425.98, 183.15, -4133.71, 16152.24, 39117.81, 0.00, 0.00, 0.00
4096.0, 2285.26, 2458.02, -3718.01, 16372.25, 217.88, -4094.53, 16129.42, 39075.74, 0.00, 0.00, 0.00
4100.0, 2316.65, 2471.12, -3702.72, 16431.88, 235.25, -4080.76, 16127.59, 38773.39, 0.00, 0.00, 0.00
4104.0, 2283.48, 2436.43, -3745.03, 16483.45, 199.40, -4124.08, 16143.12, 38809.27, 0.00, 0.00, 0.00
4108.0, 2250.26, 2417.83, -3768.66, 16444.31, 175.10, -4146.23, 16151.15, 39094.61, 0.00, 0.00, 0.00
4112.0, 2273.75, 2443.65, -3733.32, 16383.85, 204.70, -4108.05, 16127.16, 39119.69, 0.00, 0.00, 0.00
4116.0, 2313.41, 2466.92, -3705.16, 16414.23, 232.73, -4081.83, 16115.96, 38793.55, 0.00, 0.00, 0.00
4120.0, 2292.62, 2446.24, -3735.40, 16476.61, 207.38, -4115.65, 16136.77, 38761.63, 0.00, 0.00, 0.00
4124.0, 2255.80, 2425.86, -3764.95, 16451.35, 185.03, -4144.44, 16153.96, 39034.01, 0.00, 0.00, 0.00
4128.0, 2273.26, 2448.21, -3736.79, 16388.99, 209.15, -4114.04, 16143.28, 39151.80, 0.00, 0.00, 0.00
4132.0, 2315.39, 2473.29, -3700.98, 16396.93, 237.71, -4079.91, 16119.29, 38850.88, 0.00, 0.00, 0.00
4136.0, 2302.92, 2451.70, -3724.78, 16465.68, 213.44, -4107.36, 16139.39, 38751.20, 0.00, 0.00, 0.00
4140.0, 2266.33, 2424.40, -3758.92, 16447.64, 180.45, -4139.90, 16151.62, 38969.66, 0.00, 0.00, 0.00
4144.0, 2264.37, 2433.08, -3747.99, 16382.02, 189.34, -4125.39, 16144.89, 39159.36, 0.00, 0.00, 0.00
4148.0, 2304.04, 2462.98, -3707.01, 16370.17, 226.60, -4085.70, 16118.18, 38904.26, 0.00, 0.00, 0.00
4152.0, 2314.70, 2454.98, -3713.09, 16449.95, 223.58, -4095.85, 16141.69, 38722.12, 0.00, 0.00, 0.00
4156.0, 2278.80, 2425.81, -3750.89, 16459.22, 190.57, -4129.82, 16159.89, 38905.31, 0.00, 0.00, 0.00
4160.0, 2269.69, 2433.30, -3742.35, 16408.17, 194.19, -4120.12, 16160.91, 39138.64, 0.00, 0.00, 0.00
4164.0, 2308.13, 2464.30, -3699.82, 16386.51, 232.73, -4078.59, 16129.02, 38934.86, 0.00, 0.00, 0.00
4168.0, 2321.43, 2454.91, -3711.60, 16459.60, 223.76, -4092.36, 16138.96, 38711.72, 0.00, 0.00, 0.00
4172.0, 2292.44, 2414.30, -3761.04, 16478.35, 178.97, -4138.00, 16154.14, 38871.74, 0.00, 0.00, 0.00
4176.0, 2244.63, 2410.66, -3763.16, 16425.71, 173.32, -4139.03, 16155.42, 39157.08, 0.00, 0.00, 0.00
4180.0, 2286.18, 2452.95, -3711.69, 16387.58, 216.68, -4085.85, 16123.16, 39032.94, 0.00, 0.00, 0.00
4184.0, 2309.74, 2459.27, -3704.80, 16446.90, 221.15, -4081.25, 16125.96, 38753.27, 0.00, 0.00, 0.00
4188.0, 2284.15, 2428.58, -3742.42, 16490.16, 185.94, -4119.36, 16150.16, 38838.21, 0.00, 0.00, 0.00
4192.0, 2260.61, 2415.44, -3756.46, 16442.03, 170.72, -4131.61, 16154.81, 39115.06, 0.00, 0.00, 0.00
4196.0, 2288.08, 2443.81, -3717.70, 16381.86, 202.46, -4092.07, 16131.05, 39076.41, 0.00, 0.00, 0.00
4200.0, 2321.07, 2457.60, -3697.45, 16425.16, 221.95, -4076.24, 16125.53, 38762.64, 0.00, 0.00, 0.00
4204.0, 2293.58, 2418.03, -3738.57, 16478.78, 185.05, -4121.08, 16137.83, 38775.78, 0.00, 0.00, 0.00
4208.0, 2261.86, 2397.18, -3761.11, 16439.19, 161.11, -4141.26, 16144.46, 39046.53, 0.00, 0.00, 0.00
4212.0, 2281.40, 2420.83, -3731.33, 16380.83, 185.41, -4110.64, 16128.04, 39088.26, 0.00, 0.00, 0.00
4216.0, 2309.00, 2438.04, -3711.95, 16402.22, 201.88, -4093.52, 16112.70, 38774.66, 0.00, 0.00, 0.00
4220.0, 2286.87, 2409.14, -3748.12, 16469.46, 172.80, -4130.56, 16129.49, 38727.91, 0.00, 0.00, 0.00
4224.0, 2253.68, 2390.50, -3774.49, 16450.35, 151.68, -4152.53, 16140.73, 38969.10, 0.00, 0.00, 0.00
4228.0, 2263.02, 2411.73, -3750.56, 16392.34, 173.00, -4124.59, 16134.03, 39098.07, 0.00, 0.00, 0.00
4232.0, 2303.10, 2442.96, -3712.67, 16400.66, 207.07, -4090.86, 16104.54, 38798.85, 0.00, 0.00, 0.00
4236.0, 2289.00, 2420.25, -3741.10, 16471.74, 184.71, -4123.58, 16115.09, 38689.71, 0.00, 0.00, 0.00
4240.0, 2249.19, 2390.36, -3779.84, 16462.46, 150.38, -4158.59, 16125.40, 38923.04, 0.00, 0.00, 0.00
4244.0, 2268.01, 2403.55, -3768.66, 16400.10, 160.55, -4139.59, 16123.79, 39139.09, 0.00, 0.00, 0.00
4248.0, 2286.45, 2430.39, -3734.13, 16375.60, 192.54, -4104.05, 16090.77, 38895.57, 0.00, 0.00, 0.00
4252.0, 2266.56, 2419.82, -3742.60, 16448.42, 187.20, -4119.78, 16113.84, 38709.55, 0.00, 0.00, 0.00
4256.0, 2235.04, 2390.54, -3782.61, 16460.45, 151.30, -4159.86, 16134.36, 38891.43, 0.00, 0.00, 0.00
4260.0, 2234.46, 2400.44, -3774.74, 16404.68, 155.77, -4149.71, 16135.10, 39138.26, 0.00, 0.00, 0.00
4264.0, 2280.41, 2439.45, -3727.29, 16375.63, 198.91, -4100.85, 16104.61, 38952.79, 0.00, 0.00, 0.00
4268.0, 2296.37, 2441.39, -3725.54, 16445.05, 204.94, -4101.12, 16122.45, 38695.20, 0.00, 0.00, 0.00
4272.0, 2255.43, 2404.85, -3768.44, 16469.37, 164.87, -4143.66, 16136.80, 38825.07, 0.00, 0.00, 0.00
4276.0, 2238.77, 2397.47, -3773.62, 16423.48, 154.25, -4149.06, 16141.69, 39097.11, 0.00, 0.00, 0.00
4280.0, 2273.31, 2424.45, -3731.62, 16376.61, 186.01, -4109.06, 16107.38, 39009.43, 0.00, 0.00, 0.00
4284.0, 2298.14, 2435.20, -3721.23, 16433.25, 197.48, -4102.15, 16110.15, 38724.13, 0.00, 0.00, 0.00
4288.0, 2270.91, 2407.35, -3754.53, 16477.44, 167.37, -4135.41, 16129.42, 38781.10, 0.00, 0.00, 0.00
4292.0, 2244.56, 2399.97, -3769.15, 16446.53, 156.10, -4146.61, 16143.37, 39063.09, 0.00, 0.00, 0.00
4296.0, 2271.56, 2429.72, -3732.50, 16386.13, 189.88, -4108.34, 16118.36, 39059.09, 0.00, 0.00, 0.00
4300.0, 2314.03, 2455.65, -3699.12, 16432.51, 223.56, -4077.52, 16119.18, 38732.09, 0.00, 0.00, 0.00
4304.0, 2283.10, 2424.56, -3737.35, 16495.05, 189.95, -4117.59, 16151.82, 38748.89, 0.00, 0.00, 0.00
4308.0, 2258.00, 2415.22, -3750.02, 16469.28, 175.39, -4129.66, 16163.40, 39013.72, 0.00, 0.00, 0.00
4312.0, 2276.84, 2439.65, -3718.66, 16413.36, 201.37, -4096.34, 16146.94, 39092.73, 0.00, 0.00, 0.00
4316.0, 2307.35, 2456.70, -3694.32, 16427.73, 224.23, -4073.85, 16126.74, 38797.44, 0.00, 0.00, 0.00
4320.0, 2287.88, 2428.63, -3726.01, 16485.53, 199.22, -4107.33, 16137.47, 38734.36, 0.00, 0.00, 0.00
4324.0, 2254.69, 2400.42, -3759.45, 16469.79, 168.49, -4140.37, 16142.27, 38982.71, 0.00, 0.00, 0.00
4328.0, 2257.37, 2413.63, -3743.36, 16405.15, 178.32, -4124.03, 16122.07, 39132.07, 0.00, 0.00, 0.00
4332.0, 2295.39, 2441.41, -3707.26, 16394.89, 208.72, -4089.18, 16102.22, 38838.79, 0.00, 0.00, 0.00
4336.0, 2286.65, 2418.93, -3731.87, 16469.95, 186.86, -4117.53, 16117.86, 38706.05, 0.00, 0.00, 0.00
4340.0, 2248.99, 2389.13, -3766.69, 16468.74, 157.04, -4151.32, 16125.82, 38914.18, 0.00, 0.00, 0.00
4344.0, 2248.67, 2402.12, -3753.82, 16416.80, 167.57, -4133.49, 16128.21, 39132.00, 0.00, 0.00, 0.00
4348.0, 2290.99, 2442.58, -3709.36, 16398.87, 206.08, -4087.80, 16097.75, 38888.32, 0.00, 0.00, 0.00
4352.0, 2294.94, 2434.51, -3720.43, 16467.96, 200.12, -4101.75, 16112.17, 38682.22, 0.00, 0.00, 0.00
4356.0, 2254.15, 2394.79, -3764.21, 16473.62, 159.48, -4145.89, 16123.94, 38849.52, 0.00, 0.00, 0.00
4360.0, 2244.43, 2399.75, -3761.71, 16417.62, 160.62, -4142.14, 16127.23, 39102.68, 0.00, 0.00, 0.00
4364.0, 2274.31, 2428.96, -3725.34, 16374.02, 190.84, -4104.03, 16102.15, 38957.59, 0.00, 0.00, 0.00
4368.0, 2287.50, 2425.79, -3725.61, 16430.90, 190.15, -4107.76, 16105.95, 38706.00, 0.00, 0.00, 0.00
4372.0, 2254.91, 2398.10, -3763.30, 16473.37, 159.12, -4145.98, 16123.32, 38812.82, 0.00, 0.00, 0.00
4376.0, 2234.03, 2393.54, -3771.99, 16438.34, 151.41, -4151.03, 16129.69, 39084.62, 0.00, 0.00, 0.00
4380.0, 2268.99, 2426.48, -3726.62, 16390.00, 189.79, -4103.91, 16102.06, 39012.49, 0.00, 0.00, 0.00
4384.0, 2300.91, 2448.01, -3709.58, 16444.71, 210.91, -4086.70, 16106.31, 38702.74, 0.00, 0.00, 0.00
4388.0, 2272.88, 2422.88, -3743.11, 16495.12, 182.17, -4123.27, 16135.52, 38746.73, 0.00, 0.00, 0.00
4392.0, 2233.19, 2401.65, -3771.77, 16454.73, 157.31, -4147.01, 16152.15, 39050.35, 0.00, 0.00, 0.00
4396.0, 2261.28, 2428.16, -3737.73, 16387.36, 186.55, -4111.71, 16118.47, 39070.80, 0.00, 0.00, 0.00
4400.0, 2299.84, 2451.72, -3707.98, 16425.74, 215.47, -4085.63, 16105.12, 38739.33, 0.00, 0.00, 0.00
4404.0, 2272.21, 2419.53, -3745.17, 16486.38, 183.55, -4125.17, 16125.49, 38729.71, 0.00, 0.00, 0.00
4408.0, 2238.62, 2401.49, -3773.00, 16463.65, 159.81, -4150.52, 16137.60, 39002.65, 0.00, 0.00, 0.00
4412.0, 2254.20, 2426.82, -3743.38, 16398.67, 183.82, -4118.06, 16123.74, 39108.82, 0.00, 0.00, 0.00
4416.0, 2292.24, 2456.97, -3703.95, 16416.48, 219.83, -4080.13, 16105.35, 38788.03, 0.00, 0.00, 0.00
4420.0, 2280.24, 2432.74, -3731.82, 16496.68, 197.10, -4111.38, 16126.85, 38699.50, 0.00, 0.00, 0.00
4424.0, 2243.09, 2405.36, -3765.80, 16480.21, 165.34, -4144.73, 16140.26, 38949.61, 0.00, 0.00, 0.00
4428.0, 2246.66, 2420.60, -3748.75, 16413.20, 180.24, -4124.41, 16134.79, 39123.24, 0.00, 0.00, 0.00
4432.0, 2284.48, 2446.76, -3713.34, 16404.39, 211.58, -4090.88, 16098.04, 38846.53, 0.00, 0.00, 0.00
4436.0, 2280.64, 2427.42, -3732.72, 16480.01, 195.09, -4114.24, 16109.71, 38686.71, 0.00, 0.00, 0.00
4440.0, 2239.87, 2392.20, -3771.21, 16481.15, 157.89, -4153.56, 16124.75, 38892.44, 0.00, 0.00, 0.00
4444.0, 2228.98, 2392.87, -3766.85, 16422.85, 159.55, -4146.07, 16124.15, 39124.85, 0.00, 0.00, 0.00
4448.0, 2272.88, 2433.75, -3716.51, 16402.85, 203.60, -4097.05, 16094.55, 38890.54, 0.00, 0.00, 0.00
4452.0, 2279.30, 2424.92, -3726.86, 16478.53, 195.56, -4110.96, 16109.19, 38671.63, 0.00, 0.00, 0.00
4456.0, 2231.44, 2383.88, -3775.52, 16488.88, 149.15, -4159.06, 16121.24, 38842.03, 0.00, 0.00, 0.00
4460.0, 2217.18, 2383.57, -3775.75, 16428.51, 145.64, -4154.54, 16124.55, 39102.41, 0.00, 0.00, 0.00
4464.0, 2259.05, 2421.43, -3728.27, 16388.59, 188.07, -4105.39, 16090.33, 38952.41, 0.00, 0.00, 0.00
4468.0, 2280.91, 2432.50, -3718.23, 16466.26, 202.15, -4097.77, 16101.32, 38673.64, 0.00, 0.00, 0.00
4472.0, 2239.26, 2392.84, -3765.06, 16499.05, 160.42, -4145.33, 16121.69, 38786.29, 0.00, 0.00, 0.00
4476.0, 2219.15, 2383.39, -3774.85, 16443.57, 147.05, -4154.32, 16130.65, 39063.88, 0.00, 0.00, 0.00
4480.0, 2243.33, 2414.57, -3736.99, 16387.07, 178.57, -4115.54, 16104.77, 39013.09, 0.00, 0.00, 0.00
4484.0, 2277.15, 2433.68, -3719.24, 16435.80, 201.79, -4100.16, 16096.85, 38707.83, 0.00, 0.00, 0.00
4488.0, 2267.49, 2399.10, -3759.76, 16481.35, 164.29, -4141.53, 16111.67, 38739.10, 0.00, 0.00, 0.00
4492.0, 2205.25, 2379.37, -3778.70, 16443.71, 141.58, -4161.05, 16126.92, 39017.61, 0.00, 0.00, 0.00
4496.0, 2226.70, 2407.93, -3737.81, 16387.76, 173.14, -4121.93, 16103.22, 39051.67, 0.00, 0.00, 0.00
4500.0, 2266.31, 2431.27, -3710.81, 16417.71, 200.85, -4095.87, 16084.11, 38737.49, 0.00, 0.00, 0.00
4504.0, 2249.21, 2407.15, -3741.99, 16486.22, 178.39, -4127.32, 16111.16, 38699.99, 0.00, 0.00, 0.00
4508.0, 2215.97, 2383.46, -3771.99, 16460.12, 149.91, -4158.74, 16114.80, 38957.03, 0.00, 0.00, 0.00
4512.0, 2222.12, 2389.94, -3758.94, 16387.67, 157.71, -4145.06, 16089.48, 39079.81, 0.00, 0.00, 0.00
4516.0, 2262.40, 2416.54, -3722.88, 16396.35, 193.03, -4110.96, 16056.13, 38767.31, 0.00, 0.00, 0.00
4520.0, 2252.85, 2397.25, -3744.16, 16474.51, 177.07, -4134.33, 16082.24, 38654.41, 0.00, 0.00, 0.00
4524.0, 2218.68, 2375.63, -3775.66, 16469.44, 147.39, -4162.77, 16107.18, 38891.52, 0.00, 0.00, 0.00
4528.0, 2222.66, 2391.66, -3759.97, 16409.26, 160.17, -4142.40, 16107.18, 39083.45, 0.00, 0.00, 0.00
4532.0, 2258.55, 2419.00, -3723.78, 16398.31, 191.17, -4107.16, 16080.31, 38825.85, 0.00, 0.00, 0.00
4536.0, 2251.25, 2400.09, -3745.97, 16470.98, 174.19, -4134.11, 16089.23, 38673.68, 0.00, 0.00, 0.00
4540.0, 2214.41, 2372.48, -3778.43, 16475.18, 146.83, -4166.39, 16097.86, 38853.23, 0.00, 0.00, 0.00
4544.0, 2207.70, 2379.72, -3774.61, 16416.08, 149.78, -4158.97, 16098.04, 39090.14, 0.00, 0.00, 0.00
4548.0, 2248.79, 2412.49, -3732.88, 16377.32, 184.16, -4118.22, 16062.70, 38877.59, 0.00, 0.00, 0.00
4552.0, 2252.70, 2405.56, -3743.05, 16451.55, 178.70, -4131.43, 16075.62, 38650.77, 0.00, 0.00, 0.00
4556.0, 2217.20, 2372.03, -3784.08, 16478.67, 141.93, -4174.75, 16090.95, 38798.43, 0.00, 0.00, 0.00
4560.0, 2195.48, 2366.18, -3792.67, 16434.54, 134.89, -4181.94, 16095.92, 39072.50, 0.00, 0.00, 0.00
4564.0, 2238.33, 2400.11, -3746.40, 16385.95, 175.26, -4134.51, 16058.92, 38944.05, 0.00, 0.00, 0.00
4568.0, 2263.99, 2409.65, -3736.81, 16450.86, 186.21, -4128.05, 16064.02, 38647.17, 0.00, 0.00, 0.00
4572.0, 2220.80, 2365.22, -3784.71, 16489.69, 142.02, -4176.31, 16079.67, 38748.49, 0.00, 0.00, 0.00
4576.0, 2192.77, 2349.53, -3801.72, 16440.80, 123.65, -4189.99, 16081.90, 39029.99, 0.00, 0.00, 0.00
4580.0, 2220.51, 2376.12, -3764.01, 16378.17, 154.07, -4148.13, 16063.66, 38997.85, 0.00, 0.00, 0.00
4584.0, 2256.92, 2401.90, -3733.05, 16425.74, 180.54, -4120.48, 16063.73, 38670.35, 0.00, 0.00, 0.00
4588.0, 2225.27, 2369.62, -3772.21, 16483.32, 145.35, -4161.34, 16090.98, 38701.66, 0.00, 0.00, 0.00
4592.0, 2204.95, 2358.35, -3785.63, 16448.71, 130.74, -4172.65, 16101.79, 38971.34, 0.00, 0.00, 0.00
4596.0, 2220.13, 2375.23, -3760.17, 16384.19, 149.89, -4144.77, 16083.13, 39039.85, 0.00, 0.00, 0.00
4600.0, 2285.60, 2402.54, -3724.94, 16408.04, 183.28, -4110.20, 16066.86, 38724.06, 0.00, 0.00, 0.00
4604.0, 2249.90, 2376.17, -3755.12, 16475.83, 154.14, -4142.83, 16093.75, 38675.69, 0.00, 0.00, 0.00
4608.0, 2195.81, 2351.20, -3778.85, 16456.31, 127.61, -4169.09, 16106.40, 38930.28, 0.00, 0.00, 0.00
4612.0, 2203.03, 2360.63, -3767.19, 16394.33, 138.98, -4153.49, 16086.42, 39072.30, 0.00, 0.00, 0.00
4616.0, 2243.36, 2387.41, -3731.27, 16397.42, 169.11, -4120.90, 16058.59, 38781.37, 0.00, 0.00, 0.00
4620.0, 2240.70, 2376.10, -3748.75, 16474.84, 155.34, -4140.55, 16078.15, 38653.05, 0.00, 0.00, 0.00
4624.0, 2203.68, 2349.73, -3784.57, 16474.49, 125.75, -4174.57, 16089.75, 38876.21, 0.00, 0.00, 0.00
4628.0, 2201.40, 2358.00, -3776.51, 16405.24, 131.83, -4162.39, 16080.20, 39082.98, 0.00, 0.00, 0.00
4632.0, 2242.51, 2394.05, -3731.82, 16389.21, 172.60, -4115.65, 16049.76, 38824.38, 0.00, 0.00, 0.00
4636.0, 2247.27, 2391.59, -3736.27, 16468.21, 170.63, -4124.46, 16078.70, 38629.67, 0.00, 0.00, 0.00
4640.0, 2202.68, 2354.38, -3780.73, 16473.03, 132.28, -4168.11, 16096.16, 38814.56, 0.00, 0.00, 0.00
4644.0, 2196.86, 2357.80, -3777.09, 16417.51, 133.75, -4163.10, 16092.65, 39056.97, 0.00, 0.00, 0.00
4648.0, 2229.83, 2390.54, -3736.99, 16385.19, 166.72, -4122.20, 16064.00, 38880.46, 0.00, 0.00, 0.00
4652.0, 2240.56, 2386.41, -3739.78, 16451.78, 165.60, -4127.52, 16069.07, 38648.91, 0.00, 0.00, 0.00
4656.0, 2207.03, 2348.48, -3778.70, 16478.15, 126.71, -4167.95, 16085.63, 38781.71, 0.00, 0.00, 0.00
4660.0, 2189.22, 2338.08, -3789.67, 16422.41, 112.00, -4174.21, 16094.80, 39055.43, 0.00, 0.00, 0.00
4664.0, 2225.27, 2379.81, -3743.22, 16374.87, 155.08, -4125.77, 16066.54, 38939.24, 0.00, 0.00, 0.00
4668.0, 2248.99, 2398.19, -3727.87, 16434.19, 177.76, -4115.49, 16060.89, 38633.29, 0.00, 0.00, 0.00
4672.0, 2213.25, 2358.51, -3773.29, 16473.62, 137.04, -4163.95, 16073.27, 38700.28, 0.00, 0.00, 0.00
4676.0, 2182.29, 2341.66, -3798.41, 16436.64, 116.63, -4187.13, 16071.26, 38986.67, 0.00, 0.00, 0.00
4680.0, 2206.97, 2364.90, -3768.15, 16379.69, 140.95, -4155.84, 16033.80, 38973.13, 0.00, 0.00, 0.00
4684.0, 2242.10, 2387.32, -3742.62, 16425.13, 163.91, -4133.11, 16027.09, 38639.75, 0.00, 0.00, 0.00
4688.0, 2213.09, 2351.07, -3783.99, 16484.05, 126.40, -4179.26, 16045.29, 38658.23, 0.00, 0.00, 0.00
4692.0, 2177.86, 2325.97, -3811.98, 16446.37, 99.35, -4206.40, 16051.39, 38946.10, 0.00, 0.00, 0.00
4696.0, 2200.95, 2345.35, -3780.93, 16381.68, 122.38, -4173.94, 16027.68, 39015.04, 0.00, 0.00, 0.00
4700.0, 2243.60, 2374.16, -3744.10, 16410.09, 156.93, -4140.57, 16010.33, 38683.18, 0.00, 0.00, 0.00
4704.0, 2229.77, 2355.29, -3767.21, 16480.52, 136.97, -4169.76, 16027.59, 38619.19, 0.00, 0.00, 0.00
4708.0, 2218.95, 2333.86, -3798.95, 16470.20, 107.69, -4197.14, 16037.96, 38867.65, 0.00, 0.00, 0.00
4712.0, 2208.31, 2356.48, -3779.61, 16413.36, 127.43, -4172.85, 16033.35, 39019.91, 0.00, 0.00, 0.00
4716.0, 2231.55, 2386.79, -3733.84, 16412.01, 163.79, -4135.12, 16017.01, 38741.63, 0.00, 0.00, 0.00
4720.0, 2231.35, 2372.17, -3754.47, 16481.15, 149.18, -4157.22, 16031.12, 38603.56, 0.00, 0.00, 0.00
4724.0, 2190.83, 2334.10, -3797.63, 16479.58, 109.79, -4199.92, 16038.34, 38817.09, 0.00, 0.00, 0.00
4728.0, 2191.92, 2338.42, -3788.53, 16411.61, 115.98, -4188.69, 16037.38, 39029.25, 0.00, 0.00, 0.00
4732.0, 2232.76, 2367.56, -3745.91, 16385.04, 151.05, -4148.80, 16008.16, 38790.09, 0.00, 0.00, 0.00
4736.0, 2237.70, 2362.22, -3749.53, 16465.93, 148.26, -4156.22, 16025.78, 38584.96, 0.00, 0.00, 0.00
4740.0, 2199.64, 2331.58, -3786.92, 16484.54, 114.73, -4191.76, 16050.81, 38755.06, 0.00, 0.00, 0.00
4744.0, 2186.85, 2333.21, -3787.55, 16429.00, 111.00, -4188.69, 16055.91, 39022.01, 0.00, 0.00, 0.00
4748.0, 2230.61, 2365.44, -3744.23, 16382.17, 146.94, -4144.50, 16020.75, 38845.72, 0.00, 0.00, 0.00
4752.0, 2242.24, 2360.97, -3749.57, 16441.09, 143.90, -4152.93, 16030.13, 38590.89, 0.00, 0.00, 0.00
