%OpenBCI Raw EEG Data
%
%Sample Rate = 250.0 Hz
%First Column = Time (ms)
%Other Columns = EEG data in microvolts followed by Accel Data (in G) interleaved with Aux Data
0.0, -1492.22, -25305.33, -32300.44, -1987.74, -18408.76, -6124.60, -20138.96, -6771.77, 0.00, 0.00, 0.00
4.0, -1469.11, -25293.26, -32289.35, -1978.51, -18395.24, -6113.81, -20143.82, -6763.41, 0.00, 0.00, 0.00
8.0, -1464.13, -25301.15, -32300.93, -1952.94, -18392.94, -6124.42, -20079.29, -6756.57, 0.00, 0.00, 0.00
12.0, -1488.20, -25320.75, -32319.44, -1957.81, -18411.27, -6144.92, -20066.93, -6774.95, 0.00, 0.00, 0.00
16.0, -1492.20, -25309.01, -32305.62, -1982.64, -18412.07, -6138.39, -20121.08, -6778.12, 0.00, 0.00, 0.00
20.0, -1472.44, -25288.38, -32286.49, -1974.44, -18394.86, -6119.15, -20137.83, -6763.84, 0.00, 0.00, 0.00
24.0, -1462.23, -25288.70, -32293.15, -1940.27, -18388.31, -6119.37, -20083.58, -6752.35, 0.00, 0.00, 0.00
28.0, -1476.91, -25305.62, -32309.54, -1938.70, -18398.53, -6133.16, -20057.70, -6761.42, 0.00, 0.00, 0.00
32.0, -1486.61, -25299.67, -32297.49, -1970.57, -18402.84, -6130.84, -20122.98, -6771.77, 0.00, 0.00, 0.00
36.0, -1458.25, -25281.05, -32280.52, -1972.30, -18387.04, -6116.09, -20162.08, -6760.11, 0.00, 0.00, 0.00
40.0, -1448.86, -25281.48, -32284.48, -1941.79, -18377.43, -6112.69, -20110.89, -6750.99, 0.00, 0.00, 0.00
44.0, -1463.66, -25293.39, -32298.07, -1936.64, -18380.35, -6120.51, -20059.75, -6751.81, 0.00, 0.00, 0.00
48.0, -1473.81, -25291.49, -32293.15, -1964.90, -18383.57, -6115.57, -20098.67, -6755.55, 0.00, 0.00, 0.00
52.0, -1461.78, -25273.99, -32273.93, -1976.97, -18371.35, -6099.59, -20147.88, -6751.34, 0.00, 0.00, 0.00
56.0, -1438.49, -25267.55, -32273.10, -1945.92, -18357.31, -6093.26, -20101.79, -6739.50, 0.00, 0.00, 0.00
60.0, -1449.15, -25283.22, -32291.16, -1933.25, -18366.25, -6104.86, -20042.65, -6741.98, 0.00, 0.00, 0.00
64.0, -1472.56, -25289.21, -32295.68, -1955.93, -18377.29, -6108.11, -20064.18, -6746.81, 0.00, 0.00, 0.00
68.0, -1464.80, -25274.21, -32275.52, -1979.02, -18374.12, -6097.71, -20130.25, -6745.62, 0.00, 0.00, 0.00
72.0, -1442.69, -25264.06, -32268.54, -1948.74, -18359.05, -6089.55, -20103.38, -6730.83, 0.00, 0.00, 0.00
76.0, -1449.89, -25275.22, -32285.60, -1924.42, -18360.37, -6097.69, -20035.14, -6727.58, 0.00, 0.00, 0.00
80.0, -1475.53, -25289.08, -32298.74, -1946.12, -18374.01, -6108.75, -20049.04, -6739.14, 0.00, 0.00, 0.00
84.0, -1469.92, -25279.58, -32282.27, -1971.22, -18372.64, -6095.41, -20113.13, -6743.23, 0.00, 0.00, 0.00
88.0, -1450.09, -25269.59, -32273.28, -1955.80, -18364.35, -6084.79, -20105.88, -6737.84, 0.00, 0.00, 0.00
92.0, -1458.72, -25283.71, -32291.86, -1927.48, -18366.38, -6092.97, -20039.95, -6735.18, 0.00, 0.00, 0.00
96.0, -1479.01, -25297.46, -32300.44, -1936.38, -18380.33, -6104.73, -20043.50, -6745.82, 0.00, 0.00, 0.00
100.0, -1479.01, -25290.82, -32290.13, -1967.31, -18383.55, -6101.27, -20109.48, -6751.30, 0.00, 0.00, 0.00
104.0, -1461.11, -25278.64, -32280.54, -1962.68, -18373.00, -6092.03, -20119.72, -6742.87, 0.00, 0.00, 0.00
108.0, -1456.48, -25283.89, -32288.14, -1933.31, -18373.00, -6097.51, -20058.05, -6733.66, 0.00, 0.00, 0.00
112.0, -1475.22, -25304.88, -32309.49, -1937.83, -18392.45, -6119.62, -20033.24, -6741.71, 0.00, 0.00, 0.00
116.0, -1482.08, -25303.20, -32305.49, -1969.61, -18400.83, -6119.71, -20094.42, -6752.82, 0.00, 0.00, 0.00
120.0, -1466.27, -25290.62, -32294.11, -1966.77, -18394.01, -6110.25, -20123.01, -6749.58, 0.00, 0.00, 0.00
124.0, -1458.94, -25297.23, -32305.33, -1934.63, -18392.06, -6115.59, -20059.42, -6751.93, 0.00, 0.00, 0.00
128.0, -1472.15, -25306.94, -32313.94, -1929.40, -18396.18, -6123.01, -20026.38, -6760.49, 0.00, 0.00, 0.00
132.0, -1473.83, -25298.53, -32300.77, -1954.55, -18395.26, -6115.06, -20074.73, -6759.86, 0.00, 0.00, 0.00
136.0, -1462.23, -25280.63, -32279.09, -1962.19, -18384.04, -6096.26, -20112.08, -6753.94, 0.00, 0.00, 0.00
140.0, -1451.77, -25274.57, -32274.42, -1932.02, -18372.87, -6088.19, -20059.53, -6740.12, 0.00, 0.00, 0.00
144.0, -1473.32, -25297.53, -32299.37, -1928.82, -18389.32, -6108.55, -20022.20, -6747.23, 0.00, 0.00, 0.00
148.0, -1492.54, -25306.44, -32303.79, -1958.12, -18402.10, -6115.79, -20063.66, -6759.75, 0.00, 0.00, 0.00
152.0, -1477.92, -25291.71, -32284.75, -1974.87, -18395.46, -6104.35, -20114.85, -6757.09, 0.00, 0.00, 0.00
156.0, -1460.60, -25287.53, -32286.40, -1948.89, -18382.86, -6098.96, -20073.27, -6748.15, 0.00, 0.00, 0.00
160.0, -1466.99, -25296.68, -32299.50, -1924.84, -18380.31, -6105.02, -20011.22, -6746.11, 0.00, 0.00, 0.00
164.0, -1478.03, -25299.76, -32300.04, -1944.74, -18388.60, -6106.14, -20036.93, -6752.75, 0.00, 0.00, 0.00
168.0, -1467.17, -25284.27, -32281.42, -1963.67, -18387.26, -6094.56, -20106.11, -6756.78, 0.00, 0.00, 0.00
172.0, -1439.77, -25270.63, -32271.94, -1936.87, -18371.19, -6082.11, -20079.51, -6746.36, 0.00, 0.00, 0.00
176.0, -1445.20, -25274.99, -32279.14, -1907.30, -18364.10, -6084.64, -20012.75, -6740.08, 0.00, 0.00, 0.00
180.0, -1461.00, -25277.59, -32277.15, -1916.13, -18368.62, -6087.07, -20012.19, -6746.02, 0.00, 0.00, 0.00
184.0, -1466.03, -25275.08, -32266.57, -1955.49, -18375.46, -6078.09, -20083.04, -6752.77, 0.00, 0.00, 0.00
188.0, -1449.91, -25267.98, -32260.81, -1943.64, -18375.28, -6070.38, -20085.43, -6749.40, 0.00, 0.00, 0.00
192.0, -1448.01, -25275.22, -32274.78, -1918.52, -18378.47, -6079.47, -20023.65, -6747.81, 0.00, 0.00, 0.00
196.0, -1469.18, -25287.02, -32290.27, -1929.47, -18386.48, -6090.81, -20015.83, -6756.53, 0.00, 0.00, 0.00
200.0, -1469.31, -25278.91, -32278.98, -1955.08, -18387.01, -6081.33, -20074.44, -6761.16, 0.00, 0.00, 0.00
204.0, -1456.19, -25269.81, -32272.95, -1946.64, -18378.50, -6073.44, -20085.61, -6754.94, 0.00, 0.00, 0.00
208.0, -1455.59, -25280.36, -32288.64, -1924.57, -18375.39, -6084.17, -20017.30, -6747.14, 0.00, 0.00, 0.00
212.0, -1467.32, -25297.66, -32304.80, -1931.88, -18385.25, -6099.61, -19995.00, -6758.70, 0.00, 0.00, 0.00
216.0, -1469.29, -25292.23, -32296.62, -1955.42, -18387.86, -6096.37, -20046.18, -6764.62, 0.00, 0.00, 0.00
220.0, -1447.03, -25272.94, -32279.18, -1953.52, -18376.13, -6080.26, -20068.63, -6754.23, 0.00, 0.00, 0.00
224.0, -1440.32, -25277.07, -32287.70, -1923.37, -18368.53, -6080.17, -20005.84, -6745.38, 0.00, 0.00, 0.00
228.0, -1458.52, -25293.75, -32307.14, -1925.51, -18381.49, -6099.17, -19977.36, -6757.40, 0.00, 0.00, 0.00
232.0, -1471.66, -25296.88, -32306.34, -1957.86, -18392.00, -6103.97, -20034.34, -6769.76, 0.00, 0.00, 0.00
236.0, -1464.55, -25287.94, -32294.16, -1972.14, -18390.23, -6091.92, -20080.27, -6770.46, 0.00, 0.00, 0.00
240.0, -1447.45, -25281.63, -32291.83, -1939.77, -18376.96, -6082.85, -20031.45, -6762.03, 0.00, 0.00, 0.00
244.0, -1456.31, -25292.99, -32306.03, -1924.02, -18382.63, -6094.99, -19990.75, -6769.99, 0.00, 0.00, 0.00
248.0, -1467.75, -25289.93, -32302.54, -1943.15, -18387.15, -6091.12, -20024.75, -6772.33, 0.00, 0.00, 0.00
252.0, -1456.60, -25272.63, -32282.85, -1958.62, -18378.43, -6076.08, -20072.36, -6763.57, 0.00, 0.00, 0.00
256.0, -1442.18, -25265.12, -32278.96, -1935.35, -18370.18, -6072.39, -20038.92, -6758.59, 0.00, 0.00, 0.00
260.0, -1447.54, -25279.91, -32297.55, -1917.94, -18375.30, -6084.26, -19987.53, -6761.54, 0.00, 0.00, 0.00
264.0, -1452.68, -25278.23, -32290.96, -1926.41, -18376.31, -6078.85, -20005.23, -6761.34, 0.00, 0.00, 0.00
268.0, -1444.73, -25260.35, -32269.41, -1946.03, -18367.28, -6062.58, -20065.14, -6753.27, 0.00, 0.00, 0.00
272.0, -1435.12, -25260.24, -32273.97, -1933.94, -18362.61, -6061.68, -20048.69, -6747.03, 0.00, 0.00, 0.00
276.0, -1435.23, -25269.74, -32288.72, -1908.75, -18361.22, -6069.08, -19982.79, -6746.11, 0.00, 0.00, 0.00
280.0, -1461.58, -25283.60, -32300.42, -1923.97, -18374.52, -6084.66, -19997.63, -6761.56, 0.00, 0.00, 0.00
284.0, -1462.16, -25271.24, -32285.06, -1949.43, -18378.12, -6074.85, -20071.64, -6763.77, 0.00, 0.00, 0.00
288.0, -1438.47, -25257.45, -32271.80, -1931.82, -18368.17, -6059.36, -20070.79, -6750.16, 0.00, 0.00, 0.00
292.0, -1433.66, -25263.64, -32281.19, -1902.00, -18363.41, -6060.18, -20004.30, -6736.88, 0.00, 0.00, 0.00
296.0, -1456.31, -25279.44, -32297.24, -1916.57, -18380.26, -6075.99, -20000.05, -6747.81, 0.00, 0.00, 0.00
300.0, -1453.00, -25271.57, -32284.50, -1949.59, -18385.07, -6069.66, -20074.39, -6756.69, 0.00, 0.00, 0.00
304.0, -1433.91, -25256.49, -32270.26, -1943.31, -18372.17, -6056.79, -20092.90, -6751.70, 0.00, 0.00, 0.00
308.0, -1428.46, -25260.69, -32281.30, -1912.68, -18370.25, -6062.26, -20033.94, -6744.68, 0.00, 0.00, 0.00
312.0, -1451.05, -25280.65, -32299.97, -1918.27, -18386.30, -6082.04, -20020.72, -6758.97, 0.00, 0.00, 0.00
316.0, -1457.85, -25278.12, -32291.29, -1943.64, -18393.74, -6081.17, -20082.71, -6767.15, 0.00, 0.00, 0.00
320.0, -1435.23, -25260.64, -32275.65, -1939.64, -18381.76, -6067.40, -20115.92, -6759.64, 0.00, 0.00, 0.00
324.0, -1420.99, -25257.92, -32278.62, -1901.46, -18367.25, -6069.26, -20054.72, -6746.14, 0.00, 0.00, 0.00
328.0, -1436.03, -25271.78, -32293.55, -1892.34, -18371.77, -6078.98, -20014.62, -6744.68, 0.00, 0.00, 0.00
332.0, -1454.99, -25274.17, -32291.45, -1918.20, -18382.54, -6078.69, -20074.12, -6756.08, 0.00, 0.00, 0.00
336.0, -1439.92, -25259.79, -32276.57, -1934.59, -18375.90, -6068.81, -20132.30, -6756.31, 0.00, 0.00, 0.00
340.0, -1420.43, -25255.28, -32276.37, -1903.41, -18364.13, -6066.08, -20081.57, -6747.19, 0.00, 0.00, 0.00
344.0, -1434.15, -25269.70, -32291.25, -1890.78, -18371.63, -6079.32, -20033.38, -6748.35, 0.00, 0.00, 0.00
348.0, -1460.33, -25279.93, -32297.20, -1916.30, -18386.46, -6088.79, -20075.02, -6768.15, 0.00, 0.00, 0.00
352.0, -1445.60, -25267.26, -32281.46, -1934.52, -18380.64, -6080.05, -20136.62, -6768.24, 0.00, 0.00, 0.00
356.0, -1416.65, -25262.12, -32279.88, -1909.24, -18371.99, -6072.50, -20106.98, -6753.09, 0.00, 0.00, 0.00
360.0, -1432.43, -25276.67, -32298.20, -1893.24, -18375.41, -6083.88, -20053.74, -6750.32, 0.00, 0.00, 0.00
364.0, -1456.17, -25282.10, -32300.86, -1912.77, -18382.07, -6084.93, -20071.71, -6757.31, 0.00, 0.00, 0.00
368.0, -1457.24, -25274.66, -32290.40, -1946.64, -18386.23, -6080.05, -20137.96, -6763.08, 0.00, 0.00, 0.00
372.0, -1435.54, -25264.94, -32282.22, -1928.96, -18376.75, -6072.43, -20122.96, -6749.47, 0.00, 0.00, 0.00
376.0, -1439.56, -25277.36, -32296.62, -1903.39, -18376.66, -6084.66, -20058.72, -6745.62, 0.00, 0.00, 0.00
380.0, -1465.20, -25295.87, -32314.74, -1920.06, -18394.05, -6107.39, -20069.38, -6762.88, 0.00, 0.00, 0.00
384.0, -1473.38, -25290.39, -32307.08, -1952.45, -18398.99, -6106.85, -20135.08, -6772.58, 0.00, 0.00, 0.00
388.0, -1447.07, -25273.34, -32291.32, -1941.65, -18381.54, -6093.42, -20139.79, -6761.16, 0.00, 0.00, 0.00
392.0, -1441.91, -25276.20, -32299.54, -1912.71, -18373.18, -6097.33, -20075.62, -6750.23, 0.00, 0.00, 0.00
396.0, -1453.67, -25281.32, -32304.57, -1914.14, -18379.71, -6103.68, -20065.16, -6757.63, 0.00, 0.00, 0.00
400.0, -1456.22, -25277.01, -32295.12, -1946.41, -18384.55, -6098.36, -20121.80, -6768.02, 0.00, 0.00, 0.00
404.0, -1448.33, -25267.24, -32285.44, -1944.09, -18375.03, -6084.73, -20145.83, -6763.01, 0.00, 0.00, 0.00
408.0, -1443.01, -25268.11, -32291.34, -1913.04, -18368.10, -6084.88, -20096.36, -6751.32, 0.00, 0.00, 0.00
412.0, -1461.83, -25283.71, -32306.70, -1917.38, -18379.08, -6101.51, -20074.93, -6761.09, 0.00, 0.00, 0.00
416.0, -1468.38, -25282.88, -32302.56, -1946.52, -18383.26, -6105.85, -20135.84, -6773.27, 0.00, 0.00, 0.00
420.0, -1449.58, -25268.11, -32287.85, -1947.35, -18373.65, -6091.97, -20170.46, -6766.59, 0.00, 0.00, 0.00
424.0, -1435.12, -25268.31, -32294.02, -1915.30, -18367.88, -6090.51, -20107.20, -6753.15, 0.00, 0.00, 0.00
428.0, -1448.37, -25277.79, -32304.39, -1906.02, -18376.84, -6098.76, -20073.25, -6758.72, 0.00, 0.00, 0.00
432.0, -1459.70, -25276.78, -32300.15, -1932.04, -18381.69, -6097.40, -20114.83, -6766.77, 0.00, 0.00, 0.00
436.0, -1446.36, -25264.47, -32287.99, -1943.98, -18374.36, -6085.17, -20166.12, -6759.99, 0.00, 0.00, 0.00
440.0, -1427.87, -25258.79, -32286.04, -1915.14, -18362.83, -6079.14, -20123.90, -6748.24, 0.00, 0.00, 0.00
444.0, -1435.56, -25268.96, -32296.62, -1897.01, -18366.90, -6087.05, -20072.07, -6749.71, 0.00, 0.00, 0.00
448.0, -1457.51, -25276.04, -32300.88, -1922.92, -18374.38, -6093.69, -20099.27, -6762.39, 0.00, 0.00, 0.00
452.0, -1447.66, -25259.62, -32284.01, -1943.75, -18363.54, -6074.42, -20162.55, -6757.07, 0.00, 0.00, 0.00
456.0, -1427.87, -25251.81, -32279.58, -1916.77, -18352.08, -6063.87, -20136.19, -6746.52, 0.00, 0.00, 0.00
460.0, -1435.90, -25264.56, -32292.59, -1886.35, -18352.26, -6072.14, -20069.07, -6734.00, 0.00, 0.00, 0.00
464.0, -1458.43, -25279.58, -32305.27, -1902.63, -18365.00, -6085.28, -20077.37, -6743.32, 0.00, 0.00, 0.00
468.0, -1450.94, -25272.31, -32294.45, -1930.61, -18368.86, -6079.12, -20142.10, -6748.37, 0.00, 0.00, 0.00
472.0, -1427.29, -25263.59, -32287.70, -1912.17, -18362.16, -6074.42, -20133.04, -6739.63, 0.00, 0.00, 0.00
476.0, -1434.91, -25278.77, -32305.11, -1888.14, -18369.36, -6091.70, -20087.89, -6749.67, 0.00, 0.00, 0.00
480.0, -1457.42, -25289.03, -32317.07, -1896.90, -18373.83, -6101.62, -20078.50, -6754.12, 0.00, 0.00, 0.00
484.0, -1467.10, -25281.25, -32306.12, -1927.88, -18369.27, -6095.07, -20136.11, -6753.83, 0.00, 0.00, 0.00
488.0, -1438.18, -25262.77, -32288.35, -1921.22, -18355.34, -6084.39, -20144.02, -6745.51, 0.00, 0.00, 0.00
492.0, -1418.31, -25258.05, -32287.88, -1880.77, -18344.34, -6080.68, -20076.00, -6734.18, 0.00, 0.00, 0.00
496.0, -1438.92, -25272.20, -32302.52, -1883.16, -18355.36, -6095.90, -20061.18, -6751.77, 0.00, 0.00, 0.00
500.0, -1450.07, -25272.71, -32298.87, -1920.28, -18366.14, -6100.22, -20125.49, -6766.70, 0.00, 0.00, 0.00
504.0, -1438.58, -25260.71, -32288.30, -1926.74, -18360.15, -6090.31, -20155.51, -6763.64, 0.00, 0.00, 0.00
508.0, -1424.95, -25260.53, -32293.71, -1893.97, -18349.84, -6088.97, -20090.48, -6745.56, 0.00, 0.00, 0.00
512.0, -1435.70, -25270.14, -32301.44, -1880.61, -18355.39, -6093.00, -20051.73, -6742.22, 0.00, 0.00, 0.00
516.0, -1455.48, -25277.45, -32304.68, -1909.44, -18370.45, -6100.95, -20105.86, -6756.82, 0.00, 0.00, 0.00
520.0, -1438.98, -25263.82, -32288.68, -1924.64, -18367.41, -6092.37, -20149.49, -6757.13, 0.00, 0.00, 0.00
524.0, -1422.11, -25261.65, -32288.57, -1896.63, -18355.81, -6086.63, -20100.14, -6740.10, 0.00, 0.00, 0.00
528.0, -1443.34, -25281.88, -32308.17, -1892.48, -18367.03, -6102.23, -20061.00, -6743.57, 0.00, 0.00, 0.00
532.0, -1462.41, -25287.56, -32309.94, -1918.07, -18377.00, -6106.68, -20098.64, -6755.03, 0.00, 0.00, 0.00
536.0, -1445.20, -25265.99, -32288.23, -1925.80, -18366.52, -6089.53, -20147.59, -6750.32, 0.00, 0.00, 0.00
540.0, -1422.44, -25258.28, -32284.08, -1892.43, -18354.94, -6081.62, -20098.33, -6736.06, 0.00, 0.00, 0.00
544.0, -1435.45, -25272.49, -32301.20, -1877.97, -18362.34, -6091.65, -20048.11, -6741.78, 0.00, 0.00, 0.00
548.0, -1453.36, -25273.70, -32301.24, -1897.46, -18368.98, -6093.22, -20073.70, -6750.11, 0.00, 0.00, 0.00
552.0, -1435.56, -25252.29, -32277.35, -1911.16, -18355.12, -6077.80, -20127.77, -6747.12, 0.00, 0.00, 0.00
556.0, -1416.74, -25245.98, -32273.28, -1885.79, -18343.12, -6072.59, -20095.80, -6727.96, 0.00, 0.00, 0.00
560.0, -1438.80, -25276.74, -32305.11, -1879.74, -18363.12, -6100.06, -20044.78, -6741.98, 0.00, 0.00, 0.00
564.0, -1462.54, -25292.50, -32319.04, -1903.18, -18380.06, -6117.18, -20063.75, -6759.68, 0.00, 0.00, 0.00
568.0, -1463.59, -25287.18, -32308.82, -1928.26, -18383.46, -6110.39, -20128.68, -6769.38, 0.00, 0.00, 0.00
572.0, -1442.96, -25276.76, -32301.64, -1907.48, -18373.87, -6098.34, -20115.90, -6758.30, 0.00, 0.00, 0.00
576.0, -1440.77, -25278.88, -32308.80, -1880.30, -18369.85, -6101.20, -20055.71, -6753.40, 0.00, 0.00, 0.00
580.0, -1459.70, -25293.39, -32323.19, -1892.72, -18383.35, -6115.75, -20059.19, -6760.84, 0.00, 0.00, 0.00
584.0, -1454.47, -25282.17, -32307.48, -1922.83, -18385.00, -6110.10, -20121.31, -6767.30, 0.00, 0.00, 0.00
588.0, -1426.67, -25260.53, -32289.11, -1910.29, -18365.11, -6094.11, -20118.58, -6753.31, 0.00, 0.00, 0.00
592.0, -1425.24, -25265.34, -32295.61, -1884.18, -18358.25, -6095.37, -20055.97, -6745.80, 0.00, 0.00, 0.00
596.0, -1454.36, -25277.81, -32305.04, -1886.17, -18367.08, -6106.30, -20040.71, -6755.10, 0.00, 0.00, 0.00
600.0, -1458.09, -25274.21, -32297.69, -1910.36, -18371.55, -6102.61, -20098.24, -6757.13, 0.00, 0.00, 0.00
604.0, -1435.41, -25263.88, -32286.87, -1910.65, -18362.34, -6092.33, -20124.95, -6750.32, 0.00, 0.00, 0.00
608.0, -1430.94, -25269.34, -32296.75, -1883.20, -18359.25, -6097.58, -20075.35, -6745.00, 0.00, 0.00, 0.00
612.0, -1452.86, -25288.85, -32318.68, -1887.11, -18376.71, -6116.67, -20052.29, -6754.36, 0.00, 0.00, 0.00
616.0, -1461.94, -25286.13, -32311.01, -1916.53, -18381.27, -6113.63, -20105.93, -6758.09, 0.00, 0.00, 0.00
620.0, -1441.73, -25266.77, -32290.31, -1921.24, -18370.65, -6095.81, -20144.71, -6751.21, 0.00, 0.00, 0.00
624.0, -1427.85, -25268.18, -32294.89, -1893.89, -18367.81, -6096.21, -20094.91, -6743.21, 0.00, 0.00, 0.00
628.0, -1447.54, -25288.40, -32317.00, -1886.31, -18380.22, -6111.30, -20052.51, -6750.47, 0.00, 0.00, 0.00
632.0, -1466.63, -25297.30, -32322.39, -1915.28, -18390.39, -6117.69, -20090.89, -6762.94, 0.00, 0.00, 0.00
636.0, -1453.82, -25281.79, -32301.11, -1933.25, -18381.98, -6101.71, -20147.73, -6758.54, 0.00, 0.00, 0.00
640.0, -1435.65, -25274.81, -32296.86, -1901.26, -18367.93, -6090.11, -20101.86, -6737.53, 0.00, 0.00, 0.00
644.0, -1447.86, -25287.89, -32314.45, -1888.83, -18372.04, -6104.17, -20048.04, -6740.48, 0.00, 0.00, 0.00
648.0, -1469.11, -25295.74, -32318.41, -1918.27, -18385.27, -6115.30, -20077.14, -6758.23, 0.00, 0.00, 0.00
652.0, -1465.09, -25286.97, -32305.78, -1936.42, -18384.11, -6108.15, -20136.15, -6764.06, 0.00, 0.00, 0.00
656.0, -1447.97, -25279.76, -32301.44, -1911.23, -18373.92, -6099.50, -20113.17, -6757.98, 0.00, 0.00, 0.00
660.0, -1446.67, -25287.44, -32312.40, -1889.59, -18367.63, -6107.41, -20055.79, -6752.89, 0.00, 0.00, 0.00
664.0, -1458.94, -25291.49, -32316.40, -1898.49, -18373.18, -6113.96, -20054.99, -6756.04, 0.00, 0.00, 0.00
668.0, -1459.26, -25285.88, -32307.19, -1929.69, -18378.56, -6114.21, -20124.86, -6763.59, 0.00, 0.00, 0.00
672.0, -1438.98, -25269.50, -32293.02, -1916.26, -18369.18, -6104.13, -20125.11, -6754.61, 0.00, 0.00, 0.00
676.0, -1433.08, -25268.22, -32296.24, -1883.00, -18363.16, -6106.50, -20061.52, -6745.18, 0.00, 0.00, 0.00
680.0, -1448.10, -25278.77, -32306.90, -1887.36, -18371.93, -6116.40, -20049.76, -6748.15, 0.00, 0.00, 0.00
684.0, -1452.06, -25274.50, -32299.54, -1919.88, -18378.19, -6112.51, -20110.04, -6757.58, 0.00, 0.00, 0.00
688.0, -1432.84, -25255.91, -32282.85, -1908.79, -18363.12, -6091.88, -20118.45, -6740.26, 0.00, 0.00, 0.00
692.0, -1427.36, -25258.16, -32288.03, -1872.11, -18353.46, -6091.32, -20053.69, -6728.12, 0.00, 0.00, 0.00
696.0, -1447.19, -25270.93, -32300.44, -1872.92, -18362.56, -6105.11, -20031.50, -6738.98, 0.00, 0.00, 0.00
700.0, -1458.99, -25273.63, -32300.19, -1903.88, -18370.76, -6106.70, -20089.70, -6747.79, 0.00, 0.00, 0.00
704.0, -1437.44, -25257.11, -32279.96, -1897.01, -18357.42, -6089.62, -20120.21, -6736.21, 0.00, 0.00, 0.00
708.0, -1433.89, -25262.59, -32287.72, -1865.63, -18352.03, -6093.29, -20068.40, -6725.62, 0.00, 0.00, 0.00
712.0, -1457.31, -25280.36, -32306.12, -1868.54, -18363.54, -6108.66, -20032.57, -6737.58, 0.00, 0.00, 0.00
716.0, -1465.98, -25273.59, -32294.16, -1899.90, -18367.70, -6102.50, -20078.37, -6740.93, 0.00, 0.00, 0.00
720.0, -1443.41, -25250.70, -32269.82, -1902.98, -18351.07, -6082.27, -20111.34, -6725.33, 0.00, 0.00, 0.00
724.0, -1433.37, -25252.78, -32276.30, -1876.50, -18340.43, -6083.41, -20061.36, -6717.24, 0.00, 0.00, 0.00
728.0, -1448.30, -25272.24, -32298.36, -1868.36, -18350.13, -6101.51, -20021.93, -6724.10, 0.00, 0.00, 0.00
732.0, -1460.66, -25276.34, -32298.43, -1887.92, -18359.59, -6102.50, -20054.68, -6732.32, 0.00, 0.00, 0.00
736.0, -1450.36, -25260.69, -32279.29, -1901.87, -18355.10, -6085.69, -20111.70, -6727.52, 0.00, 0.00, 0.00
740.0, -1428.30, -25254.83, -32277.06, -1875.96, -18345.06, -6077.44, -20077.28, -6711.98, 0.00, 0.00, 0.00
744.0, -1444.19, -25270.68, -32294.63, -1864.45, -18354.16, -6088.48, -20026.89, -6714.96, 0.00, 0.00, 0.00
748.0, -1468.96, -25281.59, -32299.81, -1891.90, -18371.95, -6094.85, -20044.78, -6727.94, 0.00, 0.00, 0.00
752.0, -1463.82, -25271.31, -32286.40, -1918.81, -18371.14, -6085.08, -20106.51, -6736.08, 0.00, 0.00, 0.00
756.0, -1439.65, -25259.84, -32280.66, -1897.04, -18360.42, -6076.63, -20087.82, -6727.07, 0.00, 0.00, 0.00
760.0, -1439.01, -25268.18, -32292.70, -1870.48, -18355.72, -6084.70, -20023.29, -6719.43, 0.00, 0.00, 0.00
764.0, -1464.62, -25280.74, -32302.54, -1879.42, -18367.75, -6097.73, -20028.12, -6729.04, 0.00, 0.00, 0.00
768.0, -1460.93, -25276.04, -32292.88, -1909.49, -18370.52, -6096.84, -20091.78, -6732.50, 0.00, 0.00, 0.00
772.0, -1435.99, -25265.99, -32283.23, -1900.21, -18360.21, -6086.85, -20089.97, -6724.39, 0.00, 0.00, 0.00
776.0, -1437.75, -25273.21, -32297.51, -1872.07, -18357.73, -6096.08, -20025.06, -6721.91, 0.00, 0.00, 0.00
780.0, -1466.45, -25293.21, -32317.65, -1884.92, -18378.10, -6118.81, -20018.13, -6741.46, 0.00, 0.00, 0.00
784.0, -1475.15, -25290.60, -32309.51, -1916.55, -18382.74, -6116.15, -20082.19, -6756.28, 0.00, 0.00, 0.00
788.0, -1452.86, -25276.22, -32294.29, -1913.15, -18365.58, -6101.11, -20096.81, -6747.08, 0.00, 0.00, 0.00
792.0, -1436.93, -25277.90, -32301.42, -1878.84, -18358.96, -6103.90, -20035.81, -6735.63, 0.00, 0.00, 0.00
796.0, -1444.21, -25281.48, -32305.33, -1875.00, -18364.84, -6108.31, -20007.07, -6736.28, 0.00, 0.00, 0.00
800.0, -1454.11, -25279.91, -32299.52, -1906.74, -18373.29, -6108.55, -20071.51, -6754.18, 0.00, 0.00, 0.00
804.0, -1430.42, -25261.22, -32281.71, -1905.22, -18361.33, -6092.15, -20101.37, -6741.89, 0.00, 0.00, 0.00
808.0, -1428.21, -25265.07, -32288.50, -1879.25, -18356.35, -6093.62, -20043.01, -6730.27, 0.00, 0.00, 0.00
812.0, -1440.26, -25276.49, -32299.70, -1872.05, -18362.81, -6101.15, -20011.36, -6730.58, 0.00, 0.00, 0.00
816.0, -1454.11, -25279.78, -32299.10, -1899.36, -18373.18, -6099.59, -20049.67, -6737.31, 0.00, 0.00, 0.00
820.0, -1437.46, -25261.07, -32275.00, -1906.56, -18363.88, -6079.16, -20088.43, -6730.53, 0.00, 0.00, 0.00
824.0, -1414.22, -25254.16, -32273.68, -1874.31, -18350.96, -6076.90, -20041.15, -6719.63, 0.00, 0.00, 0.00
828.0, -1420.88, -25266.28, -32290.09, -1860.38, -18355.03, -6090.22, -19995.13, -6718.29, 0.00, 0.00, 0.00
832.0, -1440.86, -25274.48, -32295.45, -1880.50, -18366.63, -6098.38, -20027.92, -6731.59, 0.00, 0.00, 0.00
836.0, -1438.18, -25263.82, -32280.16, -1909.22, -18363.28, -6088.41, -20095.36, -6734.11, 0.00, 0.00, 0.00
840.0, -1421.17, -25255.10, -32274.85, -1886.53, -18350.04, -6081.53, -20065.07, -6721.10, 0.00, 0.00, 0.00
844.0, -1423.78, -25266.50, -32289.48, -1866.73, -18353.46, -6087.54, -20002.49, -6713.55, 0.00, 0.00, 0.00
848.0, -1441.78, -25274.05, -32294.36, -1886.76, -18362.79, -6092.06, -20016.66, -6719.94, 0.00, 0.00, 0.00
852.0, -1440.61, -25259.84, -32275.61, -1914.70, -18360.88, -6081.22, -20073.30, -6719.00, 0.00, 0.00, 0.00
856.0, -1425.53, -25252.53, -32271.38, -1892.88, -18355.12, -6075.25, -20061.45, -6711.45, 0.00, 0.00, 0.00
860.0, -1435.36, -25270.39, -32294.54, -1863.84, -18363.57, -6088.57, -19999.47, -6711.98, 0.00, 0.00, 0.00
864.0, -1450.20, -25282.37, -32302.27, -1876.23, -18375.01, -6094.40, -20009.37, -6725.21, 0.00, 0.00, 0.00
868.0, -1449.98, -25270.57, -32286.60, -1905.87, -18373.00, -6084.12, -20079.40, -6727.27, 0.00, 0.00, 0.00
872.0, -1431.72, -25260.38, -32277.26, -1891.18, -18362.00, -6074.85, -20077.54, -6714.73, 0.00, 0.00, 0.00
876.0, -1423.45, -25263.66, -32283.05, -1860.85, -18356.71, -6079.27, -20007.18, -6706.40, 0.00, 0.00, 0.00
880.0, -1442.63, -25273.83, -32293.11, -1866.33, -18364.60, -6088.21, -19986.01, -6715.09, 0.00, 0.00, 0.00
884.0, -1451.10, -25271.84, -32289.26, -1903.12, -18371.48, -6091.16, -20057.02, -6725.57, 0.00, 0.00, 0.00
888.0, -1441.20, -25270.03, -32289.20, -1911.39, -18373.04, -6095.70, -20091.92, -6730.60, 0.00, 0.00, 0.00
892.0, -1431.52, -25277.56, -32302.23, -1880.07, -18371.37, -6107.66, -20029.00, -6730.20, 0.00, 0.00, 0.00
896.0, -1455.10, -25286.73, -32311.44, -1880.90, -18376.80, -6116.31, -19997.26, -6743.72, 0.00, 0.00, 0.00
900.0, -1468.22, -25286.28, -32304.06, -1905.33, -18379.93, -6111.10, -20039.28, -6746.49, 0.00, 0.00, 0.00
904.0, -1449.40, -25266.90, -32283.03, -1902.92, -18366.14, -6089.78, -20074.03, -6736.73, 0.00, 0.00, 0.00
908.0, -1429.84, -25261.02, -32280.46, -1861.45, -18351.25, -6081.84, -20017.64, -6718.38, 0.00, 0.00, 0.00
912.0, -1446.14, -25278.37, -32298.43, -1850.43, -18361.62, -6094.23, -19977.45, -6724.43, 0.00, 0.00, 0.00
916.0, -1460.64, -25281.23, -32295.79, -1877.30, -18372.46, -6092.84, -20021.55, -6732.79, 0.00, 0.00, 0.00
920.0, -1450.34, -25271.13, -32284.21, -1896.32, -18367.08, -6084.97, -20071.33, -6730.74, 0.00, 0.00, 0.00
924.0, -1434.78, -25268.58, -32283.88, -1870.53, -18359.48, -6080.48, -20035.83, -6719.67, 0.00, 0.00, 0.00
928.0, -1449.11, -25287.22, -32303.86, -1862.55, -18370.56, -6094.67, -19984.92, -6723.34, 0.00, 0.00, 0.00
932.0, -1467.30, -25296.52, -32310.16, -1891.02, -18381.65, -6102.14, -20009.53, -6738.25, 0.00, 0.00, 0.00
936.0, -1460.22, -25281.21, -32294.11, -1915.95, -18375.48, -6086.87, -20069.90, -6735.79, 0.00, 0.00, 0.00
940.0, -1439.45, -25270.68, -32288.48, -1893.24, -18361.46, -6077.37, -20039.88, -6714.71, 0.00, 0.00, 0.00
944.0, -1440.30, -25281.59, -32300.50, -1870.15, -18359.77, -6083.99, -19977.14, -6714.35, 0.00, 0.00, 0.00
948.0, -1466.10, -25296.27, -32310.76, -1889.93, -18373.94, -6097.73, -19995.24, -6733.42, 0.00, 0.00, 0.00
952.0, -1461.76, -25280.29, -32293.17, -1913.06, -18369.11, -6088.88, -20058.37, -6735.07, 0.00, 0.00, 0.00
956.0, -1426.44, -25260.91, -32277.53, -1890.00, -18351.74, -6073.17, -20046.27, -6715.25, 0.00, 0.00, 0.00
960.0, -1428.81, -25271.55, -32291.01, -1860.76, -18351.74, -6080.99, -19985.45, -6711.71, 0.00, 0.00, 0.00
964.0, -1453.56, -25287.22, -32306.81, -1879.02, -18370.05, -6097.96, -19986.01, -6727.41, 0.00, 0.00, 0.00
968.0, -1459.66, -25285.83, -32300.55, -1912.19, -18377.22, -6095.30, -20059.33, -6735.97, 0.00, 0.00, 0.00
972.0, -1436.01, -25267.82, -32283.63, -1899.05, -18359.19, -6077.42, -20061.56, -6710.91, 0.00, 0.00, 0.00
976.0, -1431.45, -25269.88, -32289.96, -1871.38, -18356.24, -6080.84, -19996.88, -6696.05, 0.00, 0.00, 0.00
980.0, -1453.06, -25286.33, -32308.13, -1878.87, -18370.70, -6095.30, -19979.35, -6712.05, 0.00, 0.00, 0.00
984.0, -1464.26, -25284.36, -32301.67, -1915.77, -18378.12, -6095.72, -20041.18, -6726.24, 0.00, 0.00, 0.00
988.0, -1439.92, -25266.77, -32283.00, -1919.39, -18366.27, -6080.64, -20066.84, -6721.71, 0.00, 0.00, 0.00
992.0, -1429.53, -25265.88, -32288.41, -1886.53, -18357.96, -6079.21, -20010.71, -6716.19, 0.00, 0.00, 0.00
996.0, -1446.98, -25282.71, -32305.98, -1878.26, -18365.69, -6096.57, -19978.23, -6725.08, 0.00, 0.00, 0.00
1000.0, -1452.80, -25279.31, -32298.29, -1904.77, -18369.47, -6096.68, -20027.01, -6735.90, 0.00, 0.00, 0.00
1004.0, -1431.34, -25264.64, -32283.16, -1913.02, -18359.25, -6082.58, -20065.63, -6731.14, 0.00, 0.00, 0.00
1008.0, -1418.15, -25264.67, -32288.90, -1886.22, -18349.84, -6079.61, -20013.57, -6719.76, 0.00, 0.00, 0.00
1012.0, -1443.92, -25284.92, -32311.66, -1889.30, -18362.99, -6098.36, -19977.47, -6729.39, 0.00, 0.00, 0.00
1016.0, -1455.77, -25286.28, -32309.13, -1907.36, -18368.75, -6098.79, -20012.83, -6734.18, 0.00, 0.00, 0.00
1020.0, -1441.11, -25272.20, -32291.83, -1920.77, -18356.91, -6085.46, -20056.60, -6723.65, 0.00, 0.00, 0.00
1024.0, -1425.39, -25264.87, -32287.21, -1893.73, -18343.41, -6078.24, -20013.80, -6707.02, 0.00, 0.00, 0.00
1028.0, -1435.52, -25272.31, -32297.62, -1874.08, -18347.92, -6086.29, -19961.36, -6700.29, 0.00, 0.00, 0.00
1032.0, -1458.50, -25284.29, -32306.34, -1895.96, -18362.65, -6096.64, -19994.55, -6715.98, 0.00, 0.00, 0.00
1036.0, -1451.14, -25272.94, -32290.65, -1921.45, -18360.93, -6087.74, -20064.36, -6718.42, 0.00, 0.00, 0.00
1040.0, -1429.80, -25266.39, -32286.96, -1893.39, -18351.65, -6080.84, -20030.54, -6706.69, 0.00, 0.00, 0.00
1044.0, -1440.64, -25277.27, -32301.44, -1870.44, -18356.82, -6088.77, -19963.77, -6708.23, 0.00, 0.00, 0.00
1048.0, -1461.71, -25284.31, -32305.29, -1886.82, -18365.27, -6093.60, -19974.84, -6715.63, 0.00, 0.00, 0.00
1052.0, -1451.77, -25273.32, -32288.95, -1913.24, -18366.05, -6086.00, -20041.33, -6718.49, 0.00, 0.00, 0.00
1056.0, -1420.77, -25260.18, -32279.20, -1891.54, -18349.93, -6078.71, -20026.78, -6711.07, 0.00, 0.00, 0.00
1060.0, -1425.77, -25267.28, -32292.53, -1859.42, -18347.43, -6084.84, -19963.95, -6709.79, 0.00, 0.00, 0.00
1064.0, -1448.37, -25279.26, -32303.92, -1873.34, -18361.98, -6096.91, -19969.81, -6720.01, 0.00, 0.00, 0.00
1068.0, -1449.71, -25269.59, -32289.66, -1905.80, -18359.90, -6091.81, -20033.55, -6726.69, 0.00, 0.00, 0.00
1072.0, -1422.78, -25249.85, -32269.35, -1893.42, -18342.31, -6073.13, -20040.21, -6710.53, 0.00, 0.00, 0.00
1076.0, -1416.07, -25255.12, -32278.02, -1859.22, -18338.44, -6071.65, -19975.73, -6700.72, 0.00, 0.00, 0.00
1080.0, -1436.14, -25268.56, -32288.46, -1858.48, -18351.21, -6084.55, -19963.01, -6713.21, 0.00, 0.00, 0.00
1084.0, -1444.37, -25264.42, -32275.72, -1889.26, -18355.01, -6080.28, -20016.05, -6712.03, 0.00, 0.00, 0.00
1088.0, -1429.30, -25249.45, -32261.30, -1889.19, -18345.84, -6065.55, -20040.91, -6704.54, 0.00, 0.00, 0.00
1092.0, -1432.30, -25258.79, -32276.28, -1862.06, -18345.66, -6069.21, -19992.09, -6702.39, 0.00, 0.00, 0.00
1096.0, -1450.16, -25277.92, -32295.90, -1862.26, -18360.57, -6085.64, -19963.53, -6713.50, 0.00, 0.00, 0.00
1100.0, -1460.44, -25285.23, -32298.63, -1900.21, -18378.63, -6094.27, -20018.56, -6727.99, 0.00, 0.00, 0.00
1104.0, -1450.54, -25273.54, -32286.40, -1910.43, -18375.66, -6083.92, -20061.94, -6727.00, 0.00, 0.00, 0.00
1108.0, -1434.89, -25264.96, -32281.84, -1871.56, -18361.22, -6076.48, -20004.72, -6716.05, 0.00, 0.00, 0.00
1112.0, -1445.96, -25272.80, -32290.78, -1857.25, -18360.59, -6081.82, -19953.65, -6715.65, 0.00, 0.00, 0.00
1116.0, -1468.91, -25285.23, -32301.33, -1889.24, -18373.09, -6092.86, -19995.58, -6730.62, 0.00, 0.00, 0.00
1120.0, -1454.07, -25267.44, -32279.31, -1905.58, -18362.31, -6076.79, -20051.79, -6729.22, 0.00, 0.00, 0.00
1124.0, -1434.89, -25260.02, -32276.28, -1875.62, -18349.24, -6068.10, -20008.21, -6715.51, 0.00, 0.00, 0.00
1128.0, -1449.42, -25279.87, -32296.75, -1866.33, -18359.07, -6085.40, -19948.35, -6723.09, 0.00, 0.00, 0.00
1132.0, -1462.97, -25285.41, -32298.45, -1888.63, -18367.79, -6092.08, -19966.14, -6730.87, 0.00, 0.00, 0.00
1136.0, -1456.15, -25273.23, -32284.28, -1905.20, -18363.88, -6078.80, -20023.79, -6730.60, 0.00, 0.00, 0.00
1140.0, -1440.17, -25266.59, -32282.38, -1880.30, -18355.97, -6069.75, -19998.06, -6721.71, 0.00, 0.00, 0.00
1144.0, -1445.29, -25277.41, -32295.74, -1864.74, -18358.78, -6079.76, -19940.37, -6724.92, 0.00, 0.00, 0.00
1148.0, -1454.96, -25286.35, -32300.30, -1881.10, -18369.58, -6086.58, -19945.60, -6729.01, 0.00, 0.00, 0.00
1152.0, -1461.69, -25282.59, -32291.54, -1914.34, -18378.27, -6085.64, -20019.94, -6740.26, 0.00, 0.00, 0.00
1156.0, -1438.18, -25271.13, -32284.17, -1900.79, -18366.29, -6075.47, -20018.15, -6730.31, 0.00, 0.00, 0.00
1160.0, -1433.69, -25277.41, -32295.56, -1871.87, -18363.43, -6077.35, -19955.32, -6724.46, 0.00, 0.00, 0.00
1164.0, -1452.35, -25286.66, -32301.71, -1875.29, -18369.04, -6083.90, -19940.79, -6729.91, 0.00, 0.00, 0.00
1168.0, -1454.70, -25276.51, -32287.47, -1903.01, -18368.26, -6077.22, -20001.17, -6730.98, 0.00, 0.00, 0.00
1172.0, -1437.19, -25263.93, -32276.12, -1901.42, -18360.33, -6069.03, -20017.62, -6723.20, 0.00, 0.00, 0.00
1176.0, -1433.33, -25271.91, -32287.36, -1872.61, -18357.29, -6077.48, -19953.16, -6720.63, 0.00, 0.00, 0.00
1180.0, -1447.68, -25277.77, -32294.49, -1862.32, -18356.73, -6083.41, -19929.11, -6719.98, 0.00, 0.00, 0.00
1184.0, -1455.59, -25272.20, -32285.46, -1885.97, -18359.48, -6078.24, -19985.32, -6730.27, 0.00, 0.00, 0.00
1188.0, -1437.73, -25258.72, -32270.55, -1888.92, -18354.00, -6063.63, -20019.59, -6730.27, 0.00, 0.00, 0.00
1192.0, -1434.07, -25263.84, -32280.59, -1858.68, -18348.32, -6068.03, -19962.10, -6717.39, 0.00, 0.00, 0.00
1196.0, -1452.19, -25280.67, -32296.84, -1858.82, -18356.57, -6081.42, -19921.30, -6721.64, 0.00, 0.00, 0.00
1200.0, -1459.66, -25283.51, -32294.18, -1887.96, -18364.68, -6077.91, -19963.82, -6731.32, 0.00, 0.00, 0.00
1204.0, -1445.31, -25264.78, -32273.41, -1894.80, -18355.92, -6056.03, -20010.46, -6722.82, 0.00, 0.00, 0.00
1208.0, -1428.79, -25254.41, -32267.67, -1857.07, -18343.38, -6044.34, -19964.20, -6704.20, 0.00, 0.00, 0.00
1212.0, -1441.49, -25268.87, -32284.66, -1843.71, -18350.42, -6058.60, -19904.83, -6708.38, 0.00, 0.00, 0.00
1216.0, -1460.84, -25279.02, -32291.12, -1872.96, -18364.44, -6071.00, -19944.66, -6727.27, 0.00, 0.00, 0.00
1220.0, -1457.69, -25269.45, -32278.96, -1897.01, -18359.21, -6062.06, -20002.04, -6731.00, 0.00, 0.00, 0.00
1224.0, -1438.09, -25261.58, -32274.49, -1869.81, -18347.67, -6056.36, -19965.03, -6723.23, 0.00, 0.00, 0.00
1228.0, -1442.54, -25273.83, -32289.98, -1852.85, -18349.78, -6069.53, -19908.50, -6727.52, 0.00, 0.00, 0.00
1232.0, -1460.69, -25284.20, -32297.49, -1878.49, -18359.54, -6080.37, -19928.61, -6740.84, 0.00, 0.00, 0.00
1236.0, -1449.02, -25267.10, -32278.18, -1899.21, -18354.63, -6068.88, -19991.47, -6739.74, 0.00, 0.00, 0.00
1240.0, -1438.74, -25258.74, -32272.68, -1876.34, -18343.23, -6061.82, -19969.63, -6729.57, 0.00, 0.00, 0.00
1244.0, -1443.39, -25273.41, -32289.26, -1851.69, -18346.51, -6071.11, -19902.98, -6730.96, 0.00, 0.00, 0.00
1248.0, -1457.09, -25287.20, -32301.98, -1867.40, -18362.90, -6083.79, -19909.14, -6741.22, 0.00, 0.00, 0.00
1252.0, -1456.75, -25275.40, -32285.33, -1895.45, -18366.34, -6077.08, -19985.45, -6740.37, 0.00, 0.00, 0.00
1256.0, -1436.23, -25261.54, -32271.94, -1883.85, -18357.31, -6065.19, -19992.58, -6727.03, 0.00, 0.00, 0.00
1260.0, -1437.04, -25270.08, -32285.62, -1854.32, -18353.38, -6067.65, -19917.28, -6717.30, 0.00, 0.00, 0.00
1264.0, -1453.42, -25280.40, -32297.00, -1859.08, -18362.38, -6075.47, -19893.07, -6726.91, 0.00, 0.00, 0.00
1268.0, -1457.69, -25273.61, -32285.91, -1886.42, -18363.43, -6069.73, -19955.23, -6733.10, 0.00, 0.00, 0.00
1272.0, -1443.30, -25266.50, -32281.28, -1890.64, -18361.04, -6066.78, -19980.47, -6731.27, 0.00, 0.00, 0.00
1276.0, -1434.78, -25269.00, -32288.57, -1859.08, -18357.87, -6069.21, -19922.69, -6724.37, 0.00, 0.00, 0.00
1280.0, -1458.12, -25284.25, -32304.17, -1853.94, -18367.61, -6083.79, -19892.63, -6729.26, 0.00, 0.00, 0.00
1284.0, -1466.50, -25279.20, -32295.65, -1881.12, -18373.47, -6081.33, -19944.55, -6733.60, 0.00, 0.00, 0.00
1288.0, -1439.59, -25257.22, -32272.32, -1880.54, -18357.76, -6059.49, -19978.79, -6722.09, 0.00, 0.00, 0.00
1292.0, -1426.22, -25254.27, -32275.34, -1844.20, -18348.21, -6054.84, -19927.74, -6710.60, 0.00, 0.00, 0.00
1296.0, -1440.30, -25267.01, -32288.48, -1845.05, -18356.73, -6066.53, -19892.92, -6714.40, 0.00, 0.00, 0.00
1300.0, -1455.37, -25269.88, -32287.56, -1880.05, -18365.06, -6071.38, -19942.92, -6731.27, 0.00, 0.00, 0.00
1304.0, -1443.45, -25254.92, -32272.81, -1901.71, -18356.04, -6059.04, -19997.57, -6730.45, 0.00, 0.00, 0.00
1308.0, -1430.56, -25256.42, -32279.36, -1876.59, -18353.33, -6060.61, -19961.20, -6722.04, 0.00, 0.00, 0.00
1312.0, -1443.01, -25273.23, -32300.19, -1864.45, -18366.27, -6074.49, -19920.54, -6726.47, 0.00, 0.00, 0.00
1316.0, -1465.92, -25281.77, -32306.00, -1883.11, -18377.11, -6081.78, -19959.97, -6737.46, 0.00, 0.00, 0.00
1320.0, -1455.12, -25270.17, -32290.31, -1896.34, -18373.18, -6071.94, -20026.29, -6734.25, 0.00, 0.00, 0.00
1324.0, -1429.82, -25258.57, -32281.15, -1866.68, -18356.10, -6062.46, -19994.28, -6715.45, 0.00, 0.00, 0.00
1328.0, -1437.53, -25268.91, -32293.44, -1845.00, -18360.77, -6070.89, -19941.71, -6714.91, 0.00, 0.00, 0.00
1332.0, -1455.23, -25276.47, -32300.42, -1860.47, -18371.52, -6079.83, -19961.25, -6727.03, 0.00, 0.00, 0.00
1336.0, -1451.32, -25264.27, -32287.34, -1884.50, -18366.36, -6071.07, -20023.85, -6728.12, 0.00, 0.00, 0.00
1340.0, -1424.99, -25245.58, -32274.22, -1860.25, -18348.14, -6057.99, -20009.37, -6709.68, 0.00, 0.00, 0.00
1344.0, -1428.88, -25256.67, -32286.63, -1835.03, -18351.38, -6069.88, -19955.17, -6712.90, 0.00, 0.00, 0.00
1348.0, -1447.66, -25271.60, -32300.04, -1842.50, -18366.36, -6084.97, -19956.64, -6729.31, 0.00, 0.00, 0.00
1352.0, -1444.32, -25260.55, -32284.81, -1874.24, -18366.76, -6077.48, -20028.37, -6736.39, 0.00, 0.00, 0.00
1356.0, -1429.30, -25253.00, -32281.33, -1861.14, -18357.76, -6072.03, -20021.46, -6731.99, 0.00, 0.00, 0.00
1360.0, -1431.12, -25260.24, -32292.46, -1838.59, -18360.55, -6077.15, -19981.63, -6729.69, 0.00, 0.00, 0.00
1364.0, -1443.48, -25274.79, -32309.76, -1840.64, -18370.81, -6090.60, -19960.60, -6738.20, 0.00, 0.00, 0.00
1368.0, -1451.14, -25269.79, -32298.13, -1877.39, -18375.48, -6085.64, -20033.94, -6750.38, 0.00, 0.00, 0.00
1372.0, -1421.88, -25248.62, -32276.50, -1865.63, -18362.09, -6067.36, -20047.23, -6738.11, 0.00, 0.00, 0.00
1376.0, -1417.28, -25253.65, -32287.07, -1837.69, -18360.44, -6071.76, -19989.03, -6728.99, 0.00, 0.00, 0.00
1380.0, -1435.97, -25271.13, -32305.31, -1837.16, -18372.22, -6088.48, -19959.19, -6729.86, 0.00, 0.00, 0.00
1384.0, -1450.49, -25272.16, -32298.22, -1875.40, -18387.48, -6096.59, -20027.41, -6748.21, 0.00, 0.00, 0.00
1388.0, -1430.36, -25248.82, -32273.50, -1876.18, -18369.76, -6075.02, -20058.12, -6732.21, 0.00, 0.00, 0.00
1392.0, -1427.16, -25248.96, -32281.48, -1843.48, -18356.59, -6070.82, -19991.38, -6718.31, 0.00, 0.00, 0.00
1396.0, -1443.50, -25258.65, -32291.54, -1830.52, -18359.10, -6074.56, -19946.52, -6717.70, 0.00, 0.00, 0.00
1400.0, -1455.68, -25264.85, -32292.77, -1857.63, -18366.81, -6076.03, -19990.19, -6727.11, 0.00, 0.00, 0.00
1404.0, -1441.06, -25254.92, -32279.18, -1879.71, -18363.90, -6072.43, -20041.11, -6729.95, 0.00, 0.00, 0.00
1408.0, -1421.95, -25248.87, -32277.62, -1849.43, -18346.24, -6067.54, -19998.96, -6715.07, 0.00, 0.00, 0.00
1412.0, -1429.98, -25252.66, -32279.99, -1831.23, -18343.65, -6066.33, -19950.92, -6704.54, 0.00, 0.00, 0.00
1416.0, -1453.85, -25261.20, -32283.38, -1854.77, -18352.48, -6069.62, -19972.45, -6713.48, 0.00, 0.00, 0.00
1420.0, -1455.79, -25251.53, -32273.57, -1880.52, -18354.18, -6063.65, -20046.72, -6723.43, 0.00, 0.00, 0.00
1424.0, -1435.65, -25241.42, -32268.68, -1849.88, -18346.18, -6056.94, -20019.61, -6715.58, 0.00, 0.00, 0.00
1428.0, -1434.56, -25248.51, -32275.31, -1828.55, -18346.02, -6065.84, -19960.40, -6706.17, 0.00, 0.00, 0.00
1432.0, -1452.77, -25257.96, -32282.71, -1846.30, -18356.82, -6075.92, -19969.58, -6715.60, 0.00, 0.00, 0.00
1436.0, -1450.00, -25241.56, -32261.46, -1872.07, -18349.66, -6061.95, -20037.85, -6714.15, 0.00, 0.00, 0.00
1440.0, -1427.61, -25230.07, -32254.77, -1850.37, -18331.80, -6049.05, -20018.91, -6694.08, 0.00, 0.00, 0.00
1444.0, -1434.80, -25246.21, -32275.31, -1833.56, -18338.42, -6065.01, -19968.15, -6699.35, 0.00, 0.00, 0.00
1448.0, -1451.52, -25262.41, -32288.97, -1842.16, -18352.82, -6080.41, -19974.08, -6716.05, 0.00, 0.00, 0.00
1452.0, -1447.77, -25252.53, -32274.62, -1868.49, -18354.25, -6070.76, -20040.62, -6721.68, 0.00, 0.00, 0.00
1456.0, -1429.55, -25242.12, -32266.82, -1860.69, -18345.73, -6061.39, -20039.10, -6710.73, 0.00, 0.00, 0.00
1460.0, -1430.20, -25251.35, -32278.29, -1843.97, -18351.38, -6072.41, -20001.59, -6713.06, 0.00, 0.00, 0.00
1464.0, -1441.75, -25259.50, -32287.07, -1844.40, -18361.78, -6081.44, -19983.33, -6718.24, 0.00, 0.00, 0.00
1468.0, -1455.86, -25258.07, -32279.81, -1881.61, -18374.68, -6080.23, -20048.93, -6729.64, 0.00, 0.00, 0.00
1472.0, -1437.98, -25247.30, -32269.30, -1880.21, -18373.00, -6071.61, -20073.52, -6725.86, 0.00, 0.00, 0.00
1476.0, -1438.78, -25261.87, -32288.08, -1858.19, -18377.34, -6087.36, -20027.56, -6728.17, 0.00, 0.00, 0.00
1480.0, -1453.65, -25270.35, -32298.92, -1849.41, -18384.18, -6094.14, -19995.91, -6736.64, 0.00, 0.00, 0.00
1484.0, -1465.29, -25261.14, -32285.87, -1874.24, -18384.94, -6084.84, -20042.41, -6744.46, 0.00, 0.00, 0.00
1488.0, -1443.59, -25241.91, -32265.57, -1881.70, -18374.68, -6067.22, -20075.62, -6732.35, 0.00, 0.00, 0.00
1492.0, -1432.61, -25243.32, -32268.25, -1853.74, -18368.28, -6067.29, -20026.76, -6723.69, 0.00, 0.00, 0.00
1496.0, -1453.02, -25260.67, -32286.00, -1846.84, -18375.73, -6078.94, -19986.50, -6729.53, 0.00, 0.00, 0.00
1500.0, -1465.31, -25266.23, -32287.81, -1874.35, -18385.07, -6084.50, -20028.08, -6743.23, 0.00, 0.00, 0.00
1504.0, -1440.10, -25245.06, -32264.81, -1886.53, -18370.03, -6066.46, -20080.20, -6735.18, 0.00, 0.00, 0.00
1508.0, -1425.42, -25243.54, -32266.55, -1854.73, -18356.79, -6062.37, -20027.47, -6719.14, 0.00, 0.00, 0.00
1512.0, -1441.80, -25257.98, -32281.60, -1842.54, -18365.24, -6075.74, -19983.60, -6717.82, 0.00, 0.00, 0.00
1516.0, -1456.57, -25263.21, -32283.85, -1859.49, -18371.32, -6081.42, -20006.24, -6724.77, 0.00, 0.00, 0.00
1520.0, -1447.07, -25248.35, -32267.71, -1877.79, -18362.45, -6070.29, -20062.30, -6722.82, 0.00, 0.00, 0.00
1524.0, -1429.42, -25243.90, -32266.24, -1856.07, -18357.80, -6067.13, -20037.06, -6716.07, 0.00, 0.00, 0.00
1528.0, -1432.64, -25250.88, -32274.69, -1836.80, -18360.04, -6072.50, -19982.62, -6707.94, 0.00, 0.00, 0.00
1532.0, -1441.22, -25255.91, -32279.14, -1836.78, -18363.70, -6078.74, -19987.87, -6710.73, 0.00, 0.00, 0.00
1536.0, -1439.21, -25242.74, -32259.98, -1860.72, -18361.13, -6067.02, -20058.77, -6715.38, 0.00, 0.00, 0.00
1540.0, -1423.34, -25235.54, -32254.62, -1845.45, -18352.75, -6060.54, -20037.53, -6708.09, 0.00, 0.00, 0.00
1544.0, -1427.61, -25246.05, -32267.89, -1830.63, -18353.42, -6067.29, -19978.19, -6704.99, 0.00, 0.00, 0.00
1548.0, -1449.73, -25261.36, -32282.98, -1842.16, -18362.81, -6078.58, -19966.61, -6714.06, 0.00, 0.00, 0.00
1552.0, -1460.40, -25261.65, -32278.64, -1879.02, -18367.57, -6076.70, -20041.82, -6725.19, 0.00, 0.00, 0.00
1556.0, -1434.51, -25246.50, -32267.09, -1865.39, -18351.88, -6065.28, -20040.35, -6714.29, 0.00, 0.00, 0.00
1560.0, -1435.67, -25253.58, -32279.58, -1847.17, -18352.32, -6072.75, -19985.57, -6713.44, 0.00, 0.00, 0.00
1564.0, -1452.80, -25263.64, -32289.04, -1841.45, -18362.90, -6078.02, -19958.25, -6713.06, 0.00, 0.00, 0.00
1568.0, -1456.69, -25254.23, -32274.22, -1865.43, -18366.81, -6071.07, -20020.46, -6720.92, 0.00, 0.00, 0.00
1572.0, -1435.45, -25240.51, -32262.26, -1862.44, -18359.37, -6063.33, -20044.57, -6713.64, 0.00, 0.00, 0.00
1576.0, -1429.46, -25248.44, -32274.26, -1840.00, -18360.57, -6074.35, -19999.60, -6720.77, 0.00, 0.00, 0.00
1580.0, -1447.66, -25263.39, -32289.93, -1836.26, -18367.63, -6087.52, -19967.01, -6725.93, 0.00, 0.00, 0.00
1584.0, -1465.69, -25266.17, -32285.51, -1868.07, -18373.54, -6087.27, -20024.08, -6738.98, 0.00, 0.00, 0.00
1588.0, -1446.74, -25248.87, -32267.31, -1877.48, -18361.94, -6070.60, -20067.89, -6733.55, 0.00, 0.00, 0.00
1592.0, -1431.58, -25244.86, -32268.63, -1845.61, -18355.86, -6067.76, -20019.90, -6721.04, 0.00, 0.00, 0.00
1596.0, -1447.90, -25260.18, -32285.57, -1834.23, -18365.56, -6080.70, -19974.55, -6728.52, 0.00, 0.00, 0.00
1600.0, -1468.98, -25271.42, -32293.73, -1868.58, -18379.97, -6089.17, -20014.20, -6747.19, 0.00, 0.00, 0.00
1604.0, -1452.86, -25257.45, -32280.25, -1883.65, -18374.03, -6077.93, -20072.51, -6746.43, 0.00, 0.00, 0.00
1608.0, -1429.73, -25244.75, -32272.28, -1848.27, -18356.41, -6069.15, -20029.82, -6730.58, 0.00, 0.00, 0.00
1612.0, -1437.37, -25254.92, -32285.35, -1830.47, -18357.93, -6077.57, -19970.70, -6727.58, 0.00, 0.00, 0.00
1616.0, -1453.89, -25262.70, -32291.14, -1847.73, -18367.03, -6083.99, -19985.19, -6735.07, 0.00, 0.00, 0.00
1620.0, -1451.70, -25254.47, -32279.72, -1874.84, -18370.41, -6078.22, -20056.78, -6736.93, 0.00, 0.00, 0.00
1624.0, -1431.56, -25242.88, -32270.62, -1844.73, -18353.89, -6067.98, -20025.04, -6719.65, 0.00, 0.00, 0.00
1628.0, -1435.65, -25248.87, -32278.13, -1825.38, -18352.08, -6074.22, -19969.85, -6713.97, 0.00, 0.00, 0.00
1632.0, -1446.69, -25254.63, -32280.66, -1839.37, -18361.94, -6080.01, -19973.79, -6719.63, 0.00, 0.00, 0.00
1636.0, -1450.67, -25248.60, -32266.49, -1879.36, -18369.24, -6074.38, -20055.35, -6726.44, 0.00, 0.00, 0.00
1640.0, -1435.09, -25243.25, -32260.92, -1864.74, -18362.79, -6064.01, -20040.73, -6717.91, 0.00, 0.00, 0.00
1644.0, -1436.64, -25248.35, -32271.78, -1830.47, -18352.46, -6058.22, -19975.40, -6697.54, 0.00, 0.00, 0.00
1648.0, -1467.41, -25272.38, -32296.57, -1836.58, -18370.27, -6079.54, -19960.33, -6707.40, 0.00, 0.00, 0.00
1652.0, -1482.50, -25271.46, -32286.83, -1879.16, -18384.96, -6082.16, -20043.72, -6728.23, 0.00, 0.00, 0.00
1656.0, -1460.44, -25259.08, -32276.86, -1869.70, -18374.68, -6071.45, -20044.13, -6717.12, 0.00, 0.00, 0.00
1660.0, -1451.28, -25263.86, -32285.06, -1838.72, -18367.68, -6073.75, -19983.55, -6707.94, 0.00, 0.00, 0.00
1664.0, -1464.62, -25276.83, -32298.31, -1833.89, -18374.27, -6085.66, -19960.33, -6715.02, 0.00, 0.00, 0.00
1668.0, -1477.00, -25273.72, -32290.38, -1866.33, -18382.34, -6084.26, -20028.37, -6728.50, 0.00, 0.00, 0.00
1672.0, -1452.22, -25256.93, -32274.06, -1860.67, -18371.50, -6070.53, -20051.23, -6720.45, 0.00, 0.00, 0.00
1676.0, -1445.62, -25262.66, -32283.72, -1830.92, -18365.33, -6075.29, -20001.86, -6716.30, 0.00, 0.00, 0.00
1680.0, -1454.90, -25271.80, -32293.89, -1825.98, -18371.10, -6085.35, -19965.00, -6723.36, 0.00, 0.00, 0.00
1684.0, -1464.91, -25269.76, -32288.81, -1855.87, -18380.04, -6083.23, -20018.87, -6736.23, 0.00, 0.00, 0.00
1688.0, -1453.31, -25257.40, -32276.14, -1870.75, -18376.26, -6075.45, -20063.53, -6733.10, 0.00, 0.00, 0.00
1692.0, -1432.77, -25245.89, -32266.69, -1832.82, -18361.46, -6065.17, -20009.77, -6720.54, 0.00, 0.00, 0.00
1696.0, -1437.22, -25253.49, -32275.16, -1817.78, -18359.25, -6067.40, -19962.79, -6721.37, 0.00, 0.00, 0.00
1700.0, -1462.45, -25265.90, -32285.26, -1853.65, -18374.68, -6081.48, -19996.96, -6739.86, 0.00, 0.00, 0.00
1704.0, -1459.03, -25257.22, -32272.70, -1877.12, -18377.49, -6077.48, -20061.12, -6742.05, 0.00, 0.00, 0.00
1708.0, -1437.42, -25251.93, -32271.51, -1842.77, -18367.63, -6072.21, -20021.40, -6730.09, 0.00, 0.00, 0.00
1712.0, -1445.11, -25259.24, -32282.56, -1824.28, -18366.34, -6075.87, -19967.75, -6726.33, 0.00, 0.00, 0.00
1716.0, -1455.19, -25262.70, -32283.85, -1838.10, -18370.59, -6076.92, -19977.41, -6727.67, 0.00, 0.00, 0.00
1720.0, -1446.56, -25244.57, -32262.57, -1856.78, -18363.05, -6063.94, -20039.32, -6726.29, 0.00, 0.00, 0.00
1724.0, -1435.65, -25247.72, -32269.90, -1841.00, -18359.25, -6066.53, -20019.25, -6724.32, 0.00, 0.00, 0.00
1728.0, -1450.11, -25261.83, -32287.07, -1827.12, -18364.97, -6077.80, -19970.52, -6727.18, 0.00, 0.00, 0.00
1732.0, -1464.46, -25270.28, -32295.41, -1838.19, -18373.04, -6086.36, -19969.32, -6739.21, 0.00, 0.00, 0.00
1736.0, -1458.12, -25258.19, -32279.47, -1865.16, -18371.30, -6077.01, -20042.67, -6741.91, 0.00, 0.00, 0.00
1740.0, -1442.07, -25248.46, -32271.29, -1847.91, -18356.46, -6065.08, -20037.53, -6728.93, 0.00, 0.00, 0.00
1744.0, -1437.69, -25250.36, -32273.77, -1822.36, -18350.09, -6063.04, -19981.68, -6716.39, 0.00, 0.00, 0.00
1748.0, -1456.51, -25263.04, -32286.33, -1824.48, -18356.15, -6074.02, -19955.84, -6713.99, 0.00, 0.00, 0.00
1752.0, -1467.26, -25262.43, -32279.47, -1859.31, -18368.66, -6075.63, -20037.38, -6726.96, 0.00, 0.00, 0.00
1756.0, -1445.64, -25253.42, -32272.14, -1853.34, -18364.17, -6066.71, -20046.36, -6720.92, 0.00, 0.00, 0.00
1760.0, -1446.40, -25260.29, -32281.75, -1830.18, -18365.06, -6071.43, -19992.16, -6721.50, 0.00, 0.00, 0.00
1764.0, -1457.36, -25269.23, -32292.41, -1824.77, -18369.67, -6074.89, -19957.40, -6724.39, 0.00, 0.00, 0.00
1768.0, -1471.10, -25272.31, -32292.01, -1862.48, -18380.87, -6079.27, -20019.16, -6738.45, 0.00, 0.00, 0.00
1772.0, -1454.41, -25261.43, -32279.65, -1871.96, -18376.20, -6074.11, -20049.20, -6730.47, 0.00, 0.00, 0.00
1776.0, -1444.82, -25259.75, -32281.13, -1842.03, -18367.12, -6071.29, -19997.14, -6713.08, 0.00, 0.00, 0.00
1780.0, -1462.65, -25275.20, -32297.69, -1832.84, -18374.70, -6083.94, -19964.44, -6715.38, 0.00, 0.00, 0.00
1784.0, -1471.77, -25274.88, -32292.50, -1863.78, -18382.14, -6085.58, -20013.66, -6734.18, 0.00, 0.00, 0.00
1788.0, -1458.88, -25264.47, -32280.81, -1881.99, -18377.65, -6080.03, -20062.43, -6733.40, 0.00, 0.00, 0.00
1792.0, -1448.64, -25264.51, -32286.78, -1852.04, -18371.84, -6080.17, -20021.17, -6729.66, 0.00, 0.00, 0.00
1796.0, -1461.83, -25276.85, -32300.42, -1833.67, -18372.26, -6086.20, -19970.21, -6724.63, 0.00, 0.00, 0.00
1800.0, -1478.61, -25282.39, -32300.50, -1860.45, -18379.86, -6091.23, -19996.45, -6739.74, 0.00, 0.00, 0.00
1804.0, -1458.47, -25259.64, -32273.21, -1880.27, -18371.52, -6074.44, -20056.87, -6737.96, 0.00, 0.00, 0.00
1808.0, -1440.46, -25257.16, -32274.87, -1854.08, -18364.44, -6069.66, -20022.71, -6724.57, 0.00, 0.00, 0.00
1812.0, -1442.94, -25260.35, -32279.40, -1830.50, -18360.30, -6069.24, -19969.67, -6716.01, 0.00, 0.00, 0.00
1816.0, -1461.27, -25272.00, -32289.82, -1844.82, -18372.31, -6079.67, -19981.59, -6731.99, 0.00, 0.00, 0.00
1820.0, -1468.51, -25270.43, -32284.84, -1878.40, -18384.06, -6078.60, -20063.08, -6748.82, 0.00, 0.00, 0.00
1824.0, -1445.67, -25260.46, -32276.32, -1852.33, -18375.23, -6066.06, -20046.61, -6736.10, 0.00, 0.00, 0.00
1828.0, -1440.28, -25265.61, -32284.05, -1825.89, -18370.09, -6068.54, -19984.81, -6728.63, 0.00, 0.00, 0.00
1832.0, -1459.03, -25278.39, -32295.63, -1835.39, -18379.71, -6081.19, -19973.76, -6743.48, 0.00, 0.00, 0.00
1836.0, -1461.98, -25268.29, -32281.44, -1868.67, -18379.91, -6074.69, -20041.29, -6747.88, 0.00, 0.00, 0.00
1840.0, -1444.37, -25263.33, -32279.85, -1851.10, -18374.29, -6073.04, -20033.13, -6735.36, 0.00, 0.00, 0.00
1844.0, -1452.39, -25278.50, -32296.84, -1831.86, -18383.39, -6084.41, -19990.19, -6736.28, 0.00, 0.00, 0.00
1848.0, -1474.48, -25290.15, -32306.36, -1838.68, -18390.50, -6093.93, -19965.38, -6744.19, 0.00, 0.00, 0.00
1852.0, -1488.00, -25286.44, -32296.41, -1875.40, -18394.57, -6093.69, -20038.03, -6758.25, 0.00, 0.00, 0.00
1856.0, -1461.60, -25275.04, -32288.19, -1880.18, -18386.59, -6088.93, -20058.77, -6753.29, 0.00, 0.00, 0.00
1860.0, -1450.29, -25274.66, -32292.17, -1852.94, -18379.48, -6093.06, -20005.41, -6740.28, 0.00, 0.00, 0.00
1864.0, -1466.36, -25287.44, -32304.35, -1843.93, -18384.73, -6104.26, -19968.51, -6737.29, 0.00, 0.00, 0.00
1868.0, -1479.04, -25282.75, -32295.16, -1872.76, -18388.87, -6097.09, -20014.91, -6738.36, 0.00, 0.00, 0.00
1872.0, -1452.62, -25263.44, -32276.74, -1878.53, -18380.49, -6081.26, -20047.19, -6732.05, 0.00, 0.00, 0.00
1876.0, -1445.58, -25263.48, -32279.72, -1843.68, -18372.55, -6080.61, -19993.37, -6721.93, 0.00, 0.00, 0.00
1880.0, -1461.63, -25277.01, -32294.00, -1835.37, -18375.75, -6093.85, -19950.21, -6723.99, 0.00, 0.00, 0.00
1884.0, -1479.77, -25282.95, -32296.62, -1864.18, -18385.40, -6101.36, -19986.08, -6733.51, 0.00, 0.00, 0.00
1888.0, -1458.03, -25261.38, -32272.74, -1878.51, -18375.64, -6083.92, -20043.84, -6732.52, 0.00, 0.00, 0.00
1892.0, -1435.70, -25255.39, -32270.22, -1852.31, -18365.40, -6080.99, -20005.28, -6723.78, 0.00, 0.00, 0.00
1896.0, -1448.21, -25265.25, -32283.29, -1838.70, -18368.39, -6091.74, -19957.34, -6724.52, 0.00, 0.00, 0.00
1900.0, -1465.74, -25269.32, -32290.13, -1851.44, -18363.90, -6090.49, -19967.13, -6721.48, 0.00, 0.00, 0.00
1904.0, -1460.31, -25258.81, -32277.68, -1874.39, -18356.37, -6078.76, -20024.26, -6722.02, 0.00, 0.00, 0.00
1908.0, -1443.21, -25252.91, -32274.15, -1854.01, -18349.08, -6078.04, -19998.48, -6720.97, 0.00, 0.00, 0.00
1912.0, -1444.08, -25261.09, -32284.23, -1834.70, -18352.01, -6086.11, -19951.41, -6721.19, 0.00, 0.00, 0.00
1916.0, -1448.82, -25265.90, -32289.40, -1838.59, -18357.82, -6089.89, -19948.51, -6726.33, 0.00, 0.00, 0.00
1920.0, -1444.59, -25252.04, -32273.17, -1859.13, -18350.74, -6072.30, -20010.31, -6722.24, 0.00, 0.00, 0.00
1924.0, -1424.52, -25239.50, -32262.93, -1840.84, -18336.50, -6059.94, -19990.08, -6707.67, 0.00, 0.00, 0.00
1928.0, -1435.38, -25249.63, -32272.83, -1818.29, -18340.77, -6067.09, -19940.04, -6709.81, 0.00, 0.00, 0.00
1932.0, -1454.70, -25262.05, -32283.52, -1822.92, -18350.47, -6075.63, -19938.05, -6715.31, 0.00, 0.00, 0.00
1936.0, -1456.08, -25256.49, -32270.91, -1857.72, -18353.96, -6069.12, -20013.35, -6720.36, 0.00, 0.00, 0.00
1940.0, -1433.98, -25246.00, -32265.03, -1841.63, -18343.63, -6058.31, -20007.36, -6702.55, 0.00, 0.00, 0.00
1944.0, -1439.74, -25259.84, -32279.94, -1815.74, -18348.68, -6067.63, -19953.65, -6705.39, 0.00, 0.00, 0.00
1948.0, -1457.02, -25274.12, -32291.43, -1814.81, -18358.92, -6079.27, -19929.78, -6716.79, 0.00, 0.00, 0.00
1952.0, -1470.79, -25275.49, -32289.37, -1855.19, -18369.83, -6081.48, -20000.03, -6742.05, 0.00, 0.00, 0.00
1956.0, -1450.11, -25261.22, -32275.85, -1856.92, -18357.55, -6070.76, -20018.15, -6735.56, 0.00, 0.00, 0.00
1960.0, -1438.33, -25262.75, -32280.19, -1833.27, -18352.08, -6074.40, -19964.18, -6725.04, 0.00, 0.00, 0.00
1964.0, -1454.67, -25279.42, -32299.48, -1826.12, -18361.60, -6090.54, -19929.13, -6732.39, 0.00, 0.00, 0.00
1968.0, -1459.55, -25274.77, -32292.37, -1850.32, -18364.46, -6088.46, -19981.54, -6742.47, 0.00, 0.00, 0.00
1972.0, -1436.97, -25255.55, -32273.37, -1855.19, -18353.71, -6073.55, -20019.94, -6735.16, 0.00, 0.00, 0.00
1976.0, -1432.75, -25257.65, -32280.97, -1830.59, -18350.47, -6076.14, -19969.74, -6728.70, 0.00, 0.00, 0.00
1980.0, -1456.35, -25279.06, -32302.54, -1832.60, -18367.46, -6095.75, -19934.78, -6733.62, 0.00, 0.00, 0.00
1984.0, -1469.09, -25280.20, -32298.34, -1859.89, -18379.93, -6097.80, -19980.87, -6738.31, 0.00, 0.00, 0.00
1988.0, -1447.54, -25256.96, -32274.15, -1873.50, -18367.17, -6075.70, -20028.08, -6731.59, 0.00, 0.00, 0.00
1992.0, -1433.60, -25252.13, -32273.06, -1840.04, -18354.29, -6070.09, -19975.53, -6718.84, 0.00, 0.00, 0.00
1996.0, -1451.34, -25267.73, -32291.36, -1821.20, -18357.53, -6082.40, -19928.64, -6717.73, 0.00, 0.00, 0.00
2000.0, -1474.81, -25285.07, -32305.13, -1851.10, -18373.56, -6095.14, -19962.54, -6733.42, 0.00, 0.00, 0.00
2004.0, -1459.01, -25269.70, -32284.50, -1875.22, -18370.05, -6082.71, -20038.27, -6732.90, 0.00, 0.00, 0.00
2008.0, -1437.46, -25264.87, -32285.06, -1843.73, -18358.69, -6076.79, -20003.80, -6718.98, 0.00, 0.00, 0.00
2012.0, -1445.24, -25279.08, -32303.88, -1828.31, -18363.54, -6088.48, -19952.37, -6723.63, 0.00, 0.00, 0.00
2016.0, -1466.41, -25292.00, -32312.06, -1846.57, -18377.58, -6099.19, -19951.41, -6730.98, 0.00, 0.00, 0.00
2020.0, -1467.64, -25283.18, -32297.15, -1878.46, -18378.07, -6092.53, -20022.67, -6729.42, 0.00, 0.00, 0.00
2024.0, -1440.70, -25267.28, -32284.41, -1852.89, -18364.08, -6081.17, -20002.33, -6715.31, 0.00, 0.00, 0.00
2028.0, -1451.97, -25281.57, -32304.24, -1830.29, -18367.37, -6093.60, -19947.88, -6719.52, 0.00, 0.00, 0.00
2032.0, -1477.70, -25303.27, -32326.50, -1843.33, -18382.83, -6110.90, -19938.07, -6730.18, 0.00, 0.00, 0.00
2036.0, -1480.04, -25297.21, -32313.04, -1881.15, -18388.87, -6105.62, -20014.27, -6741.11, 0.00, 0.00, 0.00
2040.0, -1457.29, -25284.11, -32302.31, -1869.46, -18379.15, -6093.29, -20020.39, -6731.79, 0.00, 0.00, 0.00
2044.0, -1460.40, -25291.98, -32313.45, -1844.09, -18381.83, -6102.07, -19964.69, -6732.88, 0.00, 0.00, 0.00
2048.0, -1478.72, -25306.02, -32326.52, -1844.69, -18391.69, -6113.43, -19935.86, -6740.19, 0.00, 0.00, 0.00
2052.0, -1491.84, -25302.93, -32315.46, -1884.72, -18397.81, -6108.04, -19999.09, -6750.65, 0.00, 0.00, 0.00
2056.0, -1468.33, -25281.48, -32293.91, -1877.73, -18383.64, -6088.37, -20019.72, -6736.93, 0.00, 0.00, 0.00
2060.0, -1459.50, -25283.00, -32301.09, -1840.02, -18377.18, -6093.29, -19957.16, -6726.00, 0.00, 0.00, 0.00
2064.0, -1472.31, -25294.73, -32313.80, -1831.48, -18385.02, -6100.48, -19916.77, -6729.10, 0.00, 0.00, 0.00
2068.0, -1490.57, -25300.50, -32313.22, -1867.58, -18396.98, -6105.11, -19972.51, -6744.15, 0.00, 0.00, 0.00
2072.0, -1477.16, -25288.52, -32301.09, -1884.34, -18390.68, -6096.93, -20026.98, -6746.52, 0.00, 0.00, 0.00
2076.0, -1454.92, -25281.37, -32300.24, -1855.57, -18379.32, -6090.49, -19982.46, -6735.00, 0.00, 0.00, 0.00
2080.0, -1464.80, -25292.58, -32314.07, -1845.96, -18384.78, -6103.01, -19932.73, -6740.12, 0.00, 0.00, 0.00
2084.0, -1492.52, -25302.55, -32319.44, -1879.69, -18403.11, -6113.63, -19970.32, -6757.69, 0.00, 0.00, 0.00
2088.0, -1476.82, -25287.58, -32299.10, -1896.75, -18394.66, -6096.13, -20024.28, -6753.56, 0.00, 0.00, 0.00
2092.0, -1454.81, -25277.97, -32295.10, -1854.05, -18377.54, -6085.96, -19974.28, -6736.10, 0.00, 0.00, 0.00
2096.0, -1467.15, -25290.15, -32310.23, -1833.16, -18379.15, -6093.17, -19920.16, -6733.42, 0.00, 0.00, 0.00
2100.0, -1483.87, -25299.29, -32317.71, -1851.10, -18388.64, -6098.99, -19930.31, -6743.66, 0.00, 0.00, 0.00
2104.0, -1482.73, -25290.75, -32305.47, -1883.05, -18384.76, -6093.13, -19998.13, -6743.19, 0.00, 0.00, 0.00
2108.0, -1460.22, -25283.89, -32301.27, -1861.56, -18371.61, -6086.40, -19970.17, -6734.80, 0.00, 0.00, 0.00
2112.0, -1464.46, -25289.28, -32310.16, -1838.72, -18367.86, -6089.38, -19913.93, -6728.14, 0.00, 0.00, 0.00
2116.0, -1483.46, -25301.71, -32320.89, -1846.52, -18380.00, -6096.64, -19908.61, -6728.52, 0.00, 0.00, 0.00
2120.0, -1487.31, -25295.24, -32308.64, -1879.71, -18386.46, -6091.81, -19987.06, -6741.31, 0.00, 0.00, 0.00
2124.0, -1468.04, -25287.85, -32304.33, -1866.53, -18375.95, -6087.70, -19976.49, -6730.11, 0.00, 0.00, 0.00
2128.0, -1471.95, -25297.39, -32315.28, -1842.39, -18375.01, -6093.55, -19919.05, -6727.81, 0.00, 0.00, 0.00
2132.0, -1481.29, -25310.02, -32328.00, -1845.34, -18382.90, -6105.74, -19901.32, -6734.00, 0.00, 0.00, 0.00
2136.0, -1488.38, -25302.53, -32315.62, -1878.13, -18384.96, -6100.01, -19975.46, -6738.65, 0.00, 0.00, 0.00
2140.0, -1466.77, -25282.30, -32296.55, -1866.68, -18367.75, -6078.76, -19990.82, -6720.12, 0.00, 0.00, 0.00
2144.0, -1463.10, -25283.94, -32300.68, -1835.99, -18362.76, -6075.85, -19927.63, -6708.56, 0.00, 0.00, 0.00
2148.0, -1477.14, -25297.28, -32316.40, -1835.21, -18372.13, -6090.98, -19893.39, -6721.26, 0.00, 0.00, 0.00
2152.0, -1490.77, -25298.29, -32315.86, -1872.56, -18381.65, -6094.00, -19961.76, -6735.16, 0.00, 0.00, 0.00
2156.0, -1466.10, -25285.43, -32304.95, -1874.37, -18371.03, -6081.91, -19990.51, -6726.94, 0.00, 0.00, 0.00
2160.0, -1452.84, -25282.50, -32304.06, -1843.10, -18359.28, -6077.42, -19933.26, -6716.94, 0.00, 0.00, 0.00
2164.0, -1463.95, -25287.18, -32308.60, -1831.84, -18360.55, -6080.70, -19890.75, -6715.49, 0.00, 0.00, 0.00
2168.0, -1485.92, -25291.27, -32306.81, -1863.89, -18367.97, -6083.81, -19932.82, -6729.53, 0.00, 0.00, 0.00
2172.0, -1470.23, -25274.03, -32290.16, -1869.88, -18355.41, -6068.50, -19981.25, -6723.00, 0.00, 0.00, 0.00
2176.0, -1446.92, -25271.35, -32290.58, -1828.28, -18342.80, -6063.38, -19926.38, -6707.58, 0.00, 0.00, 0.00
2180.0, -1457.60, -25286.28, -32305.51, -1819.36, -18351.65, -6077.22, -19885.47, -6710.31, 0.00, 0.00, 0.00
2184.0, -1475.57, -25292.90, -32308.08, -1850.52, -18367.30, -6084.90, -19920.97, -6729.01, 0.00, 0.00, 0.00
2188.0, -1462.01, -25271.87, -32282.24, -1874.15, -18361.04, -6068.32, -19988.05, -6730.87, 0.00, 0.00, 0.00
2192.0, -1439.88, -25265.72, -32281.64, -1845.94, -18349.82, -6060.61, -19943.05, -6713.32, 0.00, 0.00, 0.00
2196.0, -1449.20, -25284.00, -32303.05, -1834.79, -18358.65, -6073.91, -19887.49, -6714.84, 0.00, 0.00, 0.00
2200.0, -1469.25, -25294.35, -32312.55, -1852.65, -18372.64, -6082.94, -19897.37, -6724.97, 0.00, 0.00, 0.00
2204.0, -1467.12, -25284.34, -32298.20, -1880.21, -18374.07, -6073.89, -19971.55, -6728.75, 0.00, 0.00, 0.00
2208.0, -1447.34, -25274.59, -32288.88, -1853.32, -18362.03, -6063.78, -19960.08, -6714.67, 0.00, 0.00, 0.00
2212.0, -1451.05, -25283.26, -32300.53, -1819.14, -18361.98, -6072.12, -19896.61, -6714.22, 0.00, 0.00, 0.00
2216.0, -1474.95, -25295.49, -32311.14, -1832.33, -18372.06, -6081.78, -19894.17, -6718.20, 0.00, 0.00, 0.00
2220.0, -1467.70, -25286.62, -32297.76, -1860.29, -18370.65, -6070.11, -19954.01, -6720.95, 0.00, 0.00, 0.00
2224.0, -1453.80, -25280.52, -32293.55, -1855.33, -18365.24, -6066.40, -19953.65, -6720.88, 0.00, 0.00, 0.00
2228.0, -1455.75, -25281.74, -32300.66, -1820.01, -18358.52, -6068.86, -19882.70, -6710.87, 0.00, 0.00, 0.00
2232.0, -1476.51, -25295.87, -32313.85, -1827.21, -18373.22, -6081.17, -19866.30, -6723.54, 0.00, 0.00, 0.00
2236.0, -1481.99, -25295.09, -32309.47, -1864.63, -18383.55, -6078.80, -19935.36, -6735.70, 0.00, 0.00, 0.00
2240.0, -1457.76, -25278.93, -32293.51, -1862.32, -18369.09, -6062.84, -19953.67, -6724.81, 0.00, 0.00, 0.00
2244.0, -1451.50, -25281.63, -32297.15, -1833.00, -18360.24, -6062.75, -19891.29, -6719.63, 0.00, 0.00, 0.00
2248.0, -1466.21, -25294.57, -32307.81, -1833.83, -18364.55, -6074.58, -19863.12, -6725.24, 0.00, 0.00, 0.00
2252.0, -1472.51, -25288.12, -32296.79, -1859.04, -18362.92, -6069.44, -19915.56, -6724.50, 0.00, 0.00, 0.00
2256.0, -1455.12, -25271.13, -32281.86, -1861.45, -18354.27, -6055.40, -19949.83, -6717.50, 0.00, 0.00, 0.00
2260.0, -1446.31, -25272.58, -32288.75, -1833.76, -18348.01, -6055.29, -19894.75, -6709.99, 0.00, 0.00, 0.00
2264.0, -1455.52, -25283.60, -32298.36, -1825.20, -18353.24, -6064.79, -19856.66, -6715.38, 0.00, 0.00, 0.00
2268.0, -1467.28, -25285.90, -32297.76, -1849.47, -18364.60, -6068.81, -19906.02, -6728.52, 0.00, 0.00, 0.00
2272.0, -1455.26, -25269.63, -32279.67, -1858.70, -18360.04, -6058.62, -19956.20, -6729.89, 0.00, 0.00, 0.00
2276.0, -1436.73, -25262.21, -32274.15, -1822.16, -18347.36, -6049.70, -19903.36, -6716.74, 0.00, 0.00, 0.00
2280.0, -1451.50, -25279.35, -32292.99, -1815.86, -18357.44, -6064.77, -19853.06, -6727.05, 0.00, 0.00, 0.00
2284.0, -1468.42, -25284.70, -32299.77, -1845.09, -18371.30, -6073.10, -19888.94, -6736.23, 0.00, 0.00, 0.00
2288.0, -1452.48, -25265.38, -32276.74, -1860.34, -18363.50, -6054.95, -19944.66, -6725.04, 0.00, 0.00, 0.00
2292.0, -1432.12, -25258.37, -32273.10, -1829.65, -18350.54, -6045.50, -19905.59, -6706.73, 0.00, 0.00, 0.00
2296.0, -1441.02, -25270.08, -32287.96, -1808.17, -18353.75, -6055.24, -19843.56, -6705.05, 0.00, 0.00, 0.00
2300.0, -1456.51, -25276.69, -32291.54, -1827.10, -18360.15, -6059.04, -19854.67, -6715.16, 0.00, 0.00, 0.00
2304.0, -1459.14, -25273.70, -32284.34, -1859.26, -18363.34, -6058.44, -19923.56, -6727.88, 0.00, 0.00, 0.00
2308.0, -1445.80, -25267.35, -32281.57, -1842.83, -18354.60, -6053.68, -19914.73, -6725.55, 0.00, 0.00, 0.00
2312.0, -1446.58, -25274.19, -32290.18, -1814.65, -18352.03, -6059.60, -19858.09, -6725.42, 0.00, 0.00, 0.00
2316.0, -1467.95, -25283.44, -32299.54, -1820.84, -18356.86, -6066.53, -19852.60, -6730.89, 0.00, 0.00, 0.00
2320.0, -1471.91, -25272.49, -32285.84, -1849.05, -18351.47, -6053.28, -19907.11, -6728.68, 0.00, 0.00, 0.00
2324.0, -1445.76, -25252.58, -32268.09, -1839.10, -18330.51, -6032.78, -19899.47, -6709.03, 0.00, 0.00, 0.00
2328.0, -1439.25, -25261.20, -32282.09, -1807.67, -18327.80, -6037.59, -19824.74, -6702.46, 0.00, 0.00, 0.00
2332.0, -1461.16, -25279.17, -32300.08, -1817.87, -18345.33, -6053.43, -19816.21, -6722.18, 0.00, 0.00, 0.00
2336.0, -1470.36, -25276.00, -32291.07, -1850.99, -18353.40, -6047.76, -19885.27, -6729.53, 0.00, 0.00, 0.00
2340.0, -1452.89, -25266.37, -32281.71, -1848.98, -18346.06, -6038.30, -19906.66, -6719.38, 0.00, 0.00, 0.00
2344.0, -1439.16, -25266.30, -32285.89, -1813.73, -18338.24, -6037.74, -19849.11, -6711.42, 0.00, 0.00, 0.00
2348.0, -1449.09, -25273.43, -32295.23, -1806.22, -18340.34, -6040.69, -19820.79, -6711.25, 0.00, 0.00, 0.00
2352.0, -1465.56, -25280.98, -32298.76, -1840.76, -18350.22, -6048.63, -19875.60, -6727.41, 0.00, 0.00, 0.00
2356.0, -1453.62, -25268.47, -32285.78, -1852.04, -18345.13, -6042.39, -19919.92, -6731.70, 0.00, 0.00, 0.00
2360.0, -1436.64, -25264.82, -32285.84, -1815.57, -18332.95, -6039.64, -19853.51, -6719.65, 0.00, 0.00, 0.00
2364.0, -1455.32, -25279.84, -32302.34, -1806.89, -18341.24, -6052.81, -19814.33, -6723.34, 0.00, 0.00, 0.00
2368.0, -1471.46, -25282.28, -32300.66, -1837.92, -18348.70, -6058.19, -19860.17, -6729.71, 0.00, 0.00, 0.00
2372.0, -1460.62, -25266.84, -32282.49, -1846.61, -18343.54, -6043.67, -19914.82, -6724.57, 0.00, 0.00, 0.00
2376.0, -1437.57, -25264.98, -32285.75, -1819.23, -18340.03, -6042.39, -19870.19, -6713.57, 0.00, 0.00, 0.00
2380.0, -1447.86, -25280.65, -32304.01, -1811.12, -18352.19, -6058.35, -19821.57, -6719.36, 0.00, 0.00, 0.00
2384.0, -1464.64, -25286.24, -32308.42, -1832.22, -18362.43, -6064.36, -19853.24, -6725.44, 0.00, 0.00, 0.00
2388.0, -1461.89, -25276.49, -32296.50, -1853.09, -18361.31, -6057.26, -19915.96, -6726.67, 0.00, 0.00, 0.00
2392.0, -1446.69, -25273.61, -32296.66, -1828.19, -18353.82, -6051.29, -19889.72, -6718.13, 0.00, 0.00, 0.00
2396.0, -1456.98, -25290.06, -32315.12, -1812.53, -18362.94, -6064.92, -19836.05, -6724.25, 0.00, 0.00, 0.00
2400.0, -1471.48, -25292.76, -32314.52, -1824.10, -18369.31, -6068.43, -19853.98, -6730.78, 0.00, 0.00, 0.00
2404.0, -1460.95, -25277.05, -32296.06, -1849.52, -18363.07, -6053.37, -19917.39, -6725.28, 0.00, 0.00, 0.00
2408.0, -1438.36, -25269.12, -32292.66, -1835.32, -18356.37, -6048.81, -19906.98, -6709.93, 0.00, 0.00, 0.00
2412.0, -1446.54, -25280.20, -32307.28, -1811.07, -18360.97, -6057.57, -19855.77, -6710.37, 0.00, 0.00, 0.00
2416.0, -1469.87, -25289.75, -32316.80, -1825.82, -18369.71, -6066.51, -19865.80, -6722.85, 0.00, 0.00, 0.00
2420.0, -1476.00, -25280.80, -32304.10, -1856.98, -18372.98, -6054.44, -19940.24, -6731.52, 0.00, 0.00, 0.00
2424.0, -1451.05, -25264.69, -32289.31, -1845.87, -18358.52, -6038.48, -19952.60, -6721.26, 0.00, 0.00, 0.00
2428.0, -1448.10, -25271.04, -32300.01, -1816.01, -18360.97, -6046.48, -19893.23, -6719.47, 0.00, 0.00, 0.00
2432.0, -1462.72, -25283.20, -32311.61, -1818.76, -18372.15, -6058.51, -19873.81, -6727.63, 0.00, 0.00, 0.00
2436.0, -1476.96, -25281.74, -32305.76, -1850.48, -18380.60, -6061.41, -19944.60, -6736.30, 0.00, 0.00, 0.00
2440.0, -1460.06, -25264.56, -32290.25, -1855.98, -18366.79, -6047.73, -19976.63, -6731.03, 0.00, 0.00, 0.00
2444.0, -1448.26, -25267.78, -32299.21, -1824.80, -18359.10, -6049.75, -19917.30, -6722.56, 0.00, 0.00, 0.00
2448.0, -1461.56, -25283.69, -32311.61, -1816.68, -18370.09, -6062.51, -19887.71, -6723.54, 0.00, 0.00, 0.00
2452.0, -1475.80, -25284.58, -32308.75, -1844.60, -18376.02, -6063.11, -19937.85, -6729.77, 0.00, 0.00, 0.00
2456.0, -1457.15, -25267.10, -32293.75, -1843.39, -18361.87, -6046.50, -19975.17, -6721.46, 0.00, 0.00, 0.00
2460.0, -1443.90, -25263.28, -32296.12, -1808.41, -18348.86, -6040.27, -19923.36, -6704.52, 0.00, 0.00, 0.00
2464.0, -1457.94, -25274.08, -32308.48, -1798.06, -18348.57, -6052.09, -19873.81, -6700.74, 0.00, 0.00, 0.00
2468.0, -1468.96, -25275.60, -32306.49, -1825.51, -18353.82, -6054.28, -19907.29, -6707.13, 0.00, 0.00, 0.00
2472.0, -1455.19, -25261.96, -32290.38, -1843.82, -18348.86, -6044.85, -19967.06, -6709.88, 0.00, 0.00, 0.00
2476.0, -1439.47, -25258.21, -32292.28, -1814.45, -18339.05, -6044.16, -19930.58, -6702.93, 0.00, 0.00, 0.00
2480.0, -1451.88, -25275.40, -32312.82, -1798.42, -18344.12, -6059.31, -19876.27, -6705.21, 0.00, 0.00, 0.00
2484.0, -1466.70, -25282.64, -32317.29, -1822.49, -18356.75, -6068.97, -19904.25, -6714.73, 0.00, 0.00, 0.00
2488.0, -1454.74, -25266.75, -32298.22, -1849.18, -18352.93, -6057.73, -19969.23, -6717.95, 0.00, 0.00, 0.00
2492.0, -1437.35, -25257.98, -32293.29, -1831.99, -18342.42, -6052.38, -19944.55, -6703.33, 0.00, 0.00, 0.00
2496.0, -1438.80, -25258.34, -32298.40, -1802.80, -18338.06, -6051.40, -19875.88, -6689.90, 0.00, 0.00, 0.00
2500.0, -1453.67, -25263.35, -32300.62, -1807.79, -18341.80, -6055.06, -19882.17, -6694.26, 0.00, 0.00, 0.00
2504.0, -1447.10, -25250.79, -32281.37, -1835.64, -18338.22, -6044.36, -19953.80, -6696.09, 0.00, 0.00, 0.00
2508.0, -1426.35, -25239.43, -32273.50, -1822.83, -18323.96, -6034.01, -19952.98, -6685.21, 0.00, 0.00, 0.00
2512.0, -1436.77, -25260.51, -32298.07, -1803.70, -18332.79, -6051.65, -19890.73, -6686.68, 0.00, 0.00, 0.00
2516.0, -1461.92, -25276.40, -32312.89, -1819.07, -18351.65, -6069.82, -19882.79, -6700.07, 0.00, 0.00, 0.00
2520.0, -1463.53, -25264.49, -32297.13, -1847.22, -18352.93, -6063.16, -19952.69, -6707.07, 0.00, 0.00, 0.00
2524.0, -1433.35, -25246.56, -32283.14, -1831.01, -18339.70, -6047.96, -19962.86, -6702.53, 0.00, 0.00, 0.00
2528.0, -1423.96, -25247.81, -32287.70, -1803.03, -18336.88, -6048.76, -19897.12, -6697.72, 0.00, 0.00, 0.00
2532.0, -1444.91, -25260.89, -32299.05, -1806.20, -18343.99, -6060.47, -19873.58, -6699.24, 0.00, 0.00, 0.00
2536.0, -1458.74, -25258.92, -32291.07, -1839.79, -18351.61, -6059.54, -19942.94, -6709.48, 0.00, 0.00, 0.00
2540.0, -1439.30, -25243.34, -32275.31, -1841.29, -18338.29, -6048.81, -19972.31, -6705.39, 0.00, 0.00, 0.00
2544.0, -1422.06, -25238.67, -32274.51, -1808.23, -18324.27, -6045.07, -19911.58, -6694.73, 0.00, 0.00, 0.00
2548.0, -1436.79, -25252.96, -32290.25, -1803.58, -18334.06, -6060.25, -19880.65, -6701.14, 0.00, 0.00, 0.00
2552.0, -1454.36, -25252.71, -32286.40, -1833.76, -18342.45, -6061.99, -19939.48, -6713.99, 0.00, 0.00, 0.00
2556.0, -1437.02, -25232.75, -32264.83, -1837.58, -18329.50, -6045.32, -19996.12, -6703.87, 0.00, 0.00, 0.00
2560.0, -1410.53, -25224.86, -32262.95, -1798.33, -18313.61, -6039.04, -19944.39, -6689.77, 0.00, 0.00, 0.00
2564.0, -1417.77, -25241.73, -32283.67, -1791.98, -18324.50, -6056.70, -19901.88, -6703.04, 0.00, 0.00, 0.00
2568.0, -1433.15, -25251.48, -32288.99, -1825.74, -18334.15, -6066.11, -19942.87, -6716.12, 0.00, 0.00, 0.00
2572.0, -1429.89, -25238.72, -32273.73, -1848.29, -18329.57, -6054.84, -19993.86, -6710.37, 0.00, 0.00, 0.00
2576.0, -1413.77, -25230.56, -32272.34, -1820.30, -18320.07, -6048.83, -19950.79, -6704.47, 0.00, 0.00, 0.00
2580.0, -1423.07, -25241.91, -32285.95, -1797.12, -18326.08, -6059.83, -19895.44, -6707.62, 0.00, 0.00, 0.00
2584.0, -1437.15, -25243.88, -32280.92, -1807.47, -18333.21, -6059.76, -19921.91, -6709.39, 0.00, 0.00, 0.00
2588.0, -1433.71, -25230.74, -32264.27, -1829.85, -18329.01, -6047.42, -19984.40, -6703.42, 0.00, 0.00, 0.00
2592.0, -1415.40, -25222.91, -32259.15, -1809.64, -18319.02, -6039.33, -19962.63, -6688.58, 0.00, 0.00, 0.00
2596.0, -1414.84, -25233.93, -32274.09, -1780.67, -18319.04, -6047.96, -19897.66, -6684.22, 0.00, 0.00, 0.00
2600.0, -1444.86, -25251.21, -32289.44, -1806.85, -18337.75, -6064.41, -19915.52, -6701.92, 0.00, 0.00, 0.00
2604.0, -1449.89, -25241.94, -32273.35, -1846.54, -18335.72, -6053.79, -19988.05, -6706.15, 0.00, 0.00, 0.00
2608.0, -1426.56, -25232.17, -32264.36, -1833.78, -18324.61, -6044.67, -19983.24, -6700.31, 0.00, 0.00, 0.00
2612.0, -1423.11, -25245.49, -32280.68, -1803.14, -18326.22, -6052.54, -19922.04, -6694.06, 0.00, 0.00, 0.00
2616.0, -1447.34, -25259.35, -32293.73, -1814.69, -18340.14, -6064.92, -19918.29, -6706.64, 0.00, 0.00, 0.00
2620.0, -1457.47, -25255.12, -32281.93, -1843.86, -18347.14, -6060.50, -19984.40, -6716.72, 0.00, 0.00, 0.00
2624.0, -1439.52, -25246.05, -32270.49, -1841.83, -18342.00, -6051.56, -19999.85, -6704.45, 0.00, 0.00, 0.00
2628.0, -1434.18, -25249.78, -32278.29, -1813.62, -18340.48, -6058.15, -19938.02, -6697.95, 0.00, 0.00, 0.00
2632.0, -1452.08, -25268.15, -32296.64, -1813.89, -18354.87, -6073.35, -19914.29, -6709.97, 0.00, 0.00, 0.00
2636.0, -1468.82, -25275.78, -32296.91, -1854.05, -18367.30, -6077.53, -19978.10, -6726.44, 0.00, 0.00, 0.00
2640.0, -1452.75, -25260.35, -32281.10, -1859.98, -18354.83, -6064.30, -20010.53, -6717.97, 0.00, 0.00, 0.00
2644.0, -1443.92, -25261.54, -32290.27, -1827.95, -18348.61, -6066.35, -19947.05, -6708.81, 0.00, 0.00, 0.00
2648.0, -1467.91, -25282.41, -32310.23, -1830.56, -18366.96, -6085.51, -19912.50, -6725.01, 0.00, 0.00, 0.00
2652.0, -1472.67, -25281.97, -32304.91, -1860.98, -18376.58, -6087.54, -19967.44, -6730.85, 0.00, 0.00, 0.00
2656.0, -1459.05, -25269.74, -32290.09, -1871.22, -18371.37, -6078.80, -20016.14, -6729.57, 0.00, 0.00, 0.00
2660.0, -1444.70, -25261.96, -32288.79, -1828.73, -18359.03, -6071.43, -19961.89, -6721.26, 0.00, 0.00, 0.00
2664.0, -1462.50, -25280.29, -32310.99, -1811.27, -18368.80, -6085.89, -19912.70, -6731.00, 0.00, 0.00, 0.00
2668.0, -1487.71, -25292.27, -32319.46, -1841.58, -18382.72, -6095.61, -19959.28, -6744.62, 0.00, 0.00, 0.00
2672.0, -1481.56, -25281.45, -32305.11, -1866.35, -18378.88, -6087.97, -20030.85, -6746.25, 0.00, 0.00, 0.00
2676.0, -1456.19, -25270.59, -32298.18, -1836.51, -18362.61, -6077.64, -19988.34, -6726.56, 0.00, 0.00, 0.00
2680.0, -1465.47, -25287.38, -32317.13, -1814.94, -18365.33, -6088.55, -19921.35, -6722.15, 0.00, 0.00, 0.00
2684.0, -1484.09, -25296.54, -32322.12, -1841.38, -18379.10, -6098.81, -19947.01, -6738.36, 0.00, 0.00, 0.00
2688.0, -1477.83, -25283.82, -32304.68, -1869.41, -18374.83, -6088.95, -20004.34, -6740.75, 0.00, 0.00, 0.00
2692.0, -1453.53, -25269.88, -32293.49, -1846.19, -18356.91, -6074.67, -19985.32, -6718.20, 0.00, 0.00, 0.00
2696.0, -1455.59, -25280.56, -32310.32, -1814.92, -18355.59, -6083.23, -19920.75, -6710.75, 0.00, 0.00, 0.00
2700.0, -1477.16, -25291.58, -32320.35, -1823.92, -18370.21, -6096.48, -19928.35, -6728.93, 0.00, 0.00, 0.00
2704.0, -1479.98, -25280.20, -32302.83, -1855.73, -18370.70, -6087.39, -19994.78, -6734.11, 0.00, 0.00, 0.00
2708.0, -1454.29, -25265.65, -32291.61, -1838.79, -18354.22, -6070.87, -19989.12, -6724.63, 0.00, 0.00, 0.00
2712.0, -1453.04, -25269.29, -32301.60, -1808.84, -18349.60, -6071.90, -19922.87, -6711.98, 0.00, 0.00, 0.00
2716.0, -1471.95, -25279.24, -32310.70, -1819.74, -18358.40, -6084.57, -19902.87, -6716.19, 0.00, 0.00, 0.00
2720.0, -1480.20, -25277.30, -32304.66, -1852.31, -18367.03, -6084.73, -19968.06, -6725.51, 0.00, 0.00, 0.00
2724.0, -1458.72, -25260.80, -32288.26, -1843.57, -18355.56, -6068.86, -19994.39, -6716.79, 0.00, 0.00, 0.00
2728.0, -1451.61, -25266.54, -32296.46, -1815.68, -18350.76, -6071.40, -19936.59, -6708.97, 0.00, 0.00, 0.00
2732.0, -1474.46, -25282.04, -32311.70, -1815.83, -18357.73, -6084.57, -19906.57, -6718.46, 0.00, 0.00, 0.00
2736.0, -1486.88, -25278.75, -32305.13, -1845.11, -18362.49, -6085.42, -19961.81, -6724.77, 0.00, 0.00, 0.00
2740.0, -1462.63, -25256.53, -32285.69, -1848.40, -18348.72, -6072.54, -20002.06, -6719.29, 0.00, 0.00, 0.00
2744.0, -1447.48, -25256.67, -32291.61, -1817.46, -18340.86, -6073.46, -19939.63, -6708.81, 0.00, 0.00, 0.00
2748.0, -1465.29, -25272.00, -32307.88, -1812.95, -18351.81, -6085.84, -19903.22, -6718.20, 0.00, 0.00, 0.00
2752.0, -1480.36, -25272.98, -32302.70, -1839.32, -18358.29, -6085.96, -19949.20, -6726.65, 0.00, 0.00, 0.00
2756.0, -1466.52, -25257.47, -32283.54, -1847.39, -18351.94, -6072.34, -19999.87, -6728.01, 0.00, 0.00, 0.00
2760.0, -1441.82, -25251.50, -32281.93, -1812.70, -18344.08, -6069.15, -19957.69, -6714.49, 0.00, 0.00, 0.00
2764.0, -1453.24, -25264.49, -32295.70, -1798.38, -18346.60, -6077.24, -19906.22, -6711.00, 0.00, 0.00, 0.00
2768.0, -1474.52, -25271.64, -32297.38, -1831.17, -18356.08, -6083.07, -19942.52, -6722.42, 0.00, 0.00, 0.00
2772.0, -1462.56, -25256.11, -32277.50, -1854.10, -18349.06, -6066.35, -19998.64, -6710.64, 0.00, 0.00, 0.00
2776.0, -1447.45, -25247.97, -32276.01, -1823.01, -18336.39, -6059.33, -19960.80, -6693.19, 0.00, 0.00, 0.00
2780.0, -1448.97, -25259.26, -32290.22, -1793.50, -18337.57, -6069.12, -19894.77, -6694.62, 0.00, 0.00, 0.00
2784.0, -1466.32, -25270.17, -32295.16, -1810.02, -18347.32, -6074.62, -19911.16, -6700.29, 0.00, 0.00, 0.00
2788.0, -1458.18, -25253.98, -32276.48, -1832.64, -18343.49, -6061.50, -19974.95, -6701.21, 0.00, 0.00, 0.00
2792.0, -1436.35, -25244.24, -32270.35, -1811.94, -18333.01, -6055.76, -19962.81, -6691.91, 0.00, 0.00, 0.00
2796.0, -1436.68, -25253.65, -32282.53, -1793.10, -18329.10, -6062.15, -19904.94, -6685.16, 0.00, 0.00, 0.00
2800.0, -1453.51, -25267.17, -32292.93, -1807.90, -18341.48, -6070.82, -19901.23, -6696.94, 0.00, 0.00, 0.00
2804.0, -1458.70, -25262.59, -32283.79, -1839.15, -18349.02, -6067.00, -19971.22, -6708.56, 0.00, 0.00, 0.00
2808.0, -1443.36, -25250.74, -32273.59, -1830.41, -18340.07, -6057.97, -19977.36, -6700.92, 0.00, 0.00, 0.00
2812.0, -1441.17, -25257.54, -32283.99, -1797.55, -18337.10, -6061.19, -19907.16, -6690.32, 0.00, 0.00, 0.00
2816.0, -1460.95, -25272.00, -32297.42, -1798.96, -18348.95, -6073.37, -19893.92, -6698.80, 0.00, 0.00, 0.00
2820.0, -1468.93, -25268.91, -32291.12, -1829.80, -18356.37, -6071.16, -19963.71, -6705.17, 0.00, 0.00, 0.00
2824.0, -1451.23, -25253.69, -32277.97, -1829.89, -18347.47, -6057.19, -19985.23, -6695.71, 0.00, 0.00, 0.00
2828.0, -1435.83, -25252.13, -32280.77, -1793.15, -18337.53, -6055.11, -19921.48, -6688.29, 0.00, 0.00, 0.00
2832.0, -1452.26, -25268.06, -32297.73, -1787.56, -18343.81, -6070.80, -19892.87, -6697.54, 0.00, 0.00, 0.00
2836.0, -1465.63, -25268.54, -32292.50, -1818.29, -18350.31, -6072.79, -19947.95, -6712.16, 0.00, 0.00, 0.00
2840.0, -1448.64, -25254.39, -32276.70, -1822.27, -18338.73, -6060.54, -19988.70, -6705.95, 0.00, 0.00, 0.00
2844.0, -1442.00, -25254.61, -32282.73, -1790.33, -18329.59, -6062.06, -19939.32, -6697.77, 0.00, 0.00, 0.00
2848.0, -1461.18, -25271.64, -32302.99, -1783.94, -18338.87, -6078.91, -19889.81, -6700.14, 0.00, 0.00, 0.00
2852.0, -1477.20, -25276.85, -32306.47, -1820.48, -18353.17, -6088.82, -19947.10, -6715.20, 0.00, 0.00, 0.00
2856.0, -1469.05, -25264.56, -32292.84, -1845.72, -18350.80, -6076.59, -20004.34, -6712.90, 0.00, 0.00, 0.00
2860.0, -1449.38, -25256.62, -32289.80, -1814.20, -18336.12, -6066.35, -19953.67, -6702.48, 0.00, 0.00, 0.00
2864.0, -1452.13, -25267.48, -32302.09, -1791.54, -18334.85, -6074.20, -19895.98, -6703.09, 0.00, 0.00, 0.00
2868.0, -1465.96, -25280.25, -32311.70, -1818.29, -18347.47, -6080.17, -19928.77, -6715.16, 0.00, 0.00, 0.00
2872.0, -1461.22, -25269.12, -32295.48, -1841.25, -18349.22, -6069.08, -19995.33, -6717.41, 0.00, 0.00, 0.00
2876.0, -1444.75, -25262.03, -32290.51, -1814.40, -18338.35, -6061.48, -19971.53, -6709.14, 0.00, 0.00, 0.00
2880.0, -1453.91, -25274.41, -32306.58, -1790.24, -18338.58, -6071.29, -19910.64, -6704.52, 0.00, 0.00, 0.00
2884.0, -1475.98, -25288.03, -32319.41, -1815.57, -18353.04, -6086.71, -19926.74, -6714.04, 0.00, 0.00, 0.00
2888.0, -1479.48, -25281.57, -32309.27, -1852.76, -18359.79, -6079.94, -20003.45, -6724.54, 0.00, 0.00, 0.00
2892.0, -1458.25, -25272.60, -32300.01, -1836.33, -18353.04, -6071.36, -19988.79, -6717.50, 0.00, 0.00, 0.00
2896.0, -1460.15, -25279.91, -32309.07, -1800.92, -18351.36, -6075.47, -19920.99, -6704.16, 0.00, 0.00, 0.00
2900.0, -1484.76, -25290.82, -32318.03, -1807.94, -18356.12, -6083.54, -19906.66, -6706.33, 0.00, 0.00, 0.00
2904.0, -1486.66, -25281.70, -32304.68, -1840.20, -18356.93, -6074.38, -19970.50, -6706.55, 0.00, 0.00, 0.00
2908.0, -1459.75, -25265.88, -32291.92, -1835.79, -18349.24, -6061.73, -19985.77, -6696.00, 0.00, 0.00, 0.00
2912.0, -1453.87, -25269.12, -32299.01, -1804.75, -18345.35, -6063.94, -19919.47, -6695.06, 0.00, 0.00, 0.00
2916.0, -1473.92, -25285.34, -32314.79, -1808.28, -18351.85, -6072.79, -19894.97, -6704.16, 0.00, 0.00, 0.00
2920.0, -1483.91, -25283.94, -32309.20, -1838.12, -18355.63, -6067.81, -19951.79, -6713.44, 0.00, 0.00, 0.00
2924.0, -1467.37, -25273.38, -32303.72, -1834.50, -18344.46, -6061.48, -19977.68, -6701.57, 0.00, 0.00, 0.00
2928.0, -1463.88, -25278.95, -32318.97, -1802.36, -18335.67, -6067.02, -19924.28, -6693.21, 0.00, 0.00, 0.00
2932.0, -1489.94, -25301.39, -32345.21, -1795.45, -18347.99, -6083.23, -19898.91, -6701.54, 0.00, 0.00, 0.00
2936.0, -1509.12, -25308.48, -32350.42, -1825.00, -18356.95, -6083.74, -19956.73, -6715.16, 0.00, 0.00, 0.00
2940.0, -1504.25, -25298.20, -32340.00, -1838.99, -18345.89, -6068.05, -19997.23, -6713.44, 0.00, 0.00, 0.00
2944.0, -1495.38, -25302.80, -32352.45, -1813.13, -18343.45, -6074.02, -19938.63, -6703.98, 0.00, 0.00, 0.00
2948.0, -1511.29, -25323.99, -32377.98, -1806.62, -18354.11, -6088.23, -19891.46, -6702.80, 0.00, 0.00, 0.00
2952.0, -1537.82, -25339.28, -32391.41, -1839.86, -18369.02, -6097.40, -19931.77, -6719.85, 0.00, 0.00, 0.00
2956.0, -1530.80, -25327.68, -32378.02, -1857.12, -18369.11, -6089.40, -19997.30, -6726.18, 0.00, 0.00, 0.00
2960.0, -1514.73, -25323.68, -32379.96, -1828.08, -18358.83, -6086.36, -19965.38, -6715.34, 0.00, 0.00, 0.00
2964.0, -1537.82, -25345.29, -32404.44, -1819.68, -18367.88, -6100.77, -19907.89, -6718.93, 0.00, 0.00, 0.00
2968.0, -1567.77, -25356.22, -32412.80, -1847.75, -18382.57, -6113.07, -19941.35, -6739.12, 0.00, 0.00, 0.00
2972.0, -1552.31, -25333.06, -32382.49, -1859.58, -18367.63, -6091.65, -20001.39, -6736.06, 0.00, 0.00, 0.00
2976.0, -1516.61, -25319.14, -32373.17, -1829.40, -18348.08, -6077.53, -19966.30, -6714.71, 0.00, 0.00, 0.00
2980.0, -1506.64, -25323.72, -32378.29, -1802.22, -18346.47, -6079.83, -19901.14, -6705.32, 0.00, 0.00, 0.00
2984.0, -1526.45, -25338.14, -32387.77, -1820.71, -18362.49, -6095.97, -19911.36, -6718.96, 0.00, 0.00, 0.00
2988.0, -1531.81, -25332.62, -32377.57, -1853.88, -18369.51, -6092.77, -19980.76, -6733.49, 0.00, 0.00, 0.00
2992.0, -1511.96, -25317.98, -32363.92, -1832.93, -18357.51, -6082.65, -19961.45, -6720.30, 0.00, 0.00, 0.00
2996.0, -1511.51, -25323.05, -32370.00, -1801.80, -18354.56, -6086.71, -19895.18, -6713.26, 0.00, 0.00, 0.00
3000.0, -1525.82, -25337.11, -32383.52, -1813.60, -18369.20, -6101.76, -19886.28, -6719.69, 0.00, 0.00, 0.00
3004.0, -1529.24, -25328.46, -32370.46, -1844.71, -18370.96, -6094.87, -19957.22, -6720.10, 0.00, 0.00, 0.00
3008.0, -1506.51, -25315.18, -32355.78, -1838.41, -18362.47, -6086.11, -19971.75, -6706.35, 0.00, 0.00, 0.00
3012.0, -1496.94, -25322.49, -32368.45, -1810.40, -18363.90, -6093.76, -19909.46, -6712.16, 0.00, 0.00, 0.00
3016.0, -1508.88, -25327.77, -32375.21, -1805.44, -18371.88, -6099.41, -19883.91, -6722.35, 0.00, 0.00, 0.00
3020.0, -1517.28, -25325.11, -32364.47, -1838.34, -18380.89, -6097.76, -19956.33, -6737.69, 0.00, 0.00, 0.00
3024.0, -1498.15, -25307.22, -32344.63, -1843.59, -18371.72, -6087.10, -19995.02, -6733.35, 0.00, 0.00, 0.00
3028.0, -1485.09, -25300.43, -32342.08, -1802.89, -18355.41, -6081.24, -19921.71, -6718.42, 0.00, 0.00, 0.00
3032.0, -1497.05, -25310.94, -32353.50, -1795.18, -18363.50, -6092.35, -19886.70, -6730.69, 0.00, 0.00, 0.00
3036.0, -1506.98, -25311.09, -32347.20, -1827.97, -18371.75, -6093.33, -19943.39, -6737.33, 0.00, 0.00, 0.00
3040.0, -1487.84, -25291.54, -32323.24, -1839.08, -18359.83, -6072.88, -19989.59, -6723.14, 0.00, 0.00, 0.00
3044.0, -1472.56, -25288.94, -32325.79, -1804.68, -18352.62, -6070.53, -19936.79, -6707.18, 0.00, 0.00, 0.00
3048.0, -1487.17, -25305.10, -32344.40, -1790.44, -18357.20, -6086.40, -19878.88, -6708.34, 0.00, 0.00, 0.00
3052.0, -1506.15, -25310.47, -32345.25, -1822.76, -18365.85, -6089.96, -19910.46, -6719.63, 0.00, 0.00, 0.00
3056.0, -1497.10, -25298.37, -32330.70, -1840.98, -18362.18, -6074.67, -19963.50, -6718.40, 0.00, 0.00, 0.00
3060.0, -1473.45, -25291.42, -32325.67, -1808.30, -18354.78, -6069.12, -19920.05, -6707.47, 0.00, 0.00, 0.00
3064.0, -1479.51, -25298.40, -32333.61, -1776.87, -18355.16, -6074.73, -19856.91, -6699.71, 0.00, 0.00, 0.00
3068.0, -1504.61, -25311.05, -32342.39, -1802.00, -18372.44, -6085.73, -19889.92, -6712.25, 0.00, 0.00, 0.00
3072.0, -1502.19, -25301.53, -32329.41, -1833.27, -18375.01, -6079.41, -19958.97, -6716.81, 0.00, 0.00, 0.00
3076.0, -1473.85, -25291.20, -32320.87, -1813.60, -18361.22, -6070.71, -19939.03, -6705.43, 0.00, 0.00, 0.00
3080.0, -1469.20, -25295.04, -32327.33, -1783.42, -18356.06, -6072.01, -19872.91, -6704.92, 0.00, 0.00, 0.00
3084.0, -1490.84, -25306.26, -32337.99, -1795.76, -18366.58, -6082.62, -19873.11, -6719.90, 0.00, 0.00, 0.00
3088.0, -1498.93, -25303.02, -32328.94, -1828.62, -18369.27, -6080.03, -19951.79, -6731.63, 0.00, 0.00, 0.00
3092.0, -1479.33, -25291.36, -32317.40, -1816.48, -18355.39, -6068.65, -19955.44, -6723.02, 0.00, 0.00, 0.00
3096.0, -1477.47, -25292.14, -32320.80, -1783.31, -18342.78, -6065.30, -19884.36, -6711.56, 0.00, 0.00, 0.00
3100.0, -1493.19, -25301.66, -32330.70, -1791.85, -18351.09, -6077.24, -19871.71, -6717.03, 0.00, 0.00, 0.00
3104.0, -1500.56, -25294.98, -32320.42, -1829.58, -18357.15, -6073.55, -19944.33, -6732.43, 0.00, 0.00, 0.00
3108.0, -1476.09, -25279.60, -32306.79, -1820.68, -18350.58, -6059.02, -19967.62, -6731.54, 0.00, 0.00, 0.00
3112.0, -1461.16, -25282.19, -32313.60, -1783.76, -18344.75, -6061.06, -19899.91, -6724.63, 0.00, 0.00, 0.00
3116.0, -1474.81, -25296.03, -32325.92, -1777.61, -18354.58, -6073.55, -19871.53, -6728.32, 0.00, 0.00, 0.00
3120.0, -1491.78, -25296.54, -32320.71, -1813.87, -18365.20, -6076.25, -19939.59, -6737.46, 0.00, 0.00, 0.00
3124.0, -1476.00, -25283.00, -32305.80, -1829.24, -18359.97, -6062.84, -19973.47, -6731.70, 0.00, 0.00, 0.00
3128.0, -1461.04, -25278.08, -32303.99, -1800.12, -18349.78, -6058.33, -19914.38, -6719.11, 0.00, 0.00, 0.00
3132.0, -1472.67, -25294.17, -32317.92, -1788.52, -18353.91, -6070.33, -19869.94, -6724.10, 0.00, 0.00, 0.00
3136.0, -1485.47, -25299.27, -32318.05, -1820.30, -18364.28, -6074.44, -19921.91, -6736.46, 0.00, 0.00, 0.00
3140.0, -1478.88, -25284.36, -32300.64, -1839.91, -18357.64, -6061.10, -19974.72, -6736.57, 0.00, 0.00, 0.00
3144.0, -1458.18, -25272.22, -32293.33, -1801.66, -18338.98, -6052.49, -19919.34, -6718.02, 0.00, 0.00, 0.00
3148.0, -1469.16, -25287.02, -32311.37, -1788.18, -18346.76, -6068.52, -19862.34, -6726.24, 0.00, 0.00, 0.00
3152.0, -1487.37, -25293.57, -32313.45, -1817.84, -18357.69, -6073.71, -19899.69, -6739.65, 0.00, 0.00, 0.00
3156.0, -1482.39, -25282.06, -32298.16, -1843.71, -18353.98, -6061.23, -19957.85, -6732.61, 0.00, 0.00, 0.00
3160.0, -1459.93, -25270.95, -32289.93, -1814.98, -18340.12, -6050.93, -19917.55, -6715.00, 0.00, 0.00, 0.00
3164.0, -1469.43, -25284.20, -32306.34, -1790.08, -18341.62, -6058.98, -19857.00, -6710.42, 0.00, 0.00, 0.00
3168.0, -1489.61, -25300.43, -32318.90, -1816.19, -18358.04, -6072.48, -19869.61, -6727.27, 0.00, 0.00, 0.00
3172.0, -1486.19, -25291.80, -32306.56, -1843.55, -18359.32, -6062.44, -19932.66, -6732.64, 0.00, 0.00, 0.00
3176.0, -1464.87, -25280.92, -32300.42, -1819.01, -18345.04, -6049.92, -19915.13, -6715.25, 0.00, 0.00, 0.00
3180.0, -1469.96, -25290.44, -32313.92, -1789.30, -18346.67, -6057.30, -19847.77, -6706.89, 0.00, 0.00, 0.00
3184.0, -1492.11, -25304.50, -32326.41, -1806.54, -18362.72, -6071.38, -19856.55, -6726.94, 0.00, 0.00, 0.00
3188.0, -1489.77, -25295.56, -32314.63, -1840.20, -18363.05, -6065.97, -19930.80, -6732.97, 0.00, 0.00, 0.00
3192.0, -1464.87, -25280.65, -32299.86, -1828.24, -18348.57, -6055.49, -19931.34, -6725.77, 0.00, 0.00, 0.00
3196.0, -1454.00, -25278.84, -32304.17, -1793.66, -18337.55, -6050.80, -19857.76, -6716.56, 0.00, 0.00, 0.00
3200.0, -1474.03, -25293.37, -32319.71, -1796.90, -18347.59, -6058.80, -19837.11, -6719.05, 0.00, 0.00, 0.00
3204.0, -1479.77, -25289.79, -32310.81, -1829.42, -18356.12, -6058.53, -19910.38, -6734.78, 0.00, 0.00, 0.00
3208.0, -1458.88, -25276.54, -32297.64, -1825.58, -18351.21, -6051.49, -19938.02, -6733.87, 0.00, 0.00, 0.00
3212.0, -1455.64, -25281.54, -32305.73, -1790.53, -18350.58, -6054.98, -19878.68, -6726.80, 0.00, 0.00, 0.00
3216.0, -1477.83, -25298.91, -32321.31, -1791.83, -18364.21, -6071.49, -19849.96, -6733.60, 0.00, 0.00, 0.00
3220.0, -1486.32, -25295.18, -32312.71, -1824.89, -18368.89, -6066.69, -19902.82, -6738.42, 0.00, 0.00, 0.00
3224.0, -1468.71, -25280.47, -32293.91, -1835.99, -18361.82, -6051.06, -19939.07, -6734.74, 0.00, 0.00, 0.00
3228.0, -1449.22, -25278.75, -32297.51, -1802.85, -18354.07, -6051.49, -19882.37, -6729.04, 0.00, 0.00, 0.00
3232.0, -1464.96, -25291.91, -32312.51, -1788.79, -18360.19, -6065.19, -19838.78, -6733.08, 0.00, 0.00, 0.00
3236.0, -1480.27, -25291.58, -32304.77, -1818.25, -18365.24, -6060.45, -19883.42, -6743.86, 0.00, 0.00, 0.00
3240.0, -1457.02, -25271.55, -32285.84, -1828.84, -18349.69, -6041.10, -19927.83, -6731.47, 0.00, 0.00, 0.00
3244.0, -1442.00, -25271.19, -32294.27, -1799.40, -18345.89, -6042.93, -19887.80, -6726.85, 0.00, 0.00, 0.00
3248.0, -1456.91, -25285.81, -32309.36, -1786.55, -18349.93, -6052.20, -19838.49, -6729.60, 0.00, 0.00, 0.00
3252.0, -1470.36, -25289.19, -32304.21, -1811.09, -18355.79, -6050.04, -19868.40, -6739.59, 0.00, 0.00, 0.00
3256.0, -1461.89, -25270.86, -32283.05, -1828.19, -18349.33, -6035.62, -19938.11, -6736.12, 0.00, 0.00, 0.00
3260.0, -1435.81, -25259.24, -32276.83, -1801.01, -18333.44, -6031.31, -19903.69, -6717.91, 0.00, 0.00, 0.00
3264.0, -1438.69, -25267.78, -32289.89, -1782.10, -18332.19, -6037.90, -19837.15, -6712.90, 0.00, 0.00, 0.00
3268.0, -1453.53, -25274.55, -32294.78, -1800.08, -18339.76, -6045.10, -19854.29, -6730.94, 0.00, 0.00, 0.00
3272.0, -1450.67, -25262.07, -32277.42, -1824.93, -18335.67, -6031.66, -19914.55, -6735.05, 0.00, 0.00, 0.00
3276.0, -1434.56, -25257.78, -32276.19, -1810.87, -18330.80, -6030.28, -19899.71, -6727.29, 0.00, 0.00, 0.00
3280.0, -1443.63, -25273.72, -32295.92, -1783.18, -18335.31, -6044.07, -19832.30, -6723.09, 0.00, 0.00, 0.00
3284.0, -1462.50, -25284.78, -32304.55, -1789.61, -18347.43, -6050.30, -19825.28, -6731.43, 0.00, 0.00, 0.00
3288.0, -1464.62, -25279.60, -32294.60, -1820.62, -18350.94, -6046.15, -19889.47, -6738.31, 0.00, 0.00, 0.00
3292.0, -1450.05, -25269.74, -32284.43, -1814.76, -18342.00, -6036.78, -19898.66, -6728.99, 0.00, 0.00, 0.00
3296.0, -1440.39, -25273.85, -32293.29, -1784.94, -18337.46, -6038.86, -19834.76, -6719.87, 0.00, 0.00, 0.00
3300.0, -1461.85, -25292.21, -32311.28, -1794.58, -18351.07, -6055.06, -19819.71, -6732.10, 0.00, 0.00, 0.00
3304.0, -1470.43, -25287.33, -32300.95, -1826.16, -18354.74, -6049.63, -19883.55, -6742.94, 0.00, 0.00, 0.00
3308.0, -1451.12, -25271.53, -32285.62, -1821.94, -18346.74, -6037.59, -19912.52, -6737.82, 0.00, 0.00, 0.00
3312.0, -1444.19, -25276.27, -32296.68, -1789.73, -18343.05, -6044.96, -19849.51, -6733.73, 0.00, 0.00, 0.00
3316.0, -1462.68, -25291.94, -32312.31, -1786.89, -18352.95, -6057.26, -19817.57, -6734.60, 0.00, 0.00, 0.00
3320.0, -1474.52, -25289.12, -32303.99, -1818.78, -18362.65, -6055.11, -19874.19, -6739.14, 0.00, 0.00, 0.00
3324.0, -1461.47, -25279.60, -32293.82, -1832.66, -18362.05, -6047.20, -19922.33, -6742.56, 0.00, 0.00, 0.00
3328.0, -1447.66, -25282.75, -32302.23, -1806.71, -18359.07, -6051.91, -19874.97, -6740.28, 0.00, 0.00, 0.00
3332.0, -1465.09, -25297.93, -32319.32, -1793.39, -18366.29, -6064.30, -19824.37, -6742.43, 0.00, 0.00, 0.00
3336.0, -1482.30, -25304.10, -32322.10, -1822.32, -18376.11, -6070.44, -19865.76, -6753.71, 0.00, 0.00, 0.00
3340.0, -1470.68, -25290.78, -32304.82, -1843.26, -18370.03, -6059.60, -19921.77, -6751.90, 0.00, 0.00, 0.00
3344.0, -1450.36, -25282.41, -32299.74, -1809.49, -18358.31, -6051.82, -19872.76, -6741.64, 0.00, 0.00, 0.00
3348.0, -1454.52, -25288.65, -32309.87, -1787.38, -18361.89, -6058.57, -19817.37, -6743.28, 0.00, 0.00, 0.00
3352.0, -1471.93, -25293.68, -32314.09, -1807.00, -18374.05, -6067.92, -19845.76, -6761.34, 0.00, 0.00, 0.00
3356.0, -1466.59, -25280.74, -32297.60, -1830.12, -18369.24, -6055.51, -19909.17, -6763.32, 0.00, 0.00, 0.00
3360.0, -1442.60, -25270.61, -32289.53, -1809.11, -18358.63, -6043.82, -19882.26, -6747.75, 0.00, 0.00, 0.00
3364.0, -1442.07, -25282.84, -32304.17, -1786.64, -18364.28, -6054.66, -19820.88, -6747.61, 0.00, 0.00, 0.00
3368.0, -1470.30, -25300.45, -32320.44, -1807.74, -18377.65, -6068.70, -19832.01, -6758.32, 0.00, 0.00, 0.00
3372.0, -1477.45, -25286.44, -32297.44, -1831.66, -18372.15, -6053.01, -19901.48, -6749.58, 0.00, 0.00, 0.00
3376.0, -1453.13, -25271.37, -32283.00, -1810.47, -18353.08, -6034.50, -19885.61, -6731.14, 0.00, 0.00, 0.00
3380.0, -1456.80, -25283.89, -32302.14, -1778.68, -18352.12, -6041.36, -19820.50, -6726.69, 0.00, 0.00, 0.00
3384.0, -1479.28, -25298.37, -32317.51, -1788.27, -18363.83, -6055.78, -19813.93, -6739.43, 0.00, 0.00, 0.00
3388.0, -1486.55, -25292.94, -32307.30, -1823.84, -18366.43, -6051.11, -19881.34, -6744.37, 0.00, 0.00, 0.00
3392.0, -1461.94, -25273.34, -32288.46, -1811.09, -18352.37, -6036.11, -19902.26, -6729.39, 0.00, 0.00, 0.00
3396.0, -1450.81, -25276.42, -32296.64, -1768.27, -18344.10, -6037.56, -19828.25, -6719.67, 0.00, 0.00, 0.00
3400.0, -1469.20, -25297.66, -32318.34, -1775.44, -18357.76, -6054.53, -19795.80, -6730.71, 0.00, 0.00, 0.00
3404.0, -1474.12, -25292.81, -32307.12, -1813.20, -18361.29, -6049.68, -19860.08, -6735.34, 0.00, 0.00, 0.00
3408.0, -1452.19, -25274.26, -32289.08, -1811.09, -18348.97, -6033.00, -19887.49, -6722.00, 0.00, 0.00, 0.00
3412.0, -1449.91, -25277.05, -32297.58, -1779.04, -18345.60, -6035.73, -19820.32, -6716.72, 0.00, 0.00, 0.00
3416.0, -1466.07, -25289.41, -32309.60, -1776.67, -18352.59, -6045.34, -19778.41, -6723.38, 0.00, 0.00, 0.00
3420.0, -1480.20, -25290.71, -32304.13, -1805.48, -18362.05, -6043.73, -19835.59, -6735.25, 0.00, 0.00, 0.00
3424.0, -1461.40, -25278.28, -32289.93, -1819.90, -18359.28, -6032.44, -19891.58, -6733.62, 0.00, 0.00, 0.00
3428.0, -1442.83, -25275.49, -32294.13, -1789.68, -18350.38, -6028.24, -19841.40, -6722.31, 0.00, 0.00, 0.00
3432.0, -1458.54, -25292.32, -32313.00, -1776.63, -18357.17, -6045.39, -19794.08, -6728.37, 0.00, 0.00, 0.00
3436.0, -1479.57, -25300.52, -32314.18, -1805.75, -18370.56, -6053.81, -19833.75, -6746.07, 0.00, 0.00, 0.00
3440.0, -1470.21, -25287.67, -32296.57, -1833.38, -18370.16, -6041.81, -19887.67, -6744.35, 0.00, 0.00, 0.00
3444.0, -1446.98, -25282.37, -32294.74, -1807.74, -18362.14, -6034.68, -19839.90, -6731.36, 0.00, 0.00, 0.00
3448.0, -1457.31, -25295.20, -32310.34, -1787.71, -18364.06, -6041.74, -19780.96, -6730.65, 0.00, 0.00, 0.00
3452.0, -1483.64, -25304.97, -32318.79, -1807.12, -18373.36, -6051.20, -19809.08, -6745.56, 0.00, 0.00, 0.00
3456.0, -1474.03, -25290.30, -32299.59, -1833.54, -18369.42, -6043.51, -19875.26, -6748.46, 0.00, 0.00, 0.00
3460.0, -1450.05, -25275.93, -32290.54, -1809.24, -18355.16, -6035.91, -19848.71, -6735.92, 0.00, 0.00, 0.00
3464.0, -1447.36, -25279.46, -32299.14, -1775.11, -18351.88, -6041.16, -19773.27, -6729.48, 0.00, 0.00, 0.00
3468.0, -1464.31, -25285.12, -32303.97, -1787.85, -18357.20, -6044.54, -19775.95, -6737.84, 0.00, 0.00, 0.00
3472.0, -1460.69, -25271.02, -32285.10, -1818.02, -18352.55, -6030.54, -19850.05, -6739.88, 0.00, 0.00, 0.00
3476.0, -1434.22, -25255.15, -32271.09, -1798.62, -18334.26, -6015.99, -19842.76, -6723.63, 0.00, 0.00, 0.00
3480.0, -1442.69, -25269.36, -32292.10, -1769.57, -18338.96, -6034.14, -19775.95, -6723.65, 0.00, 0.00, 0.00
3484.0, -1457.31, -25275.31, -32297.64, -1774.06, -18345.44, -6041.61, -19779.66, -6733.26, 0.00, 0.00, 0.00
3488.0, -1454.34, -25265.67, -32284.66, -1797.44, -18342.49, -6029.58, -19844.75, -6736.26, 0.00, 0.00, 0.00
3492.0, -1442.09, -25248.33, -32270.58, -1793.91, -18327.51, -6016.42, -19861.47, -6726.82, 0.00, 0.00, 0.00
3496.0, -1429.51, -25247.43, -32274.09, -1763.24, -18317.48, -6017.40, -19792.07, -6711.94, 0.00, 0.00, 0.00
3500.0, -1445.13, -25261.72, -32287.88, -1764.29, -18328.25, -6028.98, -19767.59, -6723.90, 0.00, 0.00, 0.00
3504.0, -1451.19, -25255.95, -32279.09, -1793.41, -18332.81, -6022.05, -19835.52, -6726.18, 0.00, 0.00, 0.00
3508.0, -1431.43, -25236.62, -32260.67, -1794.89, -18318.91, -6003.48, -19862.90, -6707.83, 0.00, 0.00, 0.00
3512.0, -1419.83, -25236.59, -32265.01, -1757.09, -18309.36, -5999.48, -19798.59, -6691.22, 0.00, 0.00, 0.00
3516.0, -1442.67, -25254.83, -32282.53, -1744.31, -18322.04, -6014.00, -19757.53, -6701.92, 0.00, 0.00, 0.00
3520.0, -1457.27, -25254.10, -32277.42, -1771.11, -18332.81, -6016.40, -19817.59, -6713.19, 0.00, 0.00, 0.00
3524.0, -1438.92, -25237.11, -32258.77, -1780.74, -18324.88, -6000.82, -19871.46, -6714.73, 0.00, 0.00, 0.00
3528.0, -1415.45, -25236.57, -32261.46, -1750.50, -18317.19, -5999.05, -19821.66, -6705.30, 0.00, 0.00, 0.00
3532.0, -1425.50, -25249.78, -32277.95, -1740.19, -18324.90, -6009.47, -19778.21, -6706.91, 0.00, 0.00, 0.00
3536.0, -1444.06, -25254.47, -32279.70, -1769.68, -18333.55, -6011.52, -19820.01, -6710.31, 0.00, 0.00, 0.00
3540.0, -1437.62, -25238.02, -32259.58, -1786.37, -18326.51, -5997.69, -19884.04, -6705.72, 0.00, 0.00, 0.00
3544.0, -1416.01, -25221.66, -32247.84, -1749.72, -18307.24, -5984.52, -19837.55, -6683.71, 0.00, 0.00, 0.00
3548.0, -1420.43, -25235.32, -32263.71, -1722.25, -18307.58, -5996.84, -19774.45, -6680.98, 0.00, 0.00, 0.00
3552.0, -1440.21, -25245.51, -32271.43, -1741.25, -18322.33, -6009.98, -19806.77, -6698.59, 0.00, 0.00, 0.00
3556.0, -1446.49, -25241.33, -32263.87, -1778.93, -18329.82, -6007.08, -19882.41, -6709.41, 0.00, 0.00, 0.00
3560.0, -1422.80, -25233.04, -32258.42, -1757.67, -18321.37, -5998.40, -19868.11, -6700.61, 0.00, 0.00, 0.00
3564.0, -1420.48, -25242.36, -32270.98, -1729.69, -18321.86, -6004.66, -19796.96, -6693.43, 0.00, 0.00, 0.00
3568.0, -1436.73, -25253.76, -32279.36, -1747.21, -18331.92, -6015.08, -19802.82, -6700.40, 0.00, 0.00, 0.00
3572.0, -1445.24, -25246.88, -32269.75, -1775.58, -18335.74, -6011.23, -19877.83, -6710.51, 0.00, 0.00, 0.00
3576.0, -1426.20, -25231.74, -32255.29, -1761.68, -18321.81, -5997.73, -19881.32, -6691.69, 0.00, 0.00, 0.00
3580.0, -1428.30, -25247.05, -32274.33, -1742.99, -18324.45, -6010.23, -19817.82, -6685.90, 0.00, 0.00, 0.00
3584.0, -1451.50, -25264.62, -32292.77, -1752.94, -18338.94, -6027.30, -19807.71, -6704.74, 0.00, 0.00, 0.00
3588.0, -1455.12, -25259.15, -32283.65, -1782.08, -18341.53, -6026.45, -19872.24, -6718.64, 0.00, 0.00, 0.00
3592.0, -1434.42, -25250.41, -32273.88, -1780.72, -18335.63, -6019.35, -19893.37, -6713.30, 0.00, 0.00, 0.00
3596.0, -1428.48, -25253.04, -32282.11, -1749.47, -18331.34, -6021.94, -19834.94, -6703.71, 0.00, 0.00, 0.00
3600.0, -1446.65, -25262.52, -32294.34, -1744.93, -18337.46, -6031.93, -19808.23, -6707.47, 0.00, 0.00, 0.00
3604.0, -1456.91, -25258.72, -32285.98, -1779.18, -18343.70, -6029.85, -19876.60, -6717.50, 0.00, 0.00, 0.00
3608.0, -1436.26, -25242.61, -32268.90, -1785.28, -18332.59, -6013.09, -19909.12, -6709.14, 0.00, 0.00, 0.00
3612.0, -1419.67, -25240.75, -32270.91, -1752.82, -18324.23, -6011.66, -19848.01, -6701.08, 0.00, 0.00, 0.00
3616.0, -1436.73, -25255.10, -32286.09, -1744.29, -18334.93, -6025.52, -19810.24, -6704.81, 0.00, 0.00, 0.00
3620.0, -1454.32, -25255.44, -32283.56, -1774.30, -18345.60, -6027.82, -19865.54, -6717.53, 0.00, 0.00, 0.00
3624.0, -1441.67, -25241.06, -32268.38, -1790.46, -18339.65, -6015.46, -19918.04, -6711.80, 0.00, 0.00, 0.00
3628.0, -1420.72, -25231.97, -32262.91, -1759.95, -18326.84, -6009.02, -19877.38, -6698.59, 0.00, 0.00, 0.00
3632.0, -1427.61, -25239.28, -32272.59, -1737.58, -18327.29, -6016.96, -19823.47, -6699.64, 0.00, 0.00, 0.00
3636.0, -1439.61, -25240.42, -32270.91, -1759.78, -18333.06, -6018.56, -19856.24, -6711.22, 0.00, 0.00, 0.00
3640.0, -1430.27, -25226.78, -32254.06, -1787.27, -18327.58, -6007.21, -19915.34, -6707.29, 0.00, 0.00, 0.00
3644.0, -1407.24, -25220.59, -32249.90, -1766.77, -18319.76, -6005.62, -19882.55, -6699.53, 0.00, 0.00, 0.00
3648.0, -1406.19, -25231.47, -32261.59, -1744.06, -18322.71, -6018.85, -19817.46, -6699.78, 0.00, 0.00, 0.00
3652.0, -1426.76, -25235.99, -32265.88, -1751.62, -18325.05, -6016.33, -19825.42, -6699.96, 0.00, 0.00, 0.00
3656.0, -1434.42, -25233.51, -32260.38, -1777.92, -18325.55, -6009.31, -19891.85, -6703.73, 0.00, 0.00, 0.00
3660.0, -1421.86, -25225.35, -32258.10, -1758.10, -18312.63, -6003.66, -19877.92, -6694.73, 0.00, 0.00, 0.00
3664.0, -1422.98, -25231.74, -32270.08, -1731.63, -18312.87, -6009.02, -19813.26, -6689.36, 0.00, 0.00, 0.00
3668.0, -1445.35, -25250.03, -32286.18, -1749.43, -18333.82, -6030.41, -19822.46, -6704.54, 0.00, 0.00, 0.00
3672.0, -1453.33, -25247.72, -32277.79, -1784.92, -18339.54, -6030.19, -19907.33, -6718.58, 0.00, 0.00, 0.00
3676.0, -1422.55, -25229.29, -32258.24, -1769.92, -18324.99, -6013.47, -19914.26, -6710.35, 0.00, 0.00, 0.00
3680.0, -1417.48, -25234.69, -32268.16, -1738.45, -18323.49, -6017.74, -19841.71, -6703.80, 0.00, 0.00, 0.00
3684.0, -1450.56, -25255.32, -32287.00, -1750.05, -18341.60, -6034.39, -19821.93, -6715.85, 0.00, 0.00, 0.00
3688.0, -1454.25, -25248.24, -32275.36, -1784.36, -18345.19, -6028.76, -19895.13, -6723.56, 0.00, 0.00, 0.00
3692.0, -1432.86, -25236.26, -32266.69, -1779.85, -18336.07, -6020.53, -19919.67, -6721.71, 0.00, 0.00, 0.00
3696.0, -1426.85, -25240.37, -32273.68, -1744.80, -18332.61, -6025.72, -19854.79, -6713.68, 0.00, 0.00, 0.00
3700.0, -1439.09, -25249.71, -32281.66, -1736.15, -18335.20, -6031.04, -19820.88, -6717.79, 0.00, 0.00, 0.00
3704.0, -1450.65, -25250.92, -32280.23, -1769.65, -18338.44, -6030.79, -19883.42, -6726.96, 0.00, 0.00, 0.00
3708.0, -1439.85, -25241.91, -32267.65, -1783.87, -18336.61, -6024.82, -19937.15, -6727.74, 0.00, 0.00, 0.00
3712.0, -1419.96, -25233.51, -32262.17, -1742.90, -18320.07, -6017.36, -19874.48, -6710.93, 0.00, 0.00, 0.00
3716.0, -1437.17, -25247.97, -32276.16, -1733.13, -18331.40, -6032.71, -19825.64, -6715.65, 0.00, 0.00, 0.00
3720.0, -1456.57, -25252.22, -32278.53, -1761.54, -18341.60, -6038.37, -19872.76, -6725.08, 0.00, 0.00, 0.00
3724.0, -1439.12, -25237.49, -32262.75, -1775.87, -18335.40, -6022.83, -19929.57, -6721.97, 0.00, 0.00, 0.00
3728.0, -1409.37, -25227.25, -32255.91, -1737.00, -18316.29, -6008.71, -19880.47, -6701.34, 0.00, 0.00, 0.00
3732.0, -1424.77, -25243.97, -32276.61, -1721.17, -18321.86, -6021.47, -19817.48, -6705.66, 0.00, 0.00, 0.00
3736.0, -1448.33, -25251.44, -32282.56, -1751.68, -18337.37, -6029.34, -19850.36, -6716.52, 0.00, 0.00, 0.00
3740.0, -1447.34, -25240.55, -32266.51, -1782.86, -18335.18, -6020.44, -19924.72, -6716.86, 0.00, 0.00, 0.00
3744.0, -1421.24, -25231.99, -32261.48, -1754.95, -18321.66, -6013.78, -19892.20, -6707.07, 0.00, 0.00, 0.00
3748.0, -1430.71, -25246.36, -32277.88, -1734.79, -18331.27, -6028.85, -19824.01, -6708.07, 0.00, 0.00, 0.00
3752.0, -1453.65, -25255.59, -32283.88, -1754.63, -18345.44, -6038.84, -19834.29, -6716.41, 0.00, 0.00, 0.00
3756.0, -1454.70, -25247.84, -32273.06, -1782.84, -18347.45, -6034.12, -19898.01, -6720.10, 0.00, 0.00, 0.00
3760.0, -1433.26, -25235.68, -32265.46, -1756.49, -18336.16, -6028.24, -19886.41, -6711.87, 0.00, 0.00, 0.00
3764.0, -1434.85, -25242.36, -32277.84, -1723.36, -18335.85, -6035.48, -19829.80, -6712.81, 0.00, 0.00, 0.00
3768.0, -1453.47, -25258.70, -32293.17, -1744.11, -18352.48, -6050.93, -19834.00, -6726.13, 0.00, 0.00, 0.00
3772.0, -1453.13, -25246.61, -32274.49, -1777.43, -18350.33, -6041.45, -19901.81, -6728.41, 0.00, 0.00, 0.00
3776.0, -1431.23, -25230.58, -32257.72, -1765.92, -18335.74, -6028.31, -19909.12, -6717.68, 0.00, 0.00, 0.00
3780.0, -1428.54, -25236.77, -32268.52, -1730.83, -18324.27, -6029.36, -19838.11, -6707.78, 0.00, 0.00, 0.00
3784.0, -1449.18, -25254.50, -32285.10, -1738.43, -18333.24, -6046.88, -19819.54, -6716.25, 0.00, 0.00, 0.00
3788.0, -1456.64, -25257.09, -32280.43, -1780.07, -18344.21, -6047.24, -19892.34, -6734.45, 0.00, 0.00, 0.00
3792.0, -1450.23, -25249.96, -32273.66, -1788.94, -18341.42, -6037.52, -19938.87, -6735.54, 0.00, 0.00, 0.00
3796.0, -1439.50, -25252.87, -32282.78, -1751.75, -18334.44, -6037.56, -19873.61, -6717.57, 0.00, 0.00, 0.00
3800.0, -1452.91, -25267.80, -32296.41, -1743.50, -18344.21, -6051.85, -19833.42, -6723.11, 0.00, 0.00, 0.00
3804.0, -1467.17, -25267.26, -32292.37, -1768.29, -18350.49, -6052.76, -19898.84, -6734.40, 0.00, 0.00, 0.00
3808.0, -1453.69, -25257.45, -32284.12, -1782.10, -18349.89, -6044.38, -19952.44, -6734.27, 0.00, 0.00, 0.00
3812.0, -1437.49, -25253.80, -32289.15, -1753.92, -18338.35, -6042.10, -19893.70, -6722.98, 0.00, 0.00, 0.00
3816.0, -1450.02, -25266.99, -32305.89, -1742.63, -18342.38, -6051.27, -19843.30, -6724.54, 0.00, 0.00, 0.00
3820.0, -1475.95, -25280.16, -32314.38, -1777.77, -18359.59, -6059.36, -19890.37, -6737.29, 0.00, 0.00, 0.00
3824.0, -1467.91, -25266.90, -32300.62, -1789.39, -18353.15, -6043.46, -19942.99, -6726.09, 0.00, 0.00, 0.00
3828.0, -1458.74, -25271.98, -32315.01, -1765.56, -18345.69, -6044.27, -19901.48, -6717.53, 0.00, 0.00, 0.00
3832.0, -1479.55, -25293.84, -32342.19, -1752.53, -18352.17, -6061.66, -19845.82, -6722.64, 0.00, 0.00, 0.00
3836.0, -1498.73, -25303.56, -32351.71, -1770.75, -18361.33, -6071.29, -19876.56, -6734.83, 0.00, 0.00, 0.00
3840.0, -1498.73, -25293.14, -32342.57, -1789.23, -18354.22, -6060.50, -19942.52, -6730.22, 0.00, 0.00, 0.00
3844.0, -1483.02, -25292.50, -32346.33, -1766.97, -18346.33, -6058.64, -19917.84, -6715.65, 0.00, 0.00, 0.00
3848.0, -1493.63, -25310.22, -32365.84, -1748.49, -18350.13, -6071.67, -19855.48, -6717.66, 0.00, 0.00, 0.00
3852.0, -1521.91, -25326.22, -32382.29, -1767.67, -18359.01, -6076.70, -19859.10, -6724.50, 0.00, 0.00, 0.00
3856.0, -1532.06, -25323.32, -32378.74, -1799.56, -18359.19, -6070.64, -19926.85, -6727.23, 0.00, 0.00, 0.00
3860.0, -1521.19, -25316.57, -32374.13, -1787.83, -18350.80, -6063.22, -19930.31, -6727.23, 0.00, 0.00, 0.00
3864.0, -1532.26, -25332.01, -32396.13, -1762.12, -18352.79, -6073.73, -19869.11, -6727.36, 0.00, 0.00, 0.00
3868.0, -1555.99, -25352.22, -32415.35, -1774.82, -18369.36, -6090.78, -19860.13, -6741.76, 0.00, 0.00, 0.00
3872.0, -1573.81, -25355.62, -32414.21, -1813.17, -18380.98, -6093.78, -19935.88, -6753.49, 0.00, 0.00, 0.00
3876.0, -1559.03, -25344.49, -32404.64, -1814.87, -18374.14, -6081.22, -19958.68, -6742.11, 0.00, 0.00, 0.00
3880.0, -1546.85, -25350.43, -32415.42, -1783.16, -18366.56, -6080.32, -19874.30, -6729.91, 0.00, 0.00, 0.00
3884.0, -1571.64, -25368.29, -32432.80, -1788.56, -18381.81, -6094.52, -19856.39, -6744.26, 0.00, 0.00, 0.00
3888.0, -1582.79, -25362.43, -32423.24, -1822.72, -18386.88, -6090.47, -19928.68, -6755.41, 0.00, 0.00, 0.00
3892.0, -1560.73, -25344.22, -32404.04, -1826.67, -18377.83, -6078.22, -19956.29, -6745.87, 0.00, 0.00, 0.00
3896.0, -1554.94, -25346.45, -32410.90, -1789.53, -18369.67, -6083.79, -19891.51, -6734.94, 0.00, 0.00, 0.00
3900.0, -1563.28, -25354.52, -32417.43, -1778.28, -18375.57, -6091.19, -19859.48, -6743.32, 0.00, 0.00, 0.00
3904.0, -1570.23, -25357.83, -32417.72, -1807.27, -18388.58, -6097.47, -19913.88, -6758.63, 0.00, 0.00, 0.00
3908.0, -1556.11, -25344.44, -32402.92, -1824.55, -18386.92, -6092.01, -19964.67, -6761.85, 0.00, 0.00, 0.00
3912.0, -1529.31, -25335.28, -32396.17, -1796.95, -18380.22, -6090.60, -19917.84, -6754.05, 0.00, 0.00, 0.00
3916.0, -1537.13, -25346.72, -32407.99, -1788.34, -18391.57, -6107.03, -19883.42, -6766.25, 0.00, 0.00, 0.00
3920.0, -1554.92, -25352.06, -32408.02, -1815.12, -18406.30, -6115.86, -19925.35, -6778.30, 0.00, 0.00, 0.00
3924.0, -1544.95, -25331.46, -32384.57, -1828.35, -18397.50, -6102.18, -19987.85, -6775.95, 0.00, 0.00, 0.00
3928.0, -1518.00, -25318.20, -32373.13, -1794.58, -18377.98, -6088.41, -19950.32, -6762.54, 0.00, 0.00, 0.00
3932.0, -1517.82, -25329.46, -32386.98, -1779.74, -18376.06, -6094.52, -19890.66, -6756.84, 0.00, 0.00, 0.00
3936.0, -1528.48, -25335.43, -32389.26, -1803.36, -18387.13, -6099.12, -19910.33, -6763.79, 0.00, 0.00, 0.00
3940.0, -1523.87, -25317.28, -32365.93, -1825.04, -18379.93, -6082.58, -19967.35, -6762.83, 0.00, 0.00, 0.00
3944.0, -1499.85, -25300.81, -32354.80, -1797.21, -18358.00, -6066.26, -19938.63, -6739.12, 0.00, 0.00, 0.00
3948.0, -1493.30, -25302.20, -32358.11, -1762.52, -18348.75, -6064.21, -19875.91, -6723.20, 0.00, 0.00, 0.00
3952.0, -1506.11, -25310.58, -32361.66, -1776.65, -18356.19, -6071.00, -19879.10, -6731.27, 0.00, 0.00, 0.00
3956.0, -1509.23, -25302.13, -32346.97, -1805.80, -18359.54, -6065.73, -19945.89, -6743.39, 0.00, 0.00, 0.00
3960.0, -1481.07, -25286.77, -32333.29, -1784.74, -18349.35, -6054.55, -19937.02, -6727.18, 0.00, 0.00, 0.00
3964.0, -1473.36, -25285.75, -32334.72, -1754.59, -18343.34, -6050.33, -19864.13, -6712.50, 0.00, 0.00, 0.00
3968.0, -1490.06, -25292.27, -32338.77, -1759.86, -18347.76, -6057.32, -19845.53, -6716.86, 0.00, 0.00, 0.00
3972.0, -1494.50, -25284.58, -32326.32, -1791.13, -18350.63, -6052.94, -19916.61, -6726.40, 0.00, 0.00, 0.00
3976.0, -1470.90, -25269.07, -32309.04, -1783.87, -18338.42, -6036.76, -19931.16, -6713.70, 0.00, 0.00, 0.00
3980.0, -1467.08, -25276.49, -32318.21, -1748.26, -18334.91, -6039.69, -19864.02, -6703.82, 0.00, 0.00, 0.00
3984.0, -1491.76, -25295.96, -32339.20, -1752.89, -18349.71, -6059.58, -19839.65, -6716.94, 0.00, 0.00, 0.00
3988.0, -1499.18, -25291.91, -32330.46, -1789.23, -18359.34, -6061.28, -19907.29, -6728.81, 0.00, 0.00, 0.00
3992.0, -1472.73, -25269.50, -32307.48, -1784.76, -18345.95, -6042.73, -19935.79, -6715.47, 0.00, 0.00, 0.00
3996.0, -1461.69, -25276.36, -32321.00, -1752.35, -18342.87, -6047.73, -19878.84, -6711.25, 0.00, 0.00, 0.00
4000.0, -1475.08, -25290.93, -32335.17, -1741.09, -18352.86, -6058.73, -19839.90, -6718.46, 0.00, 0.00, 0.00
4004.0, -1488.60, -25289.54, -32328.71, -1768.40, -18360.48, -6056.81, -19885.63, -6722.98, 0.00, 0.00, 0.00
4008.0, -1473.74, -25276.22, -32310.00, -1781.61, -18353.53, -6045.05, -19931.12, -6718.82, 0.00, 0.00, 0.00
4012.0, -1456.37, -25273.94, -32313.33, -1756.58, -18343.38, -6046.86, -19875.39, -6709.17, 0.00, 0.00, 0.00
4016.0, -1470.43, -25288.12, -32328.38, -1749.52, -18352.68, -6062.26, -19827.20, -6714.51, 0.00, 0.00, 0.00
4020.0, -1484.56, -25294.22, -32330.10, -1780.00, -18366.74, -6072.88, -19863.90, -6730.65, 0.00, 0.00, 0.00
4024.0, -1479.91, -25280.25, -32314.94, -1797.95, -18365.11, -6065.50, -19929.35, -6732.23, 0.00, 0.00, 0.00
4028.0, -1463.35, -25272.04, -32310.32, -1764.60, -18354.63, -6055.94, -19900.34, -6719.65, 0.00, 0.00, 0.00
4032.0, -1469.34, -25283.49, -32322.32, -1741.92, -18357.76, -6059.60, -19845.51, -6722.67, 0.00, 0.00, 0.00
4036.0, -1484.96, -25295.18, -32332.22, -1763.73, -18370.90, -6070.64, -19866.61, -6732.23, 0.00, 0.00, 0.00
4040.0, -1488.98, -25293.12, -32327.57, -1802.06, -18374.16, -6068.21, -19940.71, -6739.36, 0.00, 0.00, 0.00
4044.0, -1471.71, -25280.72, -32315.55, -1781.01, -18359.16, -6057.23, -19925.93, -6732.95, 0.00, 0.00, 0.00
4048.0, -1468.82, -25282.17, -32319.57, -1751.59, -18352.17, -6055.98, -19853.98, -6721.88, 0.00, 0.00, 0.00
4052.0, -1485.21, -25288.65, -32323.91, -1762.26, -18359.45, -6063.63, -19846.05, -6721.71, 0.00, 0.00, 0.00
4056.0, -1478.21, -25271.75, -32302.54, -1782.78, -18352.39, -6050.15, -19907.71, -6714.67, 0.00, 0.00, 0.00
4060.0, -1457.13, -25264.98, -32298.22, -1773.66, -18343.67, -6047.47, -19918.60, -6706.28, 0.00, 0.00, 0.00
4064.0, -1453.78, -25273.14, -32305.96, -1744.51, -18339.96, -6052.79, -19854.61, -6706.44, 0.00, 0.00, 0.00
4068.0, -1475.53, -25285.05, -32317.76, -1750.95, -18347.47, -6060.03, -19841.17, -6715.27, 0.00, 0.00, 0.00
4072.0, -1484.92, -25280.96, -32309.40, -1784.30, -18352.46, -6055.83, -19907.83, -6726.24, 0.00, 0.00, 0.00
4076.0, -1460.71, -25262.19, -32291.38, -1776.18, -18338.60, -6039.31, -19916.99, -6714.49, 0.00, 0.00, 0.00
4080.0, -1458.32, -25268.13, -32301.18, -1746.65, -18332.70, -6043.71, -19851.97, -6706.73, 0.00, 0.00, 0.00
4084.0, -1470.10, -25278.88, -32308.80, -1746.36, -18341.73, -6055.09, -19830.09, -6712.99, 0.00, 0.00, 0.00
4088.0, -1484.98, -25277.68, -32304.75, -1775.94, -18348.79, -6055.96, -19884.11, -6719.36, 0.00, 0.00, 0.00
4092.0, -1471.66, -25262.34, -32288.26, -1781.37, -18339.49, -6038.93, -19917.37, -6712.88, 0.00, 0.00, 0.00
4096.0, -1446.43, -25256.13, -32285.73, -1744.75, -18323.91, -6028.91, -19850.90, -6692.72, 0.00, 0.00, 0.00
4100.0, -1465.78, -25277.52, -32307.01, -1733.94, -18339.40, -6042.75, -19808.94, -6705.17, 0.00, 0.00, 0.00
4104.0, -1482.75, -25281.77, -32307.26, -1765.43, -18351.14, -6048.47, -19855.70, -6719.87, 0.00, 0.00, 0.00
4108.0, -1473.67, -25267.95, -32291.21, -1783.65, -18346.91, -6038.55, -19907.38, -6715.72, 0.00, 0.00, 0.00
4112.0, -1463.28, -25266.68, -32293.20, -1756.31, -18337.91, -6031.98, -19863.01, -6706.77, 0.00, 0.00, 0.00
4116.0, -1466.41, -25273.63, -32302.83, -1733.11, -18336.07, -6034.43, -19804.81, -6704.23, 0.00, 0.00, 0.00
4120.0, -1478.93, -25279.51, -32306.96, -1751.57, -18344.86, -6042.12, -19843.03, -6716.34, 0.00, 0.00, 0.00
4124.0, -1471.84, -25265.94, -32290.71, -1775.78, -18342.71, -6034.93, -19914.69, -6718.84, 0.00, 0.00, 0.00
4128.0, -1455.23, -25258.63, -32287.92, -1755.44, -18334.71, -6032.56, -19880.51, -6711.13, 0.00, 0.00, 0.00
4132.0, -1463.64, -25270.37, -32301.60, -1735.08, -18339.31, -6041.50, -19811.85, -6712.30, 0.00, 0.00, 0.00
4136.0, -1480.94, -25281.65, -32311.26, -1750.10, -18353.26, -6052.67, -19826.64, -6725.28, 0.00, 0.00, 0.00
4140.0, -1483.35, -25272.29, -32300.19, -1775.82, -18351.61, -6046.73, -19894.13, -6734.04, 0.00, 0.00, 0.00
4144.0, -1469.38, -25265.20, -32293.84, -1761.38, -18339.87, -6038.14, -19881.63, -6725.57, 0.00, 0.00, 0.00
4148.0, -1468.02, -25272.42, -32303.37, -1737.04, -18339.76, -6041.65, -19813.23, -6717.50, 0.00, 0.00, 0.00
4152.0, -1482.26, -25279.55, -32308.46, -1746.70, -18350.98, -6048.74, -19815.04, -6724.99, 0.00, 0.00, 0.00
4156.0, -1481.92, -25273.61, -32298.36, -1779.20, -18353.55, -6043.42, -19881.81, -6723.69, 0.00, 0.00, 0.00
4160.0, -1463.53, -25262.01, -32287.07, -1773.66, -18344.95, -6033.88, -19893.32, -6718.06, 0.00, 0.00, 0.00
4164.0, -1462.54, -25269.99, -32299.61, -1742.21, -18339.03, -6041.83, -19828.43, -6714.08, 0.00, 0.00, 0.00
4168.0, -1484.49, -25286.77, -32313.85, -1746.43, -18348.75, -6056.90, -19810.78, -6723.05, 0.00, 0.00, 0.00
4172.0, -1489.79, -25283.71, -32307.23, -1783.38, -18358.07, -6055.60, -19876.49, -6732.99, 0.00, 0.00, 0.00
4176.0, -1474.46, -25272.16, -32296.39, -1782.13, -18350.40, -6044.43, -19897.34, -6723.16, 0.00, 0.00, 0.00
4180.0, -1462.68, -25269.79, -32296.08, -1742.54, -18340.99, -6037.97, -19831.45, -6704.79, 0.00, 0.00, 0.00
4184.0, -1481.29, -25285.48, -32311.08, -1734.99, -18348.79, -6048.74, -19798.35, -6706.77, 0.00, 0.00, 0.00
4188.0, -1492.90, -25285.39, -32307.48, -1763.46, -18351.63, -6046.75, -19851.01, -6709.48, 0.00, 0.00, 0.00
4192.0, -1480.96, -25270.75, -32290.02, -1770.41, -18341.91, -6029.63, -19898.08, -6706.73, 0.00, 0.00, 0.00
4196.0, -1468.98, -25267.39, -32290.36, -1738.27, -18327.58, -6025.25, -19841.75, -6695.22, 0.00, 0.00, 0.00
4200.0, -1474.28, -25275.55, -32301.38, -1723.12, -18329.23, -6031.71, -19786.86, -6693.86, 0.00, 0.00, 0.00
4204.0, -1488.04, -25281.88, -32305.09, -1748.93, -18341.75, -6038.64, -19828.54, -6705.03, 0.00, 0.00, 0.00
4208.0, -1481.56, -25276.60, -32292.77, -1776.09, -18343.65, -6034.61, -19888.11, -6714.40, 0.00, 0.00, 0.00
4212.0, -1459.95, -25267.66, -32286.85, -1748.49, -18331.36, -6028.20, -19845.15, -6706.57, 0.00, 0.00, 0.00
4216.0, -1465.38, -25275.40, -32299.21, -1724.86, -18334.11, -6032.98, -19786.90, -6711.80, 0.00, 0.00, 0.00
4220.0, -1485.47, -25284.22, -32307.32, -1746.48, -18345.15, -6039.02, -19809.66, -6725.10, 0.00, 0.00, 0.00
4224.0, -1488.56, -25276.69, -32295.23, -1774.68, -18343.12, -6033.27, -19882.32, -6727.00, 0.00, 0.00, 0.00
4228.0, -1463.64, -25265.54, -32288.41, -1748.06, -18326.46, -6022.88, -19854.23, -6712.83, 0.00, 0.00, 0.00
4232.0, -1464.15, -25273.38, -32299.03, -1727.72, -18328.83, -6029.92, -19794.35, -6713.01, 0.00, 0.00, 0.00
4236.0, -1479.66, -25276.36, -32298.94, -1748.04, -18339.96, -6035.69, -19799.98, -6722.35, 0.00, 0.00, 0.00
4240.0, -1475.13, -25263.68, -32283.43, -1773.59, -18339.36, -6026.59, -19871.97, -6726.56, 0.00, 0.00, 0.00
4244.0, -1446.81, -25250.72, -32276.57, -1746.68, -18325.61, -6015.23, -19862.90, -6712.32, 0.00, 0.00, 0.00
4248.0, -1439.85, -25258.99, -32286.69, -1720.61, -18324.79, -6021.22, -19793.25, -6706.06, 0.00, 0.00, 0.00
4252.0, -1461.33, -25276.18, -32301.35, -1742.45, -18341.30, -6035.10, -19792.69, -6717.03, 0.00, 0.00, 0.00
4256.0, -1473.16, -25269.76, -32288.59, -1779.36, -18347.14, -6030.32, -19866.88, -6726.00, 0.00, 0.00, 0.00
4260.0, -1459.10, -25258.74, -32279.63, -1771.85, -18340.75, -6024.22, -19876.96, -6718.62, 0.00, 0.00, 0.00
4264.0, -1455.72, -25266.52, -32289.87, -1739.70, -18337.62, -6030.03, -19815.36, -6709.81, 0.00, 0.00, 0.00
4268.0, -1477.65, -25283.24, -32306.18, -1740.17, -18346.51, -6041.83, -19797.30, -6717.48, 0.00, 0.00, 0.00
4272.0, -1480.78, -25278.41, -32296.91, -1768.56, -18350.80, -6037.45, -19869.27, -6731.61, 0.00, 0.00, 0.00
4276.0, -1460.13, -25267.10, -32285.55, -1770.95, -18342.22, -6026.83, -19897.19, -6726.78, 0.00, 0.00, 0.00
4280.0, -1458.90, -25271.44, -32294.63, -1745.92, -18335.22, -6032.91, -19835.63, -6725.13, 0.00, 0.00, 0.00
4284.0, -1473.99, -25277.14, -32301.49, -1741.02, -18336.16, -6039.26, -19788.36, -6725.35, 0.00, 0.00, 0.00
4288.0, -1480.65, -25275.62, -32295.83, -1772.65, -18338.40, -6033.61, -19832.61, -6728.63, 0.00, 0.00, 0.00
4292.0, -1464.51, -25263.68, -32282.24, -1784.94, -18330.02, -6020.93, -19876.69, -6721.84, 0.00, 0.00, 0.00
4296.0, -1449.87, -25257.85, -32281.26, -1749.45, -18321.93, -6019.59, -19828.23, -6713.75, 0.00, 0.00, 0.00
4300.0, -1474.05, -25277.05, -32303.75, -1743.88, -18335.56, -6040.42, -19785.52, -6724.21, 0.00, 0.00, 0.00
4304.0, -1492.20, -25282.82, -32306.18, -1774.64, -18346.33, -6042.08, -19820.90, -6736.57, 0.00, 0.00, 0.00
4308.0, -1480.51, -25268.96, -32289.17, -1784.99, -18339.47, -6028.18, -19879.04, -6733.69, 0.00, 0.00, 0.00
4312.0, -1458.92, -25262.61, -32288.10, -1749.14, -18326.06, -6022.99, -19833.19, -6719.49, 0.00, 0.00, 0.00
4316.0, -1470.50, -25274.73, -32300.97, -1726.69, -18330.38, -6032.27, -19772.11, -6724.34, 0.00, 0.00, 0.00
4320.0, -1485.83, -25275.24, -32298.47, -1743.23, -18338.91, -6033.23, -19796.52, -6736.41, 0.00, 0.00, 0.00
4324.0, -1477.61, -25260.09, -32280.05, -1773.21, -18334.29, -6021.74, -19858.99, -6733.04, 0.00, 0.00, 0.00
4328.0, -1461.25, -25255.68, -32277.06, -1751.30, -18322.15, -6017.36, -19831.03, -6723.78, 0.00, 0.00, 0.00
4332.0, -1465.05, -25259.95, -32284.97, -1723.12, -18315.85, -6022.43, -19767.46, -6717.95, 0.00, 0.00, 0.00
4336.0, -1475.93, -25264.89, -32288.39, -1726.96, -18319.29, -6025.56, -19768.31, -6718.98, 0.00, 0.00, 0.00
4340.0, -1471.21, -25255.17, -32273.48, -1753.70, -18321.75, -6018.88, -19830.56, -6724.34, 0.00, 0.00, 0.00
4344.0, -1454.11, -25247.14, -32269.01, -1742.05, -18319.24, -6012.71, -19832.21, -6713.32, 0.00, 0.00, 0.00
4348.0, -1451.30, -25253.02, -32278.64, -1712.95, -18318.93, -6017.07, -19768.04, -6702.68, 0.00, 0.00, 0.00
4352.0, -1472.67, -25268.80, -32292.48, -1730.05, -18334.64, -6033.38, -19760.06, -6714.26, 0.00, 0.00, 0.00
4356.0, -1480.80, -25266.63, -32287.36, -1768.56, -18341.68, -6034.99, -19831.85, -6727.34, 0.00, 0.00, 0.00
4360.0, -1454.72, -25249.38, -32271.96, -1757.20, -18327.00, -6014.85, -19843.63, -6714.37, 0.00, 0.00, 0.00
4364.0, -1451.46, -25256.93, -32283.43, -1731.81, -18324.14, -6024.78, -19777.16, -6708.56, 0.00, 0.00, 0.00
4368.0, -1475.24, -25274.44, -32298.40, -1736.82, -18338.31, -6042.53, -19759.50, -6721.35, 0.00, 0.00, 0.00
4372.0, -1482.39, -25272.13, -32293.64, -1763.55, -18345.60, -6042.01, -19824.48, -6731.59, 0.00, 0.00, 0.00
4376.0, -1460.82, -25249.02, -32272.21, -1756.98, -18324.56, -6021.36, -19849.71, -6722.89, 0.00, 0.00, 0.00
4380.0, -1442.49, -25246.88, -32273.06, -1720.99, -18309.90, -6014.63, -19787.69, -6709.21, 0.00, 0.00, 0.00
4384.0, -1459.70, -25263.75, -32287.92, -1715.88, -18323.38, -6023.21, -19756.13, -6713.59, 0.00, 0.00, 0.00
4388.0, -1479.86, -25274.08, -32294.83, -1754.50, -18342.09, -6031.75, -19810.60, -6729.73, 0.00, 0.00, 0.00
4392.0, -1467.75, -25260.02, -32280.30, -1771.98, -18337.97, -6020.69, -19860.20, -6726.06, 0.00, 0.00, 0.00
4396.0, -1450.92, -25255.86, -32280.88, -1739.35, -18325.41, -6012.89, -19813.26, -6709.23, 0.00, 0.00, 0.00
4400.0, -1464.08, -25272.98, -32297.04, -1733.09, -18332.36, -6025.45, -19762.00, -6707.62, 0.00, 0.00, 0.00
