%OpenBCI Raw EEG Data
%
%Sample Rate = 250.0 Hz
%First Column = Time (ms)
%Other Columns = EEG data in microvolts followed by Accel Data (in G) interleaved with Aux Data
0.0, 0.00, 0.00, 0.00, 0.00, 0.00, 0.00, 0.00, 0.00, 70028.62, 73985.68, 89278.03, 93749.98, 0.00, 0.00, 0.00, 0.00, 0.00, 0.00, 0.00
4.0, 155323.14, 187500.00, 140652.66, 187500.00, 164208.92, 166539.84, 166992.27, 187500.00, 70028.62, 73985.68, 89278.03, 93749.98, 0.00, 0.00, 0.00, 0.00, 0.00, 0.00, 0.00
8.0, 155323.14, 187500.00, 140652.66, 187500.00, 164208.92, 166539.84, 166992.27, 187500.00, 140048.77, 147962.98, 178554.38, 187500.00, 0.00, 0.00, 0.00, 0.00, 0.00, 0.00, 0.00
12.0, 155319.88, 187500.00, 140656.75, 187500.00, 164204.06, 166538.75, 166992.56, 187500.00, 140048.77, 147962.98, 178554.38, 187500.00, 0.00, 0.00, 0.00, 0.00, 0.00, 0.00, 0.00
16.0, 155319.88, 187500.00, 140656.75, 187500.00, 164204.06, 166538.75, 166992.56, 187500.00, 140058.23, 147974.00, 178559.44, 187500.00, 0.00, 0.00, 0.00, 0.00, 0.00, 0.00, 0.00
20.0, 155331.83, 187500.00, 140663.25, 187500.00, 164206.64, 166547.33, 166994.38, 187500.00, 140058.23, 147974.00, 178559.44, 187500.00, 0.00, 0.00, 0.00, 0.00, 0.00, 0.00, 0.00
24.0, 155331.83, 187500.00, 140663.25, 187500.00, 164206.64, 166547.33, 166994.38, 187500.00, 140052.72, 147966.98, 178553.86, 187500.00, 0.00, 0.00, 0.00, 0.00, 0.00, 0.00, 0.00
28.0, 155320.80, 187500.00, 140660.33, 187500.00, 164202.34, 166532.84, 166989.98, 187500.00, 140052.72, 147966.98, 178553.86, 187500.00, 0.00, 0.00, 0.00, 0.00, 0.00, 0.00, 0.00
32.0, 155320.80, 187500.00, 140660.33, 187500.00, 164202.34, 166532.84, 166989.98, 187500.00, 140049.67, 147964.16, 178554.36, 187500.00, 0.00, 0.00, 0.00, 0.00, 0.00, 0.00, 0.00
36.0, 155318.41, 187500.00, 140650.88, 187500.00, 164191.28, 166533.45, 166977.36, 187500.00, 140049.67, 147964.16, 178554.36, 187500.00, 0.00, 0.00, 0.00, 0.00, 0.00, 0.00, 0.00
40.0, 155318.41, 187500.00, 140650.88, 187500.00, 164191.28, 166533.45, 166977.36, 187500.00, 140043.84, 147956.81, 178541.75, 187500.00, 0.00, 0.00, 0.00, 0.00, 0.00, 0.00, 0.00
44.0, 155312.92, 187500.00, 140648.89, 187500.00, 164192.95, 166517.61, 166977.34, 187500.00, 140043.84, 147956.81, 178541.75, 187500.00, 0.00, 0.00, 0.00, 0.00, 0.00, 0.00, 0.00
48.0, 155312.92, 187500.00, 140648.89, 187500.00, 164192.95, 166517.61, 166977.34, 187500.00, 140034.61, 147947.00, 178545.69, 187500.00, 0.00, 0.00, 0.00, 0.00, 0.00, 0.00, 0.00
52.0, 155312.72, 187500.00, 140640.88, 187500.00, 164181.97, 166519.63, 166968.06, 187500.00, 140034.61, 147947.00, 178545.69, 187500.00, 0.00, 0.00, 0.00, 0.00, 0.00, 0.00, 0.00
56.0, 155312.72, 187500.00, 140640.88, 187500.00, 164181.97, 166519.63, 166968.06, 187500.00, 140029.56, 147941.91, 178530.89, 187500.00, 0.00, 0.00, 0.00, 0.00, 0.00, 0.00, 0.00
60.0, 155296.05, 187500.00, 140634.47, 187500.00, 164182.00, 166505.27, 166964.31, 187500.00, 140029.56, 147941.91, 178530.89, 187500.00, 0.00, 0.00, 0.00, 0.00, 0.00, 0.00, 0.00
64.0, 155296.05, 187500.00, 140634.47, 187500.00, 164182.00, 166505.27, 166964.31, 187500.00, 140035.17, 147946.77, 178547.88, 187500.00, 0.00, 0.00, 0.00, 0.00, 0.00, 0.00, 0.00
68.0, 155315.77, 187500.00, 140653.22, 187500.00, 164193.42, 166533.00, 166977.63, 187500.00, 140035.17, 147946.77, 178547.88, 187500.00, 0.00, 0.00, 0.00, 0.00, 0.00, 0.00, 0.00
72.0, 155315.77, 187500.00, 140653.22, 187500.00, 164193.42, 166533.00, 166977.63, 187500.00, 140034.34, 147949.05, 178539.72, 187500.00, 0.00, 0.00, 0.00, 0.00, 0.00, 0.00, 0.00
76.0, 155303.41, 187500.00, 140637.17, 187500.00, 164185.78, 166512.80, 166968.06, 187500.00, 140034.34, 147949.05, 178539.72, 187500.00, 0.00, 0.00, 0.00, 0.00, 0.00, 0.00, 0.00
80.0, 155303.41, 187500.00, 140637.17, 187500.00, 164185.78, 166512.80, 166968.06, 187500.00, 140049.52, 147956.94, 178540.50, 187500.00, 0.00, 0.00, 0.00, 0.00, 0.00, 0.00, 0.00
84.0, 155312.92, 187500.00, 140643.83, 187500.00, 164176.28, 166533.39, 166965.53, 187500.00, 140049.52, 147956.94, 178540.50, 187500.00, 0.00, 0.00, 0.00, 0.00, 0.00, 0.00, 0.00
88.0, 155312.92, 187500.00, 140643.83, 187500.00, 164176.28, 166533.39, 166965.53, 187500.00, 140029.09, 147944.83, 178528.98, 187500.00, 0.00, 0.00, 0.00, 0.00, 0.00, 0.00, 0.00
92.0, 155282.77, 187500.00, 140619.58, 187500.00, 164162.63, 166486.31, 166950.69, 187500.00, 140029.09, 147944.83, 178528.98, 187500.00, 0.00, 0.00, 0.00, 0.00, 0.00, 0.00, 0.00
96.0, 155282.77, 187500.00, 140619.58, 187500.00, 164162.63, 166486.31, 166950.69, 187500.00, 140000.95, 147923.33, 178519.67, 187500.00, 0.00, 0.00, 0.00, 0.00, 0.00, 0.00, 0.00
100.0, 155288.56, 187500.00, 140627.89, 187500.00, 164163.14, 166500.22, 166946.72, 187500.00, 140000.95, 147923.33, 178519.67, 187500.00, 0.00, 0.00, 0.00, 0.00, 0.00, 0.00, 0.00
104.0, 155288.56, 187500.00, 140627.89, 187500.00, 164163.14, 166500.22, 166946.72, 187500.00, 140012.75, 147928.59, 178516.33, 187500.00, 0.00, 0.00, 0.00, 0.00, 0.00, 0.00, 0.00
108.0, 155293.70, 187500.00, 140626.44, 187500.00, 164175.97, 166500.23, 166956.42, 187500.00, 140012.75, 147928.59, 178516.33, 187500.00, 0.00, 0.00, 0.00, 0.00, 0.00, 0.00, 0.00
112.0, 155293.70, 187500.00, 140626.44, 187500.00, 164175.97, 166500.23, 166956.42, 187500.00, 140040.02, 147947.94, 178529.45, 187500.00, 0.00, 0.00, 0.00, 0.00, 0.00, 0.00, 0.00
116.0, 155311.52, 187500.00, 140645.80, 187500.00, 164181.72, 166538.06, 166973.22, 187500.00, 140040.02, 147947.94, 178529.45, 187500.00, 0.00, 0.00, 0.00, 0.00, 0.00, 0.00, 0.00
120.0, 155311.52, 187500.00, 140645.80, 187500.00, 164181.72, 166538.06, 166973.22, 187500.00, 140027.48, 147945.83, 178512.67, 187500.00, 0.00, 0.00, 0.00, 0.00, 0.00, 0.00, 0.00
124.0, 155256.86, 187500.00, 140595.11, 187500.00, 164150.33, 166473.50, 166929.53, 187500.00, 140027.48, 147945.83, 178512.67, 187500.00, 0.00, 0.00, 0.00, 0.00, 0.00, 0.00, 0.00
128.0, 155256.86, 187500.00, 140595.11, 187500.00, 164150.33, 166473.50, 166929.53, 187500.00, 139991.09, 147911.70, 178486.78, 187500.00, 0.00, 0.00, 0.00, 0.00, 0.00, 0.00, 0.00
132.0, 155265.36, 187500.00, 140603.59, 187500.00, 164135.97, 166477.47, 166916.16, 187500.00, 139991.09, 147911.70, 178486.78, 187500.00, 0.00, 0.00, 0.00, 0.00, 0.00, 0.00, 0.00
136.0, 155265.36, 187500.00, 140603.59, 187500.00, 164135.97, 166477.47, 166916.16, 187500.00, 139976.52, 147892.84, 178486.42, 187500.00, 0.00, 0.00, 0.00, 0.00, 0.00, 0.00, 0.00
140.0, 155246.70, 187500.00, 140586.48, 187500.00, 164136.91, 166453.25, 166908.83, 187500.00, 139976.52, 147892.84, 178486.42, 187500.00, 0.00, 0.00, 0.00, 0.00, 0.00, 0.00, 0.00
144.0, 155246.70, 187500.00, 140586.48, 187500.00, 164136.91, 166453.25, 166908.83, 187500.00, 139986.17, 147901.36, 178485.09, 187500.00, 0.00, 0.00, 0.00, 0.00, 0.00, 0.00, 0.00
148.0, 155283.52, 187500.00, 140612.52, 187500.00, 164146.95, 166488.06, 166928.25, 187500.00, 139986.17, 147901.36, 178485.09, 187500.00, 0.00, 0.00, 0.00, 0.00, 0.00, 0.00, 0.00
152.0, 155283.52, 187500.00, 140612.52, 187500.00, 164146.95, 166488.06, 166928.25, 187500.00, 139996.66, 147915.53, 178491.19, 187500.00, 0.00, 0.00, 0.00, 0.00, 0.00, 0.00, 0.00
156.0, 155254.55, 187500.00, 140587.38, 187500.00, 164142.13, 166463.20, 166915.30, 187500.00, 139996.66, 147915.53, 178491.19, 187500.00, 0.00, 0.00, 0.00, 0.00, 0.00, 0.00, 0.00
160.0, 155254.55, 187500.00, 140587.38, 187500.00, 164142.13, 166463.20, 166915.30, 187500.00, 139991.94, 147913.67, 178482.00, 187500.00, 0.00, 0.00, 0.00, 0.00, 0.00, 0.00, 0.00
164.0, 155272.58, 187500.00, 140608.58, 187500.00, 164148.70, 166484.33, 166928.59, 187500.00, 139991.94, 147913.67, 178482.00, 187500.00, 0.00, 0.00, 0.00, 0.00, 0.00, 0.00, 0.00
168.0, 155272.58, 187500.00, 140608.58, 187500.00, 164148.70, 166484.33, 166928.59, 187500.00, 139989.94, 147906.94, 178486.63, 187500.00, 0.00, 0.00, 0.00, 0.00, 0.00, 0.00, 0.00
172.0, 155240.70, 187500.00, 140581.05, 187500.00, 164137.58, 166458.84, 166910.30, 187500.00, 139989.94, 147906.94, 178486.63, 187500.00, 0.00, 0.00, 0.00, 0.00, 0.00, 0.00, 0.00
176.0, 155240.70, 187500.00, 140581.05, 187500.00, 164137.58, 166458.84, 166910.30, 187500.00, 139994.27, 147914.36, 178481.84, 187500.00, 0.00, 0.00, 0.00, 0.00, 0.00, 0.00, 0.00
180.0, 155271.84, 187500.00, 140601.03, 187500.00, 164148.75, 166483.08, 166926.64, 187500.00, 139994.27, 147914.36, 178481.84, 187500.00, 0.00, 0.00, 0.00, 0.00, 0.00, 0.00, 0.00
184.0, 155271.84, 187500.00, 140601.03, 187500.00, 164148.75, 166483.08, 166926.64, 187500.00, 139995.56, 147910.14, 178486.67, 187500.00, 0.00, 0.00, 0.00, 0.00, 0.00, 0.00, 0.00
188.0, 155246.05, 187500.00, 140581.22, 187500.00, 164143.89, 166470.25, 166916.67, 187500.00, 139995.56, 147910.14, 178486.67, 187500.00, 0.00, 0.00, 0.00, 0.00, 0.00, 0.00, 0.00
192.0, 155246.05, 187500.00, 140581.22, 187500.00, 164143.89, 166470.25, 166916.67, 187500.00, 139994.48, 147912.27, 178484.13, 187500.00, 0.00, 0.00, 0.00, 0.00, 0.00, 0.00, 0.00
196.0, 155253.05, 187500.00, 140588.25, 187500.00, 164143.22, 166477.55, 166920.45, 187500.00, 139994.48, 147912.27, 178484.13, 187500.00, 0.00, 0.00, 0.00, 0.00, 0.00, 0.00, 0.00
200.0, 155253.05, 187500.00, 140588.25, 187500.00, 164143.22, 166477.55, 166920.45, 187500.00, 139989.02, 147909.09, 178485.13, 187500.00, 0.00, 0.00, 0.00, 0.00, 0.00, 0.00, 0.00
204.0, 155251.95, 187500.00, 140580.63, 187500.00, 164143.81, 166470.38, 166912.92, 187500.00, 139989.02, 147909.09, 178485.13, 187500.00, 0.00, 0.00, 0.00, 0.00, 0.00, 0.00, 0.00
208.0, 155251.95, 187500.00, 140580.63, 187500.00, 164143.81, 166470.38, 166912.92, 187500.00, 139982.33, 147907.09, 178475.13, 187500.00, 0.00, 0.00, 0.00, 0.00, 0.00, 0.00, 0.00
212.0, 155260.28, 187500.00, 140585.66, 187500.00, 164144.92, 166472.13, 166919.45, 187500.00, 139982.33, 147907.09, 178475.13, 187500.00, 0.00, 0.00, 0.00, 0.00, 0.00, 0.00, 0.00
216.0, 155260.28, 187500.00, 140585.66, 187500.00, 164144.92, 166472.13, 166919.45, 187500.00, 139989.95, 147908.03, 178480.47, 187500.00, 0.00, 0.00, 0.00, 0.00, 0.00, 0.00, 0.00
220.0, 155243.56, 187500.00, 140573.47, 187500.00, 164136.78, 166470.13, 166912.73, 187500.00, 139989.95, 147908.03, 178480.47, 187500.00, 0.00, 0.00, 0.00, 0.00, 0.00, 0.00, 0.00
224.0, 155243.56, 187500.00, 140573.47, 187500.00, 164136.78, 166470.13, 166912.73, 187500.00, 139986.73, 147906.14, 178465.02, 187500.00, 0.00, 0.00, 0.00, 0.00, 0.00, 0.00, 0.00
228.0, 155248.91, 187500.00, 140579.48, 187500.00, 164143.38, 166465.73, 166919.36, 187500.00, 139986.73, 147906.14, 178465.02, 187500.00, 0.00, 0.00, 0.00, 0.00, 0.00, 0.00, 0.00
232.0, 155248.91, 187500.00, 140579.48, 187500.00, 164143.38, 166465.73, 166919.36, 187500.00, 139988.59, 147910.23, 178483.23, 187500.00, 0.00, 0.00, 0.00, 0.00, 0.00, 0.00, 0.00
236.0, 155259.30, 187500.00, 140584.02, 187500.00, 164152.28, 166482.05, 166925.86, 187500.00, 139988.59, 147910.23, 178483.23, 187500.00, 0.00, 0.00, 0.00, 0.00, 0.00, 0.00, 0.00
240.0, 155259.30, 187500.00, 140584.02, 187500.00, 164152.28, 166482.05, 166925.86, 187500.00, 139995.55, 147915.22, 178475.14, 187500.00, 0.00, 0.00, 0.00, 0.00, 0.00, 0.00, 0.00
244.0, 155252.00, 187500.00, 140574.30, 187500.00, 164151.42, 166468.33, 166923.42, 187500.00, 139995.55, 147915.22, 178475.14, 187500.00, 0.00, 0.00, 0.00, 0.00, 0.00, 0.00, 0.00
248.0, 155252.00, 187500.00, 140574.30, 187500.00, 164151.42, 166468.33, 166923.42, 187500.00, 139992.22, 147911.34, 178479.67, 187500.00, 0.00, 0.00, 0.00, 0.00, 0.00, 0.00, 0.00
252.0, 155267.61, 187500.00, 140581.63, 187500.00, 164151.73, 166486.00, 166923.20, 187500.00, 139992.22, 147911.34, 178479.67, 187500.00, 0.00, 0.00, 0.00, 0.00, 0.00, 0.00, 0.00
256.0, 155267.61, 187500.00, 140581.63, 187500.00, 164151.73, 166486.00, 166923.20, 187500.00, 139987.16, 147909.13, 178472.86, 187500.00, 0.00, 0.00, 0.00, 0.00, 0.00, 0.00, 0.00
260.0, 155253.72, 187500.00, 140569.17, 187500.00, 164148.61, 166466.28, 166919.38, 187500.00, 139987.16, 147909.13, 178472.86, 187500.00, 0.00, 0.00, 0.00, 0.00, 0.00, 0.00, 0.00
264.0, 155253.72, 187500.00, 140569.17, 187500.00, 164148.61, 166466.28, 166919.38, 187500.00, 139985.19, 147906.22, 178487.61, 187500.00, 0.00, 0.00, 0.00, 0.00, 0.00, 0.00, 0.00
268.0, 155252.22, 187500.00, 140577.81, 187500.00, 164147.86, 166483.83, 166921.06, 187500.00, 139985.19, 147906.22, 178487.61, 187500.00, 0.00, 0.00, 0.00, 0.00, 0.00, 0.00, 0.00
272.0, 155252.22, 187500.00, 140577.81, 187500.00, 164147.86, 166483.83, 166921.06, 187500.00, 139977.86, 147905.36, 178469.69, 187500.00, 0.00, 0.00, 0.00, 0.00, 0.00, 0.00, 0.00
276.0, 155231.83, 187500.00, 140558.16, 187500.00, 164145.14, 166457.97, 166912.42, 187500.00, 139977.86, 147905.36, 178469.69, 187500.00, 0.00, 0.00, 0.00, 0.00, 0.00, 0.00, 0.00
280.0, 155231.83, 187500.00, 140558.16, 187500.00, 164145.14, 166457.97, 166912.42, 187500.00, 139975.47, 147901.64, 178472.84, 187500.00, 0.00, 0.00, 0.00, 0.00, 0.00, 0.00, 0.00
284.0, 155246.45, 187500.00, 140567.64, 187500.00, 164141.14, 166480.55, 166910.58, 187500.00, 139975.47, 147901.64, 178472.84, 187500.00, 0.00, 0.00, 0.00, 0.00, 0.00, 0.00, 0.00
288.0, 155246.45, 187500.00, 140567.64, 187500.00, 164141.14, 166480.55, 166910.58, 187500.00, 139974.58, 147894.67, 178461.06, 187500.00, 0.00, 0.00, 0.00, 0.00, 0.00, 0.00, 0.00
292.0, 155229.38, 187500.00, 140541.89, 187500.00, 164129.64, 166451.16, 166895.59, 187500.00, 139974.58, 147894.67, 178461.06, 187500.00, 0.00, 0.00, 0.00, 0.00, 0.00, 0.00, 0.00
296.0, 155229.38, 187500.00, 140541.89, 187500.00, 164129.64, 166451.16, 166895.59, 187500.00, 139970.63, 147896.50, 178463.70, 187500.00, 0.00, 0.00, 0.00, 0.00, 0.00, 0.00, 0.00
300.0, 155244.97, 187500.00, 140561.73, 187500.00, 164136.19, 166477.27, 166908.66, 187500.00, 139970.63, 147896.50, 178463.70, 187500.00, 0.00, 0.00, 0.00, 0.00, 0.00, 0.00, 0.00
304.0, 155244.97, 187500.00, 140561.73, 187500.00, 164136.19, 166477.27, 166908.66, 187500.00, 139955.98, 147886.05, 178452.45, 187500.00, 0.00, 0.00, 0.00, 0.00, 0.00, 0.00, 0.00
308.0, 155207.83, 187500.00, 140520.78, 187500.00, 164117.34, 166422.52, 166881.50, 187500.00, 139955.98, 147886.05, 178452.45, 187500.00, 0.00, 0.00, 0.00, 0.00, 0.00, 0.00, 0.00
312.0, 155207.83, 187500.00, 140520.78, 187500.00, 164117.34, 166422.52, 166881.50, 187500.00, 139946.91, 147875.34, 178448.83, 187500.00, 0.00, 0.00, 0.00, 0.00, 0.00, 0.00, 0.00
316.0, 155239.20, 187500.00, 140552.30, 187500.00, 164123.16, 166461.03, 166892.02, 187500.00, 139946.91, 147875.34, 178448.83, 187500.00, 0.00, 0.00, 0.00, 0.00, 0.00, 0.00, 0.00
320.0, 155239.20, 187500.00, 140552.30, 187500.00, 164123.16, 166461.03, 166892.02, 187500.00, 139951.33, 147876.20, 178451.53, 187500.00, 0.00, 0.00, 0.00, 0.00, 0.00, 0.00, 0.00
324.0, 155217.48, 187500.00, 140526.28, 187500.00, 164118.55, 166427.78, 166880.08, 187500.00, 139951.33, 147876.20, 178451.53, 187500.00, 0.00, 0.00, 0.00, 0.00, 0.00, 0.00, 0.00
328.0, 155217.48, 187500.00, 140526.28, 187500.00, 164118.55, 166427.78, 166880.08, 187500.00, 139948.38, 147874.55, 178450.05, 187500.00, 0.00, 0.00, 0.00, 0.00, 0.00, 0.00, 0.00
332.0, 155231.66, 187500.00, 140554.09, 187500.00, 164123.48, 166457.39, 166892.38, 187500.00, 139948.38, 147874.55, 178450.05, 187500.00, 0.00, 0.00, 0.00, 0.00, 0.00, 0.00, 0.00
336.0, 155231.66, 187500.00, 140554.09, 187500.00, 164123.48, 166457.39, 166892.38, 187500.00, 139943.94, 147873.33, 178452.64, 187500.00, 0.00, 0.00, 0.00, 0.00, 0.00, 0.00, 0.00
340.0, 155198.64, 187500.00, 140514.89, 187500.00, 164110.06, 166421.98, 166873.38, 187500.00, 139943.94, 147873.33, 178452.64, 187500.00, 0.00, 0.00, 0.00, 0.00, 0.00, 0.00, 0.00
344.0, 155198.64, 187500.00, 140514.89, 187500.00, 164110.06, 166421.98, 166873.38, 187500.00, 139940.88, 147874.52, 178441.66, 187500.00, 0.00, 0.00, 0.00, 0.00, 0.00, 0.00, 0.00
348.0, 155228.02, 187500.00, 140543.70, 187500.00, 164120.81, 166451.42, 166885.00, 187500.00, 139940.88, 147874.52, 178441.66, 187500.00, 0.00, 0.00, 0.00, 0.00, 0.00, 0.00, 0.00
352.0, 155228.02, 187500.00, 140543.70, 187500.00, 164120.81, 166451.42, 166885.00, 187500.00, 139947.73, 147875.53, 178453.58, 187500.00, 0.00, 0.00, 0.00, 0.00, 0.00, 0.00, 0.00
356.0, 155203.09, 187500.00, 140520.36, 187500.00, 164117.77, 166430.77, 166879.14, 187500.00, 139947.73, 147875.53, 178453.58, 187500.00, 0.00, 0.00, 0.00, 0.00, 0.00, 0.00, 0.00
360.0, 155203.09, 187500.00, 140520.36, 187500.00, 164117.77, 166430.77, 166879.14, 187500.00, 139939.95, 147874.05, 178443.89, 187500.00, 0.00, 0.00, 0.00, 0.00, 0.00, 0.00, 0.00
364.0, 155223.05, 187500.00, 140542.63, 187500.00, 164124.27, 166452.91, 166891.31, 187500.00, 139939.95, 147874.05, 178443.89, 187500.00, 0.00, 0.00, 0.00, 0.00, 0.00, 0.00, 0.00
368.0, 155223.05, 187500.00, 140542.63, 187500.00, 164124.27, 166452.91, 166891.31, 187500.00, 139934.95, 147868.11, 178449.30, 187500.00, 0.00, 0.00, 0.00, 0.00, 0.00, 0.00, 0.00
372.0, 155205.20, 187500.00, 140515.84, 187500.00, 164115.63, 166428.53, 166874.83, 187500.00, 139934.95, 147868.11, 178449.30, 187500.00, 0.00, 0.00, 0.00, 0.00, 0.00, 0.00, 0.00
376.0, 155205.20, 187500.00, 140515.84, 187500.00, 164115.63, 166428.53, 166874.83, 187500.00, 139933.52, 147874.08, 178445.92, 187500.00, 0.00, 0.00, 0.00, 0.00, 0.00, 0.00, 0.00
380.0, 155226.63, 187500.00, 140549.44, 187500.00, 164129.97, 166452.88, 166893.20, 187500.00, 139933.52, 147874.08, 178445.92, 187500.00, 0.00, 0.00, 0.00, 0.00, 0.00, 0.00, 0.00
384.0, 155226.63, 187500.00, 140549.44, 187500.00, 164129.97, 166452.88, 166893.20, 187500.00, 139956.30, 147894.02, 178493.63, 187500.00, 0.00, 0.00, 0.00, 0.00, 0.00, 0.00, 0.00
388.0, 155249.31, 187500.00, 140581.84, 187500.00, 164172.69, 166474.95, 166921.28, 187500.00, 139956.30, 147894.02, 178493.63, 187500.00, 0.00, 0.00, 0.00, 0.00, 0.00, 0.00, 0.00
392.0, 155249.31, 187500.00, 140581.84, 187500.00, 164172.69, 166474.95, 166921.28, 187500.00, 139959.58, 147902.72, 178504.36, 187500.00, 0.00, 0.00, 0.00, 0.00, 0.00, 0.00, 0.00
396.0, 155234.56, 187500.00, 140555.83, 187500.00, 164136.92, 166453.09, 166900.52, 187500.00, 139959.58, 147902.72, 178504.36, 187500.00, 0.00, 0.00, 0.00, 0.00, 0.00, 0.00, 0.00
400.0, 155234.56, 187500.00, 140555.83, 187500.00, 164136.92, 166453.09, 166900.52, 187500.00, 139959.88, 147901.22, 178505.86, 187500.00, 0.00, 0.00, 0.00, 0.00, 0.00, 0.00, 0.00
404.0, 155255.09, 187500.00, 140575.45, 187500.00, 164144.98, 166465.33, 166906.58, 187500.00, 139959.88, 147901.22, 178505.86, 187500.00, 0.00, 0.00, 0.00, 0.00, 0.00, 0.00, 0.00
408.0, 155255.09, 187500.00, 140575.45, 187500.00, 164144.98, 166465.33, 166906.58, 187500.00, 139972.78, 147919.08, 178541.92, 187500.00, 0.00, 0.00, 0.00, 0.00, 0.00, 0.00, 0.00
412.0, 155294.23, 187500.00, 140624.67, 187500.00, 164175.66, 166486.53, 166938.38, 187500.00, 139972.78, 147919.08, 178541.92, 187500.00, 0.00, 0.00, 0.00, 0.00, 0.00, 0.00, 0.00
416.0, 155294.23, 187500.00, 140624.67, 187500.00, 164175.66, 166486.53, 166938.38, 187500.00, 139988.09, 147938.19, 178583.81, 187500.00, 0.00, 0.00, 0.00, 0.00, 0.00, 0.00, 0.00
420.0, 155297.66, 187500.00, 140625.50, 187500.00, 164176.00, 166495.20, 166939.19, 187500.00, 139988.09, 147938.19, 178583.81, 187500.00, 0.00, 0.00, 0.00, 0.00, 0.00, 0.00, 0.00
424.0, 155297.66, 187500.00, 140625.50, 187500.00, 164176.00, 166495.20, 166939.19, 187500.00, 139990.98, 147942.53, 178584.06, 187500.00, 0.00, 0.00, 0.00, 0.00, 0.00, 0.00, 0.00
428.0, 155304.00, 187500.00, 140634.06, 187500.00, 164179.72, 166488.61, 166949.52, 187500.00, 139990.98, 147942.53, 178584.06, 187500.00, 0.00, 0.00, 0.00, 0.00, 0.00, 0.00, 0.00
432.0, 155304.00, 187500.00, 140634.06, 187500.00, 164179.72, 166488.61, 166949.52, 187500.00, 139998.05, 147949.91, 178605.92, 187500.00, 0.00, 0.00, 0.00, 0.00, 0.00, 0.00, 0.00
436.0, 155308.66, 187500.00, 140646.92, 187500.00, 164185.31, 166505.89, 166946.78, 187500.00, 139998.05, 147949.91, 178605.92, 187500.00, 0.00, 0.00, 0.00, 0.00, 0.00, 0.00, 0.00
440.0, 155308.66, 187500.00, 140646.92, 187500.00, 164185.31, 166505.89, 166946.78, 187500.00, 139989.23, 147945.44, 178598.25, 187500.00, 0.00, 0.00, 0.00, 0.00, 0.00, 0.00, 0.00
444.0, 155295.25, 187500.00, 140643.08, 187500.00, 164179.28, 166479.94, 166941.19, 187500.00, 139989.23, 147945.44, 178598.25, 187500.00, 0.00, 0.00, 0.00, 0.00, 0.00, 0.00, 0.00
448.0, 155295.25, 187500.00, 140643.08, 187500.00, 164179.28, 166479.94, 166941.19, 187500.00, 139980.30, 147938.64, 178602.56, 187500.00, 0.00, 0.00, 0.00, 0.00, 0.00, 0.00, 0.00
452.0, 155286.42, 187500.00, 140643.19, 187500.00, 164164.77, 166491.23, 166931.50, 187500.00, 139980.30, 147938.64, 178602.56, 187500.00, 0.00, 0.00, 0.00, 0.00, 0.00, 0.00, 0.00
456.0, 155286.42, 187500.00, 140643.19, 187500.00, 164164.77, 166491.23, 166931.50, 187500.00, 139968.39, 147928.09, 178582.92, 187500.00, 0.00, 0.00, 0.00, 0.00, 0.00, 0.00, 0.00
460.0, 155273.94, 187500.00, 140626.28, 187500.00, 164161.55, 166456.63, 166924.92, 187500.00, 139968.39, 147928.09, 178582.92, 187500.00, 0.00, 0.00, 0.00, 0.00, 0.00, 0.00, 0.00
464.0, 155273.94, 187500.00, 140626.28, 187500.00, 164161.55, 166456.63, 166924.92, 187500.00, 139976.30, 147935.63, 178603.34, 187500.00, 0.00, 0.00, 0.00, 0.00, 0.00, 0.00, 0.00
468.0, 155301.53, 187500.00, 140658.52, 187500.00, 164170.83, 166491.86, 166936.48, 187500.00, 139976.30, 147935.63, 178603.34, 187500.00, 0.00, 0.00, 0.00, 0.00, 0.00, 0.00, 0.00
472.0, 155301.53, 187500.00, 140658.52, 187500.00, 164170.83, 166491.86, 166936.48, 187500.00, 139965.64, 147924.38, 178603.22, 187500.00, 0.00, 0.00, 0.00, 0.00, 0.00, 0.00, 0.00
476.0, 155273.00, 187500.00, 140631.20, 187500.00, 164161.98, 166452.09, 166923.53, 187500.00, 139965.64, 147924.38, 178603.22, 187500.00, 0.00, 0.00, 0.00, 0.00, 0.00, 0.00, 0.00
480.0, 155273.00, 187500.00, 140631.20, 187500.00, 164161.98, 166452.09, 166923.53, 187500.00, 139980.97, 147941.00, 178617.97, 187500.00, 0.00, 0.00, 0.00, 0.00, 0.00, 0.00, 0.00
484.0, 155312.55, 187500.00, 140667.13, 187500.00, 164174.98, 166499.72, 166941.39, 187500.00, 139980.97, 147941.00, 178617.97, 187500.00, 0.00, 0.00, 0.00, 0.00, 0.00, 0.00, 0.00
488.0, 155312.55, 187500.00, 140667.13, 187500.00, 164174.98, 166499.72, 166941.39, 187500.00, 139975.63, 147935.03, 178614.34, 187500.00, 0.00, 0.00, 0.00, 0.00, 0.00, 0.00, 0.00
492.0, 155289.52, 187500.00, 140641.81, 187500.00, 164176.78, 166458.11, 166934.64, 187500.00, 139975.63, 147935.03, 178614.34, 187500.00, 0.00, 0.00, 0.00, 0.00, 0.00, 0.00, 0.00
496.0, 155289.52, 187500.00, 140641.81, 187500.00, 164176.78, 166458.11, 166934.64, 187500.00, 139976.67, 147935.63, 178628.63, 187500.00, 0.00, 0.00, 0.00, 0.00, 0.00, 0.00, 0.00
500.0, 155329.53, 187500.00, 140682.19, 187500.00, 164187.89, 166506.83, 166952.19, 187500.00, 139976.67, 147935.63, 178628.63, 187500.00, 0.00, 0.00, 0.00, 0.00, 0.00, 0.00, 0.00
504.0, 155329.53, 187500.00, 140682.19, 187500.00, 164187.89, 166506.83, 166952.19, 187500.00, 139989.48, 147947.48, 178633.89, 187500.00, 0.00, 0.00, 0.00, 0.00, 0.00, 0.00, 0.00
508.0, 155309.77, 187500.00, 140663.53, 187500.00, 164196.52, 166483.30, 166954.81, 187500.00, 139989.48, 147947.48, 178633.89, 187500.00, 0.00, 0.00, 0.00, 0.00, 0.00, 0.00, 0.00
512.0, 155309.77, 187500.00, 140663.53, 187500.00, 164196.52, 166483.30, 166954.81, 187500.00, 140008.19, 147963.05, 178660.22, 187500.00, 0.00, 0.00, 0.00, 0.00, 0.00, 0.00, 0.00
516.0, 155346.81, 187500.00, 140705.64, 187500.00, 164209.55, 166530.64, 166976.64, 187500.00, 140008.19, 147963.05, 178660.22, 187500.00, 0.00, 0.00, 0.00, 0.00, 0.00, 0.00, 0.00
520.0, 155346.81, 187500.00, 140705.64, 187500.00, 164209.55, 166530.64, 166976.64, 187500.00, 140001.83, 147958.39, 178654.81, 187500.00, 0.00, 0.00, 0.00, 0.00, 0.00, 0.00, 0.00
524.0, 155323.67, 187500.00, 140669.78, 187500.00, 164208.16, 166488.92, 166963.25, 187500.00, 140001.83, 147958.39, 178654.81, 187500.00, 0.00, 0.00, 0.00, 0.00, 0.00, 0.00, 0.00
528.0, 155323.67, 187500.00, 140669.78, 187500.00, 164208.16, 166488.92, 166963.25, 187500.00, 140009.89, 147971.16, 178663.67, 187500.00, 0.00, 0.00, 0.00, 0.00, 0.00, 0.00, 0.00
532.0, 155356.52, 187500.00, 140709.38, 187500.00, 164219.83, 166539.33, 166985.19, 187500.00, 140009.89, 147971.16, 178663.67, 187500.00, 0.00, 0.00, 0.00, 0.00, 0.00, 0.00, 0.00
536.0, 155356.52, 187500.00, 140709.38, 187500.00, 164219.83, 166539.33, 166985.19, 187500.00, 140027.59, 147984.81, 178669.84, 187500.00, 0.00, 0.00, 0.00, 0.00, 0.00, 0.00, 0.00
540.0, 155340.53, 187500.00, 140688.48, 187500.00, 164225.34, 166515.86, 166985.16, 187500.00, 140027.59, 147984.81, 178669.84, 187500.00, 0.00, 0.00, 0.00, 0.00, 0.00, 0.00, 0.00
544.0, 155340.53, 187500.00, 140688.48, 187500.00, 164225.34, 166515.86, 166985.16, 187500.00, 140025.05, 147985.44, 178671.02, 187500.00, 0.00, 0.00, 0.00, 0.00, 0.00, 0.00, 0.00
548.0, 155373.88, 187500.00, 140730.27, 187500.00, 164240.86, 166553.02, 167005.23, 187500.00, 140025.05, 147985.44, 178671.02, 187500.00, 0.00, 0.00, 0.00, 0.00, 0.00, 0.00, 0.00
552.0, 155373.88, 187500.00, 140730.27, 187500.00, 164240.86, 166553.02, 167005.23, 187500.00, 140042.84, 147996.91, 178693.39, 187500.00, 0.00, 0.00, 0.00, 0.00, 0.00, 0.00, 0.00
556.0, 155367.31, 187500.00, 140707.77, 187500.00, 164242.83, 166533.88, 166996.92, 187500.00, 140042.84, 147996.91, 178693.39, 187500.00, 0.00, 0.00, 0.00, 0.00, 0.00, 0.00, 0.00
560.0, 155367.31, 187500.00, 140707.77, 187500.00, 164242.83, 166533.88, 166996.92, 187500.00, 140039.94, 148000.28, 178691.86, 187500.00, 0.00, 0.00, 0.00, 0.00, 0.00, 0.00, 0.00
564.0, 155383.11, 187500.00, 140739.34, 187500.00, 164248.91, 166558.80, 167013.13, 187500.00, 140039.94, 148000.28, 178691.86, 187500.00, 0.00, 0.00, 0.00, 0.00, 0.00, 0.00, 0.00
568.0, 155383.11, 187500.00, 140739.34, 187500.00, 164248.91, 166558.80, 167013.13, 187500.00, 140049.95, 148009.38, 178705.16, 187500.00, 0.00, 0.00, 0.00, 0.00, 0.00, 0.00, 0.00
572.0, 155371.19, 187500.00, 140716.59, 187500.00, 164247.75, 166542.86, 167007.69, 187500.00, 140049.95, 148009.38, 178705.16, 187500.00, 0.00, 0.00, 0.00, 0.00, 0.00, 0.00, 0.00
576.0, 155371.19, 187500.00, 140716.59, 187500.00, 164247.75, 166542.86, 167007.69, 187500.00, 140048.78, 148010.98, 178698.64, 187500.00, 0.00, 0.00, 0.00, 0.00, 0.00, 0.00, 0.00
580.0, 155394.47, 187500.00, 140743.28, 187500.00, 164256.44, 166561.11, 167020.19, 187500.00, 140048.78, 148010.98, 178698.64, 187500.00, 0.00, 0.00, 0.00, 0.00, 0.00, 0.00, 0.00
584.0, 155394.47, 187500.00, 140743.28, 187500.00, 164256.44, 166561.11, 167020.19, 187500.00, 140062.58, 148024.22, 178711.27, 187500.00, 0.00, 0.00, 0.00, 0.00, 0.00, 0.00, 0.00
588.0, 155384.50, 187500.00, 140728.67, 187500.00, 164254.81, 166554.27, 167016.88, 187500.00, 140062.58, 148024.22, 178711.27, 187500.00, 0.00, 0.00, 0.00, 0.00, 0.00, 0.00, 0.00
592.0, 155384.50, 187500.00, 140728.67, 187500.00, 164254.81, 166554.27, 167016.88, 187500.00, 140061.41, 148025.52, 178707.58, 187500.00, 0.00, 0.00, 0.00, 0.00, 0.00, 0.00, 0.00
596.0, 155401.45, 187500.00, 140755.30, 187500.00, 164271.80, 166571.11, 167034.52, 187500.00, 140061.41, 148025.52, 178707.58, 187500.00, 0.00, 0.00, 0.00, 0.00, 0.00, 0.00, 0.00
600.0, 155401.45, 187500.00, 140755.30, 187500.00, 164271.80, 166571.11, 167034.52, 187500.00, 140079.27, 148042.03, 178737.28, 187500.00, 0.00, 0.00, 0.00, 0.00, 0.00, 0.00, 0.00
604.0, 155417.08, 187500.00, 140757.22, 187500.00, 164284.22, 166584.14, 167041.13, 187500.00, 140079.27, 148042.03, 178737.28, 187500.00, 0.00, 0.00, 0.00, 0.00, 0.00, 0.00, 0.00
608.0, 155417.08, 187500.00, 140757.22, 187500.00, 164284.22, 166584.14, 167041.13, 187500.00, 140085.55, 148048.45, 178739.27, 187500.00, 0.00, 0.00, 0.00, 0.00, 0.00, 0.00, 0.00
612.0, 155426.94, 187500.00, 140775.39, 187500.00, 164292.53, 166591.14, 167054.08, 187500.00, 140085.55, 148048.45, 178739.27, 187500.00, 0.00, 0.00, 0.00, 0.00, 0.00, 0.00, 0.00
616.0, 155426.94, 187500.00, 140775.39, 187500.00, 164292.53, 166591.14, 167054.08, 187500.00, 140093.02, 148053.75, 178767.53, 187500.00, 0.00, 0.00, 0.00, 0.00, 0.00, 0.00, 0.00
620.0, 155437.36, 187500.00, 140780.84, 187500.00, 164300.97, 166604.98, 167059.45, 187500.00, 140093.02, 148053.75, 178767.53, 187500.00, 0.00, 0.00, 0.00, 0.00, 0.00, 0.00, 0.00
624.0, 155437.36, 187500.00, 140780.84, 187500.00, 164300.97, 166604.98, 167059.45, 187500.00, 140108.64, 148070.53, 178761.42, 187500.00, 0.00, 0.00, 0.00, 0.00, 0.00, 0.00, 0.00
628.0, 155441.69, 187500.00, 140792.77, 187500.00, 164317.84, 166609.25, 167076.05, 187500.00, 140108.64, 148070.53, 178761.42, 187500.00, 0.00, 0.00, 0.00, 0.00, 0.00, 0.00, 0.00
632.0, 155441.69, 187500.00, 140792.77, 187500.00, 164317.84, 166609.25, 167076.05, 187500.00, 140121.89, 148079.23, 178790.28, 187500.00, 0.00, 0.00, 0.00, 0.00, 0.00, 0.00, 0.00
636.0, 155458.81, 187500.00, 140806.78, 187500.00, 164326.39, 166630.08, 167085.75, 187500.00, 140121.89, 148079.23, 178790.28, 187500.00, 0.00, 0.00, 0.00, 0.00, 0.00, 0.00, 0.00
640.0, 155458.81, 187500.00, 140806.78, 187500.00, 164326.39, 166630.08, 167085.75, 187500.00, 140121.89, 148082.41, 178782.03, 187500.00, 0.00, 0.00, 0.00, 0.00, 0.00, 0.00, 0.00
644.0, 155451.13, 187500.00, 140798.08, 187500.00, 164323.58, 166610.52, 167081.98, 187500.00, 140121.89, 148082.41, 178782.03, 187500.00, 0.00, 0.00, 0.00, 0.00, 0.00, 0.00, 0.00
648.0, 155451.13, 187500.00, 140798.08, 187500.00, 164323.58, 166610.52, 167081.98, 187500.00, 140120.42, 148073.50, 178785.94, 187500.00, 0.00, 0.00, 0.00, 0.00, 0.00, 0.00, 0.00
652.0, 155467.42, 187500.00, 140809.95, 187500.00, 164324.95, 166632.11, 167081.78, 187500.00, 140120.42, 148073.50, 178785.94, 187500.00, 0.00, 0.00, 0.00, 0.00, 0.00, 0.00, 0.00
656.0, 155467.42, 187500.00, 140809.95, 187500.00, 164324.95, 166632.11, 167081.78, 187500.00, 140115.38, 148073.06, 178778.20, 187500.00, 0.00, 0.00, 0.00, 0.00, 0.00, 0.00, 0.00
660.0, 155448.63, 187500.00, 140793.39, 187500.00, 164322.67, 166607.03, 167079.64, 187500.00, 140115.38, 148073.06, 178778.20, 187500.00, 0.00, 0.00, 0.00, 0.00, 0.00, 0.00, 0.00
664.0, 155448.63, 187500.00, 140793.39, 187500.00, 164322.67, 166607.03, 167079.64, 187500.00, 140127.91, 148078.61, 178783.23, 187500.00, 0.00, 0.00, 0.00, 0.00, 0.00, 0.00, 0.00
668.0, 155468.30, 187500.00, 140812.16, 187500.00, 164324.16, 166638.80, 167084.64, 187500.00, 140127.91, 148078.61, 178783.23, 187500.00, 0.00, 0.00, 0.00, 0.00, 0.00, 0.00, 0.00
672.0, 155468.30, 187500.00, 140812.16, 187500.00, 164324.16, 166638.80, 167084.64, 187500.00, 140114.97, 148068.81, 178775.59, 187500.00, 0.00, 0.00, 0.00, 0.00, 0.00, 0.00, 0.00
676.0, 155431.61, 187500.00, 140781.56, 187500.00, 164312.70, 166591.30, 167063.53, 187500.00, 140114.97, 148068.81, 178775.59, 187500.00, 0.00, 0.00, 0.00, 0.00, 0.00, 0.00, 0.00
680.0, 155431.61, 187500.00, 140781.56, 187500.00, 164312.70, 166591.30, 167063.53, 187500.00, 140104.59, 148059.36, 178774.61, 187500.00, 0.00, 0.00, 0.00, 0.00, 0.00, 0.00, 0.00
684.0, 155455.53, 187500.00, 140802.22, 187500.00, 164311.38, 166627.63, 167072.25, 187500.00, 140104.59, 148059.36, 178774.61, 187500.00, 0.00, 0.00, 0.00, 0.00, 0.00, 0.00, 0.00
688.0, 155455.53, 187500.00, 140802.22, 187500.00, 164311.38, 166627.63, 167072.25, 187500.00, 140110.98, 148061.13, 178770.77, 187500.00, 0.00, 0.00, 0.00, 0.00, 0.00, 0.00, 0.00
692.0, 155430.38, 187500.00, 140772.58, 187500.00, 164309.95, 166595.97, 167060.38, 187500.00, 140110.98, 148061.13, 178770.77, 187500.00, 0.00, 0.00, 0.00, 0.00, 0.00, 0.00, 0.00
696.0, 155430.38, 187500.00, 140772.58, 187500.00, 164309.95, 166595.97, 167060.38, 187500.00, 140117.52, 148068.91, 178771.81, 187500.00, 0.00, 0.00, 0.00, 0.00, 0.00, 0.00, 0.00
700.0, 155448.86, 187500.00, 140801.75, 187500.00, 164317.45, 166628.89, 167073.70, 187500.00, 140117.52, 148068.91, 178771.81, 187500.00, 0.00, 0.00, 0.00, 0.00, 0.00, 0.00, 0.00
704.0, 155448.86, 187500.00, 140801.75, 187500.00, 164317.45, 166628.89, 167073.70, 187500.00, 140107.44, 148067.66, 178775.91, 187500.00, 0.00, 0.00, 0.00, 0.00, 0.00, 0.00, 0.00
708.0, 155430.81, 187500.00, 140772.94, 187500.00, 164313.45, 166590.56, 167066.83, 187500.00, 140107.44, 148067.66, 178775.91, 187500.00, 0.00, 0.00, 0.00, 0.00, 0.00, 0.00, 0.00
712.0, 155430.81, 187500.00, 140772.94, 187500.00, 164313.45, 166590.56, 167066.83, 187500.00, 140109.69, 148067.45, 178775.66, 187500.00, 0.00, 0.00, 0.00, 0.00, 0.00, 0.00, 0.00
716.0, 155461.05, 187500.00, 140806.67, 187500.00, 164326.11, 166633.88, 167084.41, 187500.00, 140109.69, 148067.45, 178775.66, 187500.00, 0.00, 0.00, 0.00, 0.00, 0.00, 0.00, 0.00
720.0, 155461.05, 187500.00, 140806.67, 187500.00, 164326.11, 166633.88, 167084.41, 187500.00, 140119.38, 148072.45, 178780.53, 187500.00, 0.00, 0.00, 0.00, 0.00, 0.00, 0.00, 0.00
724.0, 155440.08, 187500.00, 140781.09, 187500.00, 164322.00, 166600.23, 167070.03, 187500.00, 140119.38, 148072.45, 178780.53, 187500.00, 0.00, 0.00, 0.00, 0.00, 0.00, 0.00, 0.00
728.0, 155440.08, 187500.00, 140781.09, 187500.00, 164322.00, 166600.23, 167070.03, 187500.00, 140121.19, 148073.00, 178781.42, 187500.00, 0.00, 0.00, 0.00, 0.00, 0.00, 0.00, 0.00
732.0, 155471.08, 187500.00, 140820.95, 187500.00, 164334.84, 166644.13, 167092.41, 187500.00, 140121.19, 148073.00, 178781.42, 187500.00, 0.00, 0.00, 0.00, 0.00, 0.00, 0.00, 0.00
736.0, 155471.08, 187500.00, 140820.95, 187500.00, 164334.84, 166644.13, 167092.41, 187500.00, 140128.56, 148080.28, 178795.31, 187500.00, 0.00, 0.00, 0.00, 0.00, 0.00, 0.00, 0.00
740.0, 155452.20, 187500.00, 140798.17, 187500.00, 164334.52, 166619.80, 167081.23, 187500.00, 140128.56, 148080.28, 178795.31, 187500.00, 0.00, 0.00, 0.00, 0.00, 0.00, 0.00, 0.00
744.0, 155452.20, 187500.00, 140798.17, 187500.00, 164334.52, 166619.80, 167081.23, 187500.00, 140138.09, 148091.97, 178803.16, 187500.00, 0.00, 0.00, 0.00, 0.00, 0.00, 0.00, 0.00
748.0, 155488.97, 187500.00, 140837.42, 187500.00, 164348.77, 166653.66, 167105.33, 187500.00, 140138.09, 148091.97, 178803.16, 187500.00, 0.00, 0.00, 0.00, 0.00, 0.00, 0.00, 0.00
752.0, 155488.97, 187500.00, 140837.42, 187500.00, 164348.77, 166653.66, 167105.33, 187500.00, 140145.55, 148101.84, 178812.75, 187500.00, 0.00, 0.00, 0.00, 0.00, 0.00, 0.00, 0.00
756.0, 155473.77, 187500.00, 140816.03, 187500.00, 164349.33, 166633.77, 167096.14, 187500.00, 140145.55, 148101.84, 178812.75, 187500.00, 0.00, 0.00, 0.00, 0.00, 0.00, 0.00, 0.00
760.0, 155473.77, 187500.00, 140816.03, 187500.00, 164349.33, 166633.77, 167096.14, 187500.00, 140146.95, 148099.80, 178814.78, 187500.00, 0.00, 0.00, 0.00, 0.00, 0.00, 0.00, 0.00
764.0, 155498.75, 187500.00, 140852.06, 187500.00, 164367.23, 166668.73, 167120.13, 187500.00, 140146.95, 148099.80, 178814.78, 187500.00, 0.00, 0.00, 0.00, 0.00, 0.00, 0.00, 0.00
768.0, 155498.75, 187500.00, 140852.06, 187500.00, 164367.23, 166668.73, 167120.13, 187500.00, 140167.42, 148121.52, 178841.27, 187500.00, 0.00, 0.00, 0.00, 0.00, 0.00, 0.00, 0.00
772.0, 155530.19, 187500.00, 140870.33, 187500.00, 164401.36, 166694.47, 167150.55, 187500.00, 140167.42, 148121.52, 178841.27, 187500.00, 0.00, 0.00, 0.00, 0.00, 0.00, 0.00, 0.00
776.0, 155530.19, 187500.00, 140870.33, 187500.00, 164401.36, 166694.47, 167150.55, 187500.00, 140230.58, 148186.52, 178896.16, 187500.00, 0.00, 0.00, 0.00, 0.00, 0.00, 0.00, 0.00
780.0, 155611.70, 187500.00, 140957.16, 187500.00, 164475.63, 166776.91, 167231.19, 187500.00, 140230.58, 148186.52, 178896.16, 187500.00, 0.00, 0.00, 0.00, 0.00, 0.00, 0.00, 0.00
784.0, 155611.70, 187500.00, 140957.16, 187500.00, 164475.63, 166776.91, 167231.19, 187500.00, 140300.13, 148252.95, 178981.78, 187500.00, 0.00, 0.00, 0.00, 0.00, 0.00, 0.00, 0.00
788.0, 155691.39, 187500.00, 141038.88, 187500.00, 164569.63, 166860.17, 167316.09, 187500.00, 140300.13, 148252.95, 178981.78, 187500.00, 0.00, 0.00, 0.00, 0.00, 0.00, 0.00, 0.00
792.0, 155691.39, 187500.00, 141038.88, 187500.00, 164569.63, 166860.17, 167316.09, 187500.00, 140402.80, 148362.17, 179083.17, 187500.00, 0.00, 0.00, 0.00, 0.00, 0.00, 0.00, 0.00
796.0, 155821.34, 187500.00, 141161.94, 187500.00, 164687.17, 166981.77, 167440.67, 187500.00, 140402.80, 148362.17, 179083.17, 187500.00, 0.00, 0.00, 0.00, 0.00, 0.00, 0.00, 0.00
800.0, 155821.34, 187500.00, 141161.94, 187500.00, 164687.17, 166981.77, 167440.67, 187500.00, 140499.28, 148464.59, 179187.20, 187500.00, 0.00, 0.00, 0.00, 0.00, 0.00, 0.00, 0.00
804.0, 155876.17, 187500.00, 141218.41, 187500.00, 164750.36, 167047.77, 167498.38, 187500.00, 140499.28, 148464.59, 179187.20, 187500.00, 0.00, 0.00, 0.00, 0.00, 0.00, 0.00, 0.00
808.0, 155876.17, 187500.00, 141218.41, 187500.00, 164750.36, 167047.77, 167498.38, 187500.00, 140528.56, 148492.42, 179213.89, 187500.00, 0.00, 0.00, 0.00, 0.00, 0.00, 0.00, 0.00
812.0, 155888.06, 187500.00, 141228.84, 187500.00, 164759.70, 167049.56, 167507.98, 187500.00, 140528.56, 148492.42, 179213.89, 187500.00, 0.00, 0.00, 0.00, 0.00, 0.00, 0.00, 0.00
816.0, 155888.06, 187500.00, 141228.84, 187500.00, 164759.70, 167049.56, 167507.98, 187500.00, 140522.19, 148485.42, 179215.98, 187500.00, 0.00, 0.00, 0.00, 0.00, 0.00, 0.00, 0.00
820.0, 155850.95, 187500.00, 141190.88, 187500.00, 164722.77, 167020.92, 167471.09, 187500.00, 140522.19, 148485.42, 179215.98, 187500.00, 0.00, 0.00, 0.00, 0.00, 0.00, 0.00, 0.00
824.0, 155850.95, 187500.00, 141190.88, 187500.00, 164722.77, 167020.92, 167471.09, 187500.00, 140476.38, 148439.86, 179161.92, 187500.00, 0.00, 0.00, 0.00, 0.00, 0.00, 0.00, 0.00
828.0, 155829.72, 187500.00, 141170.28, 187500.00, 164704.77, 166994.33, 167454.39, 187500.00, 140476.38, 148439.86, 179161.92, 187500.00, 0.00, 0.00, 0.00, 0.00, 0.00, 0.00, 0.00
832.0, 155829.72, 187500.00, 141170.28, 187500.00, 164704.77, 166994.33, 167454.39, 187500.00, 140492.59, 148453.39, 179184.08, 187500.00, 0.00, 0.00, 0.00, 0.00, 0.00, 0.00, 0.00
836.0, 155848.42, 187500.00, 141190.67, 187500.00, 164720.11, 167024.09, 167467.33, 187500.00, 140492.59, 148453.39, 179184.08, 187500.00, 0.00, 0.00, 0.00, 0.00, 0.00, 0.00, 0.00
840.0, 155848.42, 187500.00, 141190.67, 187500.00, 164720.11, 167024.09, 167467.33, 187500.00, 140503.42, 148466.88, 179186.78, 187500.00, 0.00, 0.00, 0.00, 0.00, 0.00, 0.00, 0.00
844.0, 155856.05, 187500.00, 141199.34, 187500.00, 164731.77, 167018.70, 167483.58, 187500.00, 140503.42, 148466.88, 179186.78, 187500.00, 0.00, 0.00, 0.00, 0.00, 0.00, 0.00, 0.00
848.0, 155856.05, 187500.00, 141199.34, 187500.00, 164731.77, 167018.70, 167483.58, 187500.00, 140523.28, 148485.63, 179220.75, 187500.00, 0.00, 0.00, 0.00, 0.00, 0.00, 0.00, 0.00
852.0, 155894.81, 187500.00, 141232.84, 187500.00, 164753.34, 167061.27, 167505.20, 187500.00, 140523.28, 148485.63, 179220.75, 187500.00, 0.00, 0.00, 0.00, 0.00, 0.00, 0.00, 0.00
856.0, 155894.81, 187500.00, 141232.84, 187500.00, 164753.34, 167061.27, 167505.20, 187500.00, 140521.17, 148480.89, 179212.25, 187500.00, 0.00, 0.00, 0.00, 0.00, 0.00, 0.00, 0.00
860.0, 155863.02, 187500.00, 141198.31, 187500.00, 164729.53, 167017.81, 167480.39, 187500.00, 140521.17, 148480.89, 179212.25, 187500.00, 0.00, 0.00, 0.00, 0.00, 0.00, 0.00, 0.00
864.0, 155863.02, 187500.00, 141198.31, 187500.00, 164729.53, 167017.81, 167480.39, 187500.00, 140516.61, 148476.91, 179203.52, 187500.00, 0.00, 0.00, 0.00, 0.00, 0.00, 0.00, 0.00
868.0, 155885.16, 187500.00, 141215.19, 187500.00, 164730.89, 167049.16, 167486.44, 187500.00, 140516.61, 148476.91, 179203.52, 187500.00, 0.00, 0.00, 0.00, 0.00, 0.00, 0.00, 0.00
872.0, 155885.16, 187500.00, 141215.19, 187500.00, 164730.89, 167049.16, 167486.44, 187500.00, 140517.48, 148480.55, 179200.03, 187500.00, 0.00, 0.00, 0.00, 0.00, 0.00, 0.00, 0.00
876.0, 155868.67, 187500.00, 141204.23, 187500.00, 164736.13, 167022.80, 167485.95, 187500.00, 140517.48, 148480.55, 179200.03, 187500.00, 0.00, 0.00, 0.00, 0.00, 0.00, 0.00, 0.00
880.0, 155868.67, 187500.00, 141204.23, 187500.00, 164736.13, 167022.80, 167485.95, 187500.00, 140521.61, 148479.28, 179213.17, 187500.00, 0.00, 0.00, 0.00, 0.00, 0.00, 0.00, 0.00
884.0, 155897.64, 187500.00, 141234.59, 187500.00, 164747.13, 167064.80, 167503.20, 187500.00, 140521.61, 148479.28, 179213.17, 187500.00, 0.00, 0.00, 0.00, 0.00, 0.00, 0.00, 0.00
888.0, 155897.64, 187500.00, 141234.59, 187500.00, 164747.13, 167064.80, 167503.20, 187500.00, 140542.69, 148495.80, 179228.84, 187500.00, 0.00, 0.00, 0.00, 0.00, 0.00, 0.00, 0.00
892.0, 155907.06, 187500.00, 141237.06, 187500.00, 164772.88, 167063.33, 167522.70, 187500.00, 140542.69, 148495.80, 179228.84, 187500.00, 0.00, 0.00, 0.00, 0.00, 0.00, 0.00, 0.00
896.0, 155907.06, 187500.00, 141237.06, 187500.00, 164772.88, 167063.33, 167522.70, 187500.00, 140576.31, 148534.17, 179267.89, 187500.00, 0.00, 0.00, 0.00, 0.00, 0.00, 0.00, 0.00
900.0, 155964.00, 187500.00, 141300.86, 187500.00, 164813.27, 167121.42, 167568.70, 187500.00, 140576.31, 148534.17, 179267.89, 187500.00, 0.00, 0.00, 0.00, 0.00, 0.00, 0.00, 0.00
904.0, 155964.00, 187500.00, 141300.86, 187500.00, 164813.27, 167121.42, 167568.70, 187500.00, 140607.88, 148569.17, 179316.39, 187500.00, 0.00, 0.00, 0.00, 0.00, 0.00, 0.00, 0.00
908.0, 155994.19, 187500.00, 141328.05, 187500.00, 164860.45, 167137.67, 167606.83, 187500.00, 140607.88, 148569.17, 179316.39, 187500.00, 0.00, 0.00, 0.00, 0.00, 0.00, 0.00, 0.00
912.0, 155994.19, 187500.00, 141328.05, 187500.00, 164860.45, 167137.67, 167606.83, 187500.00, 140657.42, 148616.25, 179363.69, 187500.00, 0.00, 0.00, 0.00, 0.00, 0.00, 0.00, 0.00
916.0, 156048.00, 187500.00, 141385.27, 187500.00, 164896.22, 167207.06, 167649.86, 187500.00, 140657.42, 148616.25, 179363.69, 187500.00, 0.00, 0.00, 0.00, 0.00, 0.00, 0.00, 0.00
920.0, 156048.00, 187500.00, 141385.27, 187500.00, 164896.22, 167207.06, 167649.86, 187500.00, 140674.23, 148631.42, 179379.19, 187500.00, 0.00, 0.00, 0.00, 0.00, 0.00, 0.00, 0.00
924.0, 156027.31, 187500.00, 141365.08, 187500.00, 164898.58, 167181.50, 167644.58, 187500.00, 140674.23, 148631.42, 179379.19, 187500.00, 0.00, 0.00, 0.00, 0.00, 0.00, 0.00, 0.00
928.0, 156027.31, 187500.00, 141365.08, 187500.00, 164898.58, 167181.50, 167644.58, 187500.00, 140686.45, 148647.67, 179385.94, 187500.00, 0.00, 0.00, 0.00, 0.00, 0.00, 0.00, 0.00
932.0, 156068.92, 187500.00, 141404.75, 187500.00, 164916.19, 167227.16, 167667.92, 187500.00, 140686.45, 148647.67, 179385.94, 187500.00, 0.00, 0.00, 0.00, 0.00, 0.00, 0.00, 0.00
936.0, 156068.92, 187500.00, 141404.75, 187500.00, 164916.19, 167227.16, 167667.92, 187500.00, 140691.78, 148649.22, 179394.48, 187500.00, 0.00, 0.00, 0.00, 0.00, 0.00, 0.00, 0.00
940.0, 156041.36, 187500.00, 141374.94, 187500.00, 164906.94, 167196.34, 167652.06, 187500.00, 140691.78, 148649.22, 179394.48, 187500.00, 0.00, 0.00, 0.00, 0.00, 0.00, 0.00, 0.00
944.0, 156041.36, 187500.00, 141374.94, 187500.00, 164906.94, 167196.34, 167652.06, 187500.00, 140684.47, 148644.38, 179385.22, 187500.00, 0.00, 0.00, 0.00, 0.00, 0.00, 0.00, 0.00
948.0, 156062.47, 187500.00, 141402.39, 187500.00, 164911.44, 167219.05, 167662.47, 187500.00, 140684.47, 148644.38, 179385.22, 187500.00, 0.00, 0.00, 0.00, 0.00, 0.00, 0.00, 0.00
952.0, 156062.47, 187500.00, 141402.39, 187500.00, 164911.44, 167219.05, 167662.47, 187500.00, 140689.58, 148646.52, 179395.44, 187500.00, 0.00, 0.00, 0.00, 0.00, 0.00, 0.00, 0.00
956.0, 156053.95, 187500.00, 141381.38, 187500.00, 164906.67, 167198.33, 167654.78, 187500.00, 140689.58, 148646.52, 179395.44, 187500.00, 0.00, 0.00, 0.00, 0.00, 0.00, 0.00, 0.00
960.0, 156053.95, 187500.00, 141381.38, 187500.00, 164906.67, 167198.33, 167654.78, 187500.00, 140679.34, 148639.19, 179382.22, 187500.00, 0.00, 0.00, 0.00, 0.00, 0.00, 0.00, 0.00
964.0, 156051.56, 187500.00, 141393.52, 187500.00, 164902.38, 167206.73, 167652.94, 187500.00, 140679.34, 148639.19, 179382.22, 187500.00, 0.00, 0.00, 0.00, 0.00, 0.00, 0.00, 0.00
968.0, 156051.56, 187500.00, 141393.52, 187500.00, 164902.38, 167206.73, 167652.94, 187500.00, 140675.39, 148634.47, 179387.09, 187500.00, 0.00, 0.00, 0.00, 0.00, 0.00, 0.00, 0.00
972.0, 156030.34, 187500.00, 141370.20, 187500.00, 164889.64, 167181.39, 167634.39, 187500.00, 140675.39, 148634.47, 179387.09, 187500.00, 0.00, 0.00, 0.00, 0.00, 0.00, 0.00, 0.00
976.0, 156030.34, 187500.00, 141370.20, 187500.00, 164889.64, 167181.39, 167634.39, 187500.00, 140658.31, 148620.44, 179364.09, 187500.00, 0.00, 0.00, 0.00, 0.00, 0.00, 0.00, 0.00
980.0, 156030.75, 187500.00, 141371.03, 187500.00, 164877.84, 167177.70, 167629.94, 187500.00, 140658.31, 148620.44, 179364.09, 187500.00, 0.00, 0.00, 0.00, 0.00, 0.00, 0.00, 0.00
984.0, 156030.75, 187500.00, 141371.03, 187500.00, 164877.84, 167177.70, 167629.94, 187500.00, 140657.13, 148615.81, 179376.70, 187500.00, 0.00, 0.00, 0.00, 0.00, 0.00, 0.00, 0.00
988.0, 156034.38, 187500.00, 141363.38, 187500.00, 164873.25, 167168.22, 167620.39, 187500.00, 140657.13, 148615.81, 179376.70, 187500.00, 0.00, 0.00, 0.00, 0.00, 0.00, 0.00, 0.00
992.0, 156034.38, 187500.00, 141363.38, 187500.00, 164873.25, 167168.22, 167620.39, 187500.00, 140646.11, 148607.09, 179364.30, 187500.00, 0.00, 0.00, 0.00, 0.00, 0.00, 0.00, 0.00
996.0, 156038.33, 187500.00, 141382.98, 187500.00, 164881.91, 167180.45, 167635.11, 187500.00, 140646.11, 148607.09, 179364.30, 187500.00, 0.00, 0.00, 0.00, 0.00, 0.00, 0.00, 0.00
1000.0, 156038.33, 187500.00, 141382.98, 187500.00, 164881.91, 167180.45, 167635.11, 187500.00, 140663.05, 148623.06, 179393.44, 187500.00, 0.00, 0.00, 0.00, 0.00, 0.00, 0.00, 0.00
1004.0, 156045.23, 187500.00, 141385.55, 187500.00, 164887.36, 167182.80, 167635.59, 187500.00, 140663.05, 148623.06, 179393.44, 187500.00, 0.00, 0.00, 0.00, 0.00, 0.00, 0.00, 0.00
1008.0, 156045.23, 187500.00, 141385.55, 187500.00, 164887.36, 167182.80, 167635.59, 187500.00, 140651.70, 148614.80, 179380.00, 187500.00, 0.00, 0.00, 0.00, 0.00, 0.00, 0.00, 0.00
1012.0, 156028.25, 187500.00, 141369.59, 187500.00, 164873.22, 167159.64, 167619.91, 187500.00, 140651.70, 148614.80, 179380.00, 187500.00, 0.00, 0.00, 0.00, 0.00, 0.00, 0.00, 0.00
1016.0, 156028.25, 187500.00, 141369.59, 187500.00, 164873.22, 167159.64, 167619.91, 187500.00, 140648.33, 148613.72, 179378.05, 187500.00, 0.00, 0.00, 0.00, 0.00, 0.00, 0.00, 0.00
1020.0, 156058.83, 187500.00, 141396.66, 187500.00, 164889.55, 167195.89, 167639.23, 187500.00, 140648.33, 148613.72, 179378.05, 187500.00, 0.00, 0.00, 0.00, 0.00, 0.00, 0.00, 0.00
1024.0, 156058.83, 187500.00, 141396.66, 187500.00, 164889.55, 167195.89, 167639.23, 187500.00, 140673.27, 148643.55, 179389.11, 187500.00, 0.00, 0.00, 0.00, 0.00, 0.00, 0.00, 0.00
1028.0, 156061.55, 187500.00, 141403.08, 187500.00, 164899.63, 167187.88, 167649.50, 187500.00, 140673.27, 148643.55, 179389.11, 187500.00, 0.00, 0.00, 0.00, 0.00, 0.00, 0.00, 0.00
1032.0, 156061.55, 187500.00, 141403.08, 187500.00, 164899.63, 167187.88, 167649.50, 187500.00, 140664.58, 148634.30, 179389.91, 187500.00, 0.00, 0.00, 0.00, 0.00, 0.00, 0.00, 0.00
1036.0, 156056.30, 187500.00, 141393.58, 187500.00, 164887.03, 167193.86, 167638.75, 187500.00, 140664.58, 148634.30, 179389.91, 187500.00, 0.00, 0.00, 0.00, 0.00, 0.00, 0.00, 0.00
1040.0, 156056.30, 187500.00, 141393.58, 187500.00, 164887.03, 167193.86, 167638.75, 187500.00, 140660.02, 148632.22, 179368.88, 187500.00, 0.00, 0.00, 0.00, 0.00, 0.00, 0.00, 0.00
1044.0, 156063.78, 187500.00, 141407.45, 187500.00, 164903.92, 167191.41, 167655.13, 187500.00, 140660.02, 148632.22, 179368.88, 187500.00, 0.00, 0.00, 0.00, 0.00, 0.00, 0.00, 0.00
1048.0, 156063.78, 187500.00, 141407.45, 187500.00, 164903.92, 167191.41, 167655.13, 187500.00, 140696.66, 148672.75, 179419.86, 187500.00, 0.00, 0.00, 0.00, 0.00, 0.00, 0.00, 0.00
1052.0, 156132.41, 187500.00, 141483.72, 187500.00, 164967.48, 167275.16, 167719.17, 187500.00, 140696.66, 148672.75, 179419.86, 187500.00, 0.00, 0.00, 0.00, 0.00, 0.00, 0.00, 0.00
1056.0, 156132.41, 187500.00, 141483.72, 187500.00, 164967.48, 167275.16, 167719.17, 187500.00, 140745.75, 148727.31, 179460.56, 187500.00, 0.00, 0.00, 0.00, 0.00, 0.00, 0.00, 0.00
1060.0, 156140.66, 187500.00, 141498.66, 187500.00, 164990.67, 167274.42, 167737.03, 187500.00, 140745.75, 148727.31, 179460.56, 187500.00, 0.00, 0.00, 0.00, 0.00, 0.00, 0.00, 0.00
1064.0, 156140.66, 187500.00, 141498.66, 187500.00, 164990.67, 167274.42, 167737.03, 187500.00, 140766.03, 148747.20, 179491.08, 187500.00, 0.00, 0.00, 0.00, 0.00, 0.00, 0.00, 0.00
1068.0, 156178.83, 187500.00, 141543.25, 187500.00, 165007.86, 167319.13, 167756.19, 187500.00, 140766.03, 148747.20, 179491.08, 187500.00, 0.00, 0.00, 0.00, 0.00, 0.00, 0.00, 0.00
1072.0, 156178.83, 187500.00, 141543.25, 187500.00, 165007.86, 167319.13, 167756.19, 187500.00, 140759.23, 148744.58, 179480.13, 187500.00, 0.00, 0.00, 0.00, 0.00, 0.00, 0.00, 0.00
1076.0, 156133.23, 187500.00, 141501.63, 187500.00, 164979.88, 167262.02, 167723.28, 187500.00, 140759.23, 148744.58, 179480.13, 187500.00, 0.00, 0.00, 0.00, 0.00, 0.00, 0.00, 0.00
1080.0, 156133.23, 187500.00, 141501.63, 187500.00, 164979.88, 167262.02, 167723.28, 187500.00, 140727.78, 148729.48, 179473.48, 187500.00, 0.00, 0.00, 0.00, 0.00, 0.00, 0.00, 0.00
1084.0, 156146.38, 187500.00, 141523.44, 187500.00, 164975.05, 167274.86, 167725.47, 187500.00, 140727.78, 148729.48, 179473.48, 187500.00, 0.00, 0.00, 0.00, 0.00, 0.00, 0.00, 0.00
1088.0, 156146.38, 187500.00, 141523.44, 187500.00, 164975.05, 167274.86, 167725.47, 187500.00, 140710.53, 148713.77, 179458.03, 187500.00, 0.00, 0.00, 0.00, 0.00, 0.00, 0.00, 0.00
1092.0, 156087.41, 187500.00, 141444.77, 187500.00, 164920.64, 167201.45, 167665.84, 187500.00, 140710.53, 148713.77, 179458.03, 187500.00, 0.00, 0.00, 0.00, 0.00, 0.00, 0.00, 0.00
1096.0, 156087.41, 187500.00, 141444.77, 187500.00, 164920.64, 167201.45, 167665.84, 187500.00, 140677.97, 148679.16, 179418.61, 187500.00, 0.00, 0.00, 0.00, 0.00, 0.00, 0.00, 0.00
1100.0, 156104.00, 187500.00, 141455.31, 187500.00, 164913.11, 167225.69, 167671.31, 187500.00, 140677.97, 148679.16, 179418.61, 187500.00, 0.00, 0.00, 0.00, 0.00, 0.00, 0.00, 0.00
1104.0, 156104.00, 187500.00, 141455.31, 187500.00, 164913.11, 167225.69, 167671.31, 187500.00, 140692.17, 148694.86, 179433.36, 187500.00, 0.00, 0.00, 0.00, 0.00, 0.00, 0.00, 0.00
1108.0, 156112.69, 187500.00, 141452.05, 187500.00, 164931.89, 167217.23, 167684.06, 187500.00, 140692.17, 148694.86, 179433.36, 187500.00, 0.00, 0.00, 0.00, 0.00, 0.00, 0.00, 0.00
1112.0, 156112.69, 187500.00, 141452.05, 187500.00, 164931.89, 167217.23, 167684.06, 187500.00, 140726.38, 148730.20, 179479.45, 187500.00, 0.00, 0.00, 0.00, 0.00, 0.00, 0.00, 0.00
1116.0, 156163.70, 187500.00, 141512.17, 187500.00, 164968.78, 167280.03, 167727.55, 187500.00, 140726.38, 148730.20, 179479.45, 187500.00, 0.00, 0.00, 0.00, 0.00, 0.00, 0.00, 0.00
1120.0, 156163.70, 187500.00, 141512.17, 187500.00, 164968.78, 167280.03, 167727.55, 187500.00, 140754.98, 148756.83, 179511.25, 187500.00, 0.00, 0.00, 0.00, 0.00, 0.00, 0.00, 0.00
1124.0, 156161.70, 187500.00, 141506.13, 187500.00, 164978.33, 167267.06, 167730.84, 187500.00, 140754.98, 148756.83, 179511.25, 187500.00, 0.00, 0.00, 0.00, 0.00, 0.00, 0.00, 0.00
1128.0, 156161.70, 187500.00, 141506.13, 187500.00, 164978.33, 167267.06, 167730.84, 187500.00, 140764.13, 148769.39, 179517.27, 187500.00, 0.00, 0.00, 0.00, 0.00, 0.00, 0.00, 0.00
1132.0, 156189.63, 187500.00, 141542.48, 187500.00, 164994.69, 167304.09, 167753.28, 187500.00, 140764.13, 148769.39, 179517.27, 187500.00, 0.00, 0.00, 0.00, 0.00, 0.00, 0.00, 0.00
1136.0, 156189.63, 187500.00, 141542.48, 187500.00, 164994.69, 167304.09, 167753.28, 187500.00, 140781.31, 148785.20, 179542.66, 187500.00, 0.00, 0.00, 0.00, 0.00, 0.00, 0.00, 0.00
1140.0, 156181.98, 187500.00, 141530.39, 187500.00, 165001.44, 167291.95, 167757.55, 187500.00, 140781.31, 148785.20, 179542.66, 187500.00, 0.00, 0.00, 0.00, 0.00, 0.00, 0.00, 0.00
1144.0, 156181.98, 187500.00, 141530.39, 187500.00, 165001.44, 167291.95, 167757.55, 187500.00, 140795.33, 148799.73, 179547.00, 187500.00, 0.00, 0.00, 0.00, 0.00, 0.00, 0.00, 0.00
1148.0, 156234.75, 187500.00, 141582.30, 187500.00, 165035.84, 167346.28, 167799.69, 187500.00, 140795.33, 148799.73, 179547.00, 187500.00, 0.00, 0.00, 0.00, 0.00, 0.00, 0.00, 0.00
1152.0, 156234.75, 187500.00, 141582.30, 187500.00, 165035.84, 167346.28, 167799.69, 187500.00, 140853.61, 148845.89, 179595.97, 187500.00, 0.00, 0.00, 0.00, 0.00, 0.00, 0.00, 0.00
1156.0, 156256.19, 187500.00, 141592.33, 187500.00, 165068.66, 167364.31, 167829.50, 187500.00, 140853.61, 148845.89, 179595.97, 187500.00, 0.00, 0.00, 0.00, 0.00, 0.00, 0.00, 0.00
1160.0, 156256.19, 187500.00, 141592.33, 187500.00, 165068.66, 167364.31, 167829.50, 187500.00, 140866.36, 148869.23, 179602.86, 187500.00, 0.00, 0.00, 0.00, 0.00, 0.00, 0.00, 0.00
1164.0, 156254.48, 187500.00, 141584.50, 187500.00, 165058.91, 167363.11, 167823.98, 187500.00, 140866.36, 148869.23, 179602.86, 187500.00, 0.00, 0.00, 0.00, 0.00, 0.00, 0.00, 0.00
1168.0, 156254.48, 187500.00, 141584.50, 187500.00, 165058.91, 167363.11, 167823.98, 187500.00, 140831.16, 148825.39, 179586.38, 187500.00, 0.00, 0.00, 0.00, 0.00, 0.00, 0.00, 0.00
1172.0, 156206.41, 187500.00, 141522.72, 187500.00, 165021.06, 167317.02, 167774.98, 187500.00, 140831.16, 148825.39, 179586.38, 187500.00, 0.00, 0.00, 0.00, 0.00, 0.00, 0.00, 0.00
1176.0, 156206.41, 187500.00, 141522.72, 187500.00, 165021.06, 167317.02, 167774.98, 187500.00, 140824.19, 148799.00, 179545.92, 187500.00, 0.00, 0.00, 0.00, 0.00, 0.00, 0.00, 0.00
1180.0, 156168.89, 187500.00, 141481.02, 187500.00, 164977.70, 167284.97, 167740.09, 187500.00, 140824.19, 148799.00, 179545.92, 187500.00, 0.00, 0.00, 0.00, 0.00, 0.00, 0.00, 0.00
1184.0, 156168.89, 187500.00, 141481.02, 187500.00, 164977.70, 167284.97, 167740.09, 187500.00, 140779.38, 148741.41, 179505.36, 187500.00, 0.00, 0.00, 0.00, 0.00, 0.00, 0.00, 0.00
1188.0, 156104.95, 187500.00, 141407.19, 187500.00, 164915.20, 167222.30, 167675.50, 187500.00, 140779.38, 148741.41, 179505.36, 187500.00, 0.00, 0.00, 0.00, 0.00, 0.00, 0.00, 0.00
1192.0, 156104.95, 187500.00, 141407.19, 187500.00, 164915.20, 167222.30, 167675.50, 187500.00, 140737.47, 148700.77, 179457.23, 187500.00, 0.00, 0.00, 0.00, 0.00, 0.00, 0.00, 0.00
1196.0, 156071.86, 187500.00, 141374.59, 187500.00, 164883.83, 167181.92, 167640.58, 187500.00, 140737.47, 148700.77, 179457.23, 187500.00, 0.00, 0.00, 0.00, 0.00, 0.00, 0.00, 0.00
1200.0, 156071.86, 187500.00, 141374.59, 187500.00, 164883.83, 167181.92, 167640.58, 187500.00, 140731.97, 148683.89, 179460.50, 187500.00, 0.00, 0.00, 0.00, 0.00, 0.00, 0.00, 0.00
1204.0, 156116.72, 187500.00, 141400.78, 187500.00, 164921.48, 167225.23, 167678.59, 187500.00, 140731.97, 148683.89, 179460.50, 187500.00, 0.00, 0.00, 0.00, 0.00, 0.00, 0.00, 0.00
1208.0, 156116.72, 187500.00, 141400.78, 187500.00, 164921.48, 167225.23, 167678.59, 187500.00, 140879.20, 148838.09, 179514.41, 187500.00, 0.00, 0.00, 0.00, 0.00, 0.00, 0.00, 0.00
1212.0, 156310.38, 187500.00, 141610.09, 187500.00, 165137.55, 167435.84, 167896.73, 187500.00, 140879.20, 148838.09, 179514.41, 187500.00, 0.00, 0.00, 0.00, 0.00, 0.00, 0.00, 0.00
1216.0, 156310.38, 187500.00, 141610.09, 187500.00, 165137.55, 167435.84, 167896.73, 187500.00, 141075.36, 149045.47, 179626.33, 187500.00, 0.00, 0.00, 0.00, 0.00, 0.00, 0.00, 0.00
1220.0, 156314.23, 187500.00, 141611.73, 187500.00, 165145.81, 167451.59, 167904.98, 187500.00, 141075.36, 149045.47, 179626.33, 187500.00, 0.00, 0.00, 0.00, 0.00, 0.00, 0.00, 0.00
1224.0, 156314.23, 187500.00, 141611.73, 187500.00, 165145.81, 167451.59, 167904.98, 187500.00, 140676.56, 148712.91, 179396.86, 187500.00, 0.00, 0.00, 0.00, 0.00, 0.00, 0.00, 0.00
1228.0, 155449.41, 187500.00, 140745.31, 187500.00, 164288.05, 166586.89, 167041.06, 187500.00, 140676.56, 148712.91, 179396.86, 187500.00, 0.00, 0.00, 0.00, 0.00, 0.00, 0.00, 0.00
1232.0, 155449.41, 187500.00, 140745.31, 187500.00, 164288.05, 166586.89, 167041.06, 187500.00, 139032.56, 147102.34, 178037.61, 187500.00, 0.00, 0.00, 0.00, 0.00, 0.00, 0.00, 0.00
1236.0, 154030.16, 187500.00, 139311.48, 187500.00, 162855.56, 165163.34, 165610.19, 187500.00, 139032.56, 147102.34, 178037.61, 187500.00, 0.00, 0.00, 0.00, 0.00, 0.00, 0.00, 0.00
1240.0, 154030.16, 187500.00, 139311.48, 187500.00, 162855.56, 165163.34, 165610.19, 187500.00, 139005.73, 147126.00, 178180.97, 187500.00, 0.00, 0.00, 0.00, 0.00, 0.00, 0.00, 0.00
1244.0, 155031.31, 187500.00, 140312.48, 187500.00, 163866.52, 166164.97, 166626.08, 187500.00, 139005.73, 147126.00, 178180.97, 187500.00, 0.00, 0.00, 0.00, 0.00, 0.00, 0.00, 0.00
1248.0, 155031.31, 187500.00, 140312.48, 187500.00, 163866.52, 166164.97, 166626.08, 187500.00, 140109.25, 148378.27, 179188.66, 187500.00, 0.00, 0.00, 0.00, 0.00, 0.00, 0.00, 0.00
1252.0, 155895.28, 187500.00, 141174.28, 187500.00, 164732.80, 167036.59, 167491.50, 187500.00, 140109.25, 148378.27, 179188.66, 187500.00, 0.00, 0.00, 0.00, 0.00, 0.00, 0.00, 0.00
1256.0, 155895.28, 187500.00, 141174.28, 187500.00, 164732.80, 167036.59, 167491.50, 187500.00, 140994.58, 149067.59, 179934.42, 187500.00, 0.00, 0.00, 0.00, 0.00, 0.00, 0.00, 0.00
1260.0, 156736.50, 187500.00, 142020.23, 187500.00, 165581.53, 167875.50, 168339.50, 187500.00, 140994.58, 149067.59, 179934.42, 187500.00, 0.00, 0.00, 0.00, 0.00, 0.00, 0.00, 0.00
1264.0, 156736.50, 187500.00, 142020.23, 187500.00, 165581.53, 167875.50, 168339.50, 187500.00, 141634.33, 149578.58, 180497.33, 187500.00, 0.00, 0.00, 0.00, 0.00, 0.00, 0.00, 0.00
1268.0, 157034.14, 187500.00, 142302.13, 187500.00, 165856.38, 168166.56, 168616.25, 187500.00, 141634.33, 149578.58, 180497.33, 187500.00, 0.00, 0.00, 0.00, 0.00, 0.00, 0.00, 0.00
1272.0, 157034.14, 187500.00, 142302.13, 187500.00, 165856.38, 168166.56, 168616.25, 187500.00, 141810.39, 149738.22, 180355.95, 187500.00, 0.00, 0.00, 0.00, 0.00, 0.00, 0.00, 0.00
1276.0, 157266.25, 187500.00, 142544.33, 187500.00, 166101.03, 168391.72, 168856.84, 187500.00, 141810.39, 149738.22, 180355.95, 187500.00, 0.00, 0.00, 0.00, 0.00, 0.00, 0.00, 0.00
1280.0, 157266.25, 187500.00, 142544.33, 187500.00, 166101.03, 168391.72, 168856.84, 187500.00, 142048.64, 149976.09, 180490.36, 187500.00, 0.00, 0.00, 0.00, 0.00, 0.00, 0.00, 0.00
1284.0, 157484.91, 187500.00, 142751.05, 187500.00, 166306.67, 168600.25, 169064.47, 187500.00, 142048.64, 149976.09, 180490.36, 187500.00, 0.00, 0.00, 0.00, 0.00, 0.00, 0.00, 0.00
1288.0, 157484.91, 187500.00, 142751.05, 187500.00, 166306.67, 168600.25, 169064.47, 187500.00, 142316.33, 150232.03, 180725.89, 187500.00, 0.00, 0.00, 0.00, 0.00, 0.00, 0.00, 0.00
1292.0, 157720.52, 187500.00, 143000.95, 187500.00, 166560.50, 168844.38, 169314.33, 187500.00, 142316.33, 150232.03, 180725.89, 187500.00, 0.00, 0.00, 0.00, 0.00, 0.00, 0.00, 0.00
1296.0, 157720.52, 187500.00, 143000.95, 187500.00, 166560.50, 168844.38, 169314.33, 187500.00, 142471.33, 150380.67, 180869.59, 187500.00, 0.00, 0.00, 0.00, 0.00, 0.00, 0.00, 0.00
1300.0, 157815.84, 187500.00, 143082.50, 187500.00, 166638.73, 168932.22, 169395.02, 187500.00, 142471.33, 150380.67, 180869.59, 187500.00, 0.00, 0.00, 0.00, 0.00, 0.00, 0.00, 0.00
1304.0, 157815.84, 187500.00, 143082.50, 187500.00, 166638.73, 168932.22, 169395.02, 187500.00, 142523.44, 150428.84, 180910.25, 187500.00, 0.00, 0.00, 0.00, 0.00, 0.00, 0.00, 0.00
1308.0, 157825.13, 187500.00, 143113.78, 187500.00, 166673.89, 168954.11, 169425.72, 187500.00, 142523.44, 150428.84, 180910.25, 187500.00, 0.00, 0.00, 0.00, 0.00, 0.00, 0.00, 0.00
1312.0, 157825.13, 187500.00, 143113.78, 187500.00, 166673.89, 168954.11, 169425.72, 187500.00, 142545.58, 150449.66, 180923.64, 187500.00, 0.00, 0.00, 0.00, 0.00, 0.00, 0.00, 0.00
1316.0, 157869.38, 187500.00, 143134.11, 187500.00, 166691.03, 168984.72, 169446.78, 187500.00, 142545.58, 150449.66, 180923.64, 187500.00, 0.00, 0.00, 0.00, 0.00, 0.00, 0.00, 0.00
1320.0, 157869.38, 187500.00, 143134.11, 187500.00, 166691.03, 168984.72, 169446.78, 187500.00, 142554.64, 150460.42, 180929.78, 187500.00, 0.00, 0.00, 0.00, 0.00, 0.00, 0.00, 0.00
1324.0, 157844.66, 187500.00, 143123.67, 187500.00, 166688.00, 168974.16, 169445.23, 187500.00, 142554.64, 150460.42, 180929.78, 187500.00, 0.00, 0.00, 0.00, 0.00, 0.00, 0.00, 0.00
1328.0, 157844.66, 187500.00, 143123.67, 187500.00, 166688.00, 168974.16, 169445.23, 187500.00, 142533.38, 150433.16, 180905.84, 187500.00, 0.00, 0.00, 0.00, 0.00, 0.00, 0.00, 0.00
1332.0, 157804.97, 187500.00, 143072.06, 187500.00, 166642.27, 168932.48, 169399.16, 187500.00, 142533.38, 150433.16, 180905.84, 187500.00, 0.00, 0.00, 0.00, 0.00, 0.00, 0.00, 0.00
1336.0, 157804.97, 187500.00, 143072.06, 187500.00, 166642.27, 168932.48, 169399.16, 187500.00, 142480.50, 150378.70, 180845.23, 187500.00, 0.00, 0.00, 0.00, 0.00, 0.00, 0.00, 0.00
1340.0, 157709.48, 187500.00, 142982.66, 187500.00, 166556.81, 168842.39, 169314.53, 187500.00, 142480.50, 150378.70, 180845.23, 187500.00, 0.00, 0.00, 0.00, 0.00, 0.00, 0.00, 0.00
1344.0, 157709.48, 187500.00, 142982.66, 187500.00, 166556.81, 168842.39, 169314.53, 187500.00, 142393.28, 150294.95, 180760.81, 187500.00, 0.00, 0.00, 0.00, 0.00, 0.00, 0.00, 0.00
1348.0, 157672.94, 187500.00, 142947.63, 187500.00, 166520.47, 168813.09, 169281.48, 187500.00, 142393.28, 150294.95, 180760.81, 187500.00, 0.00, 0.00, 0.00, 0.00, 0.00, 0.00, 0.00
1352.0, 157672.94, 187500.00, 142947.63, 187500.00, 166520.47, 168813.09, 169281.48, 187500.00, 142403.31, 150305.91, 180769.55, 187500.00, 0.00, 0.00, 0.00, 0.00, 0.00, 0.00, 0.00
1356.0, 157682.59, 187500.00, 142963.45, 187500.00, 166538.84, 168829.88, 169298.41, 187500.00, 142403.31, 150305.91, 180769.55, 187500.00, 0.00, 0.00, 0.00, 0.00, 0.00, 0.00, 0.00
1360.0, 157682.59, 187500.00, 142963.45, 187500.00, 166538.84, 168829.88, 169298.41, 187500.00, 142424.89, 150332.39, 180790.30, 187500.00, 0.00, 0.00, 0.00, 0.00, 0.00, 0.00, 0.00
1364.0, 157723.11, 187500.00, 142987.97, 187500.00, 166568.25, 168861.44, 169326.91, 187500.00, 142424.89, 150332.39, 180790.30, 187500.00, 0.00, 0.00, 0.00, 0.00, 0.00, 0.00, 0.00
1368.0, 157723.11, 187500.00, 142987.97, 187500.00, 166568.25, 168861.44, 169326.91, 187500.00, 142447.11, 150351.48, 180805.20, 187500.00, 0.00, 0.00, 0.00, 0.00, 0.00, 0.00, 0.00
1372.0, 157725.97, 187500.00, 142988.58, 187500.00, 166572.30, 168866.48, 169330.42, 187500.00, 142447.11, 150351.48, 180805.20, 187500.00, 0.00, 0.00, 0.00, 0.00, 0.00, 0.00, 0.00
1376.0, 157725.97, 187500.00, 142988.58, 187500.00, 166572.30, 168866.48, 169330.42, 187500.00, 142447.70, 150350.45, 180809.41, 187500.00, 0.00, 0.00, 0.00, 0.00, 0.00, 0.00, 0.00
1380.0, 157738.63, 187500.00, 143006.95, 187500.00, 166585.27, 168878.44, 169337.92, 187500.00, 142447.70, 150350.45, 180809.41, 187500.00, 0.00, 0.00, 0.00, 0.00, 0.00, 0.00, 0.00
1384.0, 157738.63, 187500.00, 143006.95, 187500.00, 166585.27, 168878.44, 169337.92, 187500.00, 142457.98, 150364.94, 180825.58, 187500.00, 0.00, 0.00, 0.00, 0.00, 0.00, 0.00, 0.00
1388.0, 157722.59, 187500.00, 142988.73, 187500.00, 166567.66, 168858.73, 169321.88, 187500.00, 142457.98, 150364.94, 180825.58, 187500.00, 0.00, 0.00, 0.00, 0.00, 0.00, 0.00, 0.00
1392.0, 157722.59, 187500.00, 142988.73, 187500.00, 166567.66, 168858.73, 169321.88, 187500.00, 142422.78, 150330.75, 180777.77, 187500.00, 0.00, 0.00, 0.00, 0.00, 0.00, 0.00, 0.00
1396.0, 157707.47, 187500.00, 142965.44, 187500.00, 166544.41, 168842.72, 169301.86, 187500.00, 142422.78, 150330.75, 180777.77, 187500.00, 0.00, 0.00, 0.00, 0.00, 0.00, 0.00, 0.00
1400.0, 157707.47, 187500.00, 142965.44, 187500.00, 166544.41, 168842.72, 169301.86, 187500.00, 142429.95, 150337.47, 180781.70, 187500.00, 0.00, 0.00, 0.00, 0.00, 0.00, 0.00, 0.00
1404.0, 157724.23, 187500.00, 142970.58, 187500.00, 166545.66, 168846.72, 169300.94, 187500.00, 142429.95, 150337.47, 180781.70, 187500.00, 0.00, 0.00, 0.00, 0.00, 0.00, 0.00, 0.00
1408.0, 157724.23, 187500.00, 142970.58, 187500.00, 166545.66, 168846.72, 169300.94, 187500.00, 142429.05, 150334.78, 180782.36, 187500.00, 0.00, 0.00, 0.00, 0.00, 0.00, 0.00, 0.00
1412.0, 157734.89, 187500.00, 142992.47, 187500.00, 166569.34, 168859.41, 169320.98, 187500.00, 142429.05, 150334.78, 180782.36, 187500.00, 0.00, 0.00, 0.00, 0.00, 0.00, 0.00, 0.00
1416.0, 157734.89, 187500.00, 142992.47, 187500.00, 166569.34, 168859.41, 169320.98, 187500.00, 142470.55, 150369.23, 180823.22, 187500.00, 0.00, 0.00, 0.00, 0.00, 0.00, 0.00, 0.00
1420.0, 157758.94, 187500.00, 143015.94, 187500.00, 166587.84, 168884.39, 169339.31, 187500.00, 142470.55, 150369.23, 180823.22, 187500.00, 0.00, 0.00, 0.00, 0.00, 0.00, 0.00, 0.00
1424.0, 157758.94, 187500.00, 143015.94, 187500.00, 166587.84, 168884.39, 169339.31, 187500.00, 142461.66, 150367.78, 180822.39, 187500.00, 0.00, 0.00, 0.00, 0.00, 0.00, 0.00, 0.00
1428.0, 157750.41, 187500.00, 143014.56, 187500.00, 166590.14, 168874.05, 169339.41, 187500.00, 142461.66, 150367.78, 180822.39, 187500.00, 0.00, 0.00, 0.00, 0.00, 0.00, 0.00, 0.00
1432.0, 157750.41, 187500.00, 143014.56, 187500.00, 166590.14, 168874.05, 169339.41, 187500.00, 142460.89, 150367.42, 180835.11, 187500.00, 0.00, 0.00, 0.00, 0.00, 0.00, 0.00, 0.00
1436.0, 157778.28, 187500.00, 143030.50, 187500.00, 166600.36, 168900.48, 169357.94, 187500.00, 142460.89, 150367.42, 180835.11, 187500.00, 0.00, 0.00, 0.00, 0.00, 0.00, 0.00, 0.00
1440.0, 157778.28, 187500.00, 143030.50, 187500.00, 166600.36, 168900.48, 169357.94, 187500.00, 142491.22, 150392.19, 180855.63, 187500.00, 0.00, 0.00, 0.00, 0.00, 0.00, 0.00, 0.00
1444.0, 157813.41, 187500.00, 143081.17, 187500.00, 166656.59, 168945.47, 169411.11, 187500.00, 142491.22, 150392.19, 180855.63, 187500.00, 0.00, 0.00, 0.00, 0.00, 0.00, 0.00, 0.00
1448.0, 157813.41, 187500.00, 143081.17, 187500.00, 166656.59, 168945.47, 169411.11, 187500.00, 142551.22, 150444.31, 180924.88, 187500.00, 0.00, 0.00, 0.00, 0.00, 0.00, 0.00, 0.00
1452.0, 157873.19, 187500.00, 143132.45, 187500.00, 166706.05, 169004.84, 169460.02, 187500.00, 142551.22, 150444.31, 180924.88, 187500.00, 0.00, 0.00, 0.00, 0.00, 0.00, 0.00, 0.00
1456.0, 157873.19, 187500.00, 143132.45, 187500.00, 166706.05, 169004.84, 169460.02, 187500.00, 142604.33, 150505.53, 180962.20, 187500.00, 0.00, 0.00, 0.00, 0.00, 0.00, 0.00, 0.00
1460.0, 157933.28, 187500.00, 143204.38, 187500.00, 166788.23, 169077.44, 169538.56, 187500.00, 142604.33, 150505.53, 180962.20, 187500.00, 0.00, 0.00, 0.00, 0.00, 0.00, 0.00, 0.00
1464.0, 157933.28, 187500.00, 143204.38, 187500.00, 166788.23, 169077.44, 169538.56, 187500.00, 142718.28, 150614.92, 181091.61, 187500.00, 0.00, 0.00, 0.00, 0.00, 0.00, 0.00, 0.00
1468.0, 158093.03, 187500.00, 143350.47, 187500.00, 166935.39, 169223.86, 169675.08, 187500.00, 142718.28, 150614.92, 181091.61, 187500.00, 0.00, 0.00, 0.00, 0.00, 0.00, 0.00, 0.00
1472.0, 158093.03, 187500.00, 143350.47, 187500.00, 166935.39, 169223.86, 169675.08, 187500.00, 142810.47, 150712.95, 181188.70, 187500.00, 0.00, 0.00, 0.00, 0.00, 0.00, 0.00, 0.00
1476.0, 158125.02, 187500.00, 143406.66, 187500.00, 166990.14, 169271.41, 169729.47, 187500.00, 142810.47, 150712.95, 181188.70, 187500.00, 0.00, 0.00, 0.00, 0.00, 0.00, 0.00, 0.00
1480.0, 158125.02, 187500.00, 143406.66, 187500.00, 166990.14, 169271.41, 169729.47, 187500.00, 142849.02, 150746.44, 181228.14, 187500.00, 0.00, 0.00, 0.00, 0.00, 0.00, 0.00, 0.00
1484.0, 158166.55, 187500.00, 143431.00, 187500.00, 167006.94, 169304.33, 169750.77, 187500.00, 142849.02, 150746.44, 181228.14, 187500.00, 0.00, 0.00, 0.00, 0.00, 0.00, 0.00, 0.00
1488.0, 158166.55, 187500.00, 143431.00, 187500.00, 167006.94, 169304.33, 169750.77, 187500.00, 142848.50, 150761.03, 181236.36, 187500.00, 0.00, 0.00, 0.00, 0.00, 0.00, 0.00, 0.00
1492.0, 158161.92, 187500.00, 143446.36, 187500.00, 167019.27, 169304.80, 169768.64, 187500.00, 142848.50, 150761.03, 181236.36, 187500.00, 0.00, 0.00, 0.00, 0.00, 0.00, 0.00, 0.00
1496.0, 158161.92, 187500.00, 143446.36, 187500.00, 167019.27, 169304.80, 169768.64, 187500.00, 142845.92, 150764.45, 181233.89, 187500.00, 0.00, 0.00, 0.00, 0.00, 0.00, 0.00, 0.00
1500.0, 158135.03, 187500.00, 143393.91, 187500.00, 166953.52, 169254.47, 169705.30, 187500.00, 142845.92, 150764.45, 181233.89, 187500.00, 0.00, 0.00, 0.00, 0.00, 0.00, 0.00, 0.00
1504.0, 158135.03, 187500.00, 143393.91, 187500.00, 166953.52, 169254.47, 169705.30, 187500.00, 142685.95, 150616.53, 181080.58, 187500.00, 0.00, 0.00, 0.00, 0.00, 0.00, 0.00, 0.00
1508.0, 157909.95, 187500.00, 143178.91, 187500.00, 166754.16, 169050.89, 169501.67, 187500.00, 142685.95, 150616.53, 181080.58, 187500.00, 0.00, 0.00, 0.00, 0.00, 0.00, 0.00, 0.00
1512.0, 157909.95, 187500.00, 143178.91, 187500.00, 166754.16, 169050.89, 169501.67, 187500.00, 142551.47, 150496.19, 180955.31, 187500.00, 0.00, 0.00, 0.00, 0.00, 0.00, 0.00, 0.00
1516.0, 157977.30, 187500.00, 143146.16, 187500.00, 166792.42, 169095.25, 169542.31, 187500.00, 142551.47, 150496.19, 180955.31, 187500.00, 0.00, 0.00, 0.00, 0.00, 0.00, 0.00, 0.00
1520.0, 157977.30, 187500.00, 143146.16, 187500.00, 166792.42, 169095.25, 169542.31, 187500.00, 142660.19, 150626.91, 181073.44, 187500.00, 0.00, 0.00, 0.00, 0.00, 0.00, 0.00, 0.00
1524.0, 158084.31, 187500.00, 143225.28, 187500.00, 166931.73, 169223.58, 169681.88, 187500.00, 142660.19, 150626.91, 181073.44, 187500.00, 0.00, 0.00, 0.00, 0.00, 0.00, 0.00, 0.00
1528.0, 158084.31, 187500.00, 143225.28, 187500.00, 166931.73, 169223.58, 169681.88, 187500.00, 142762.48, 150756.05, 181211.58, 187500.00, 0.00, 0.00, 0.00, 0.00, 0.00, 0.00, 0.00
1532.0, 158276.98, 187500.00, 143384.67, 187500.00, 167104.03, 169398.84, 169849.09, 187500.00, 142762.48, 150756.05, 181211.58, 187500.00, 0.00, 0.00, 0.00, 0.00, 0.00, 0.00, 0.00
1536.0, 158276.98, 187500.00, 143384.67, 187500.00, 167104.03, 169398.84, 169849.09, 187500.00, 142928.67, 150950.20, 181396.47, 187500.00, 0.00, 0.00, 0.00, 0.00, 0.00, 0.00, 0.00
1540.0, 158419.38, 187500.00, 143540.23, 187500.00, 167275.48, 169560.94, 170017.58, 187500.00, 142928.67, 150950.20, 181396.47, 187500.00, 0.00, 0.00, 0.00, 0.00, 0.00, 0.00, 0.00
1544.0, 158419.38, 187500.00, 143540.23, 187500.00, 167275.48, 169560.94, 170017.58, 187500.00, 143022.38, 151073.63, 181511.92, 187500.00, 0.00, 0.00, 0.00, 0.00, 0.00, 0.00, 0.00
1548.0, 158548.73, 187500.00, 143649.67, 187500.00, 167376.19, 169662.47, 170121.02, 187500.00, 143022.38, 151073.63, 181511.92, 187500.00, 0.00, 0.00, 0.00, 0.00, 0.00, 0.00, 0.00
1552.0, 158548.73, 187500.00, 143649.67, 187500.00, 167376.19, 169662.47, 170121.02, 187500.00, 143087.38, 151151.28, 181600.20, 187500.00, 0.00, 0.00, 0.00, 0.00, 0.00, 0.00, 0.00
1556.0, 158616.63, 187500.00, 143765.08, 187500.00, 167468.67, 169750.14, 170212.31, 187500.00, 143087.38, 151151.28, 181600.20, 187500.00, 0.00, 0.00, 0.00, 0.00, 0.00, 0.00, 0.00
1560.0, 158616.63, 187500.00, 143765.08, 187500.00, 167468.67, 169750.14, 170212.31, 187500.00, 143230.80, 151326.41, 181766.25, 187500.00, 0.00, 0.00, 0.00, 0.00, 0.00, 0.00, 0.00
1564.0, 158938.20, 187500.00, 144156.20, 187500.00, 167777.28, 170066.86, 170518.17, 187500.00, 143230.80, 151326.41, 181766.25, 187500.00, 0.00, 0.00, 0.00, 0.00, 0.00, 0.00, 0.00
1568.0, 158938.20, 187500.00, 144156.20, 187500.00, 167777.28, 170066.86, 170518.17, 187500.00, 143582.53, 151685.58, 182122.39, 187500.00, 0.00, 0.00, 0.00, 0.00, 0.00, 0.00, 0.00
1572.0, 159300.66, 187500.00, 144629.19, 187500.00, 168158.61, 170449.06, 170900.45, 187500.00, 143582.53, 151685.58, 182122.39, 187500.00, 0.00, 0.00, 0.00, 0.00, 0.00, 0.00, 0.00
1576.0, 159300.66, 187500.00, 144629.19, 187500.00, 168158.61, 170449.06, 170900.45, 187500.00, 143901.36, 152028.11, 182457.59, 187500.00, 0.00, 0.00, 0.00, 0.00, 0.00, 0.00, 0.00
1580.0, 159595.36, 187500.00, 144984.41, 187500.00, 168440.61, 170733.97, 171178.22, 187500.00, 143901.36, 152028.11, 182457.59, 187500.00, 0.00, 0.00, 0.00, 0.00, 0.00, 0.00, 0.00
1584.0, 159595.36, 187500.00, 144984.41, 187500.00, 168440.61, 170733.97, 171178.22, 187500.00, 144058.86, 152184.44, 182617.61, 187500.00, 0.00, 0.00, 0.00, 0.00, 0.00, 0.00, 0.00
1588.0, 159631.38, 187500.00, 145084.03, 187500.00, 168482.77, 170777.41, 171223.08, 187500.00, 144058.86, 152184.44, 182617.61, 187500.00, 0.00, 0.00, 0.00, 0.00, 0.00, 0.00, 0.00
1592.0, 159631.38, 187500.00, 145084.03, 187500.00, 168482.77, 170777.41, 171223.08, 187500.00, 144029.14, 152182.30, 182602.81, 187500.00, 0.00, 0.00, 0.00, 0.00, 0.00, 0.00, 0.00
1596.0, 159595.31, 187500.00, 144980.50, 187500.00, 168450.81, 170740.25, 171188.42, 187500.00, 144029.14, 152182.30, 182602.81, 187500.00, 0.00, 0.00, 0.00, 0.00, 0.00, 0.00, 0.00
1600.0, 159595.31, 187500.00, 144980.50, 187500.00, 168450.81, 170740.25, 171188.42, 187500.00, 144011.97, 152170.30, 182584.20, 187500.00, 0.00, 0.00, 0.00, 0.00, 0.00, 0.00, 0.00
1604.0, 159672.23, 187500.00, 145054.09, 187500.00, 168525.23, 170818.73, 171260.16, 187500.00, 144011.97, 152170.30, 182584.20, 187500.00, 0.00, 0.00, 0.00, 0.00, 0.00, 0.00, 0.00
1608.0, 159672.23, 187500.00, 145054.09, 187500.00, 168525.23, 170818.73, 171260.16, 187500.00, 144105.64, 152272.27, 182689.66, 187500.00, 0.00, 0.00, 0.00, 0.00, 0.00, 0.00, 0.00
1612.0, 159742.59, 187500.00, 145087.66, 187500.00, 168607.16, 170891.84, 171339.86, 187500.00, 144105.64, 152272.27, 182689.66, 187500.00, 0.00, 0.00, 0.00, 0.00, 0.00, 0.00, 0.00
1616.0, 159742.59, 187500.00, 145087.66, 187500.00, 168607.16, 170891.84, 171339.86, 187500.00, 144161.03, 152316.42, 182726.08, 187500.00, 0.00, 0.00, 0.00, 0.00, 0.00, 0.00, 0.00
1620.0, 159691.36, 187500.00, 144950.77, 187500.00, 168545.09, 170837.48, 171277.97, 187500.00, 144161.03, 152316.42, 182726.08, 187500.00, 0.00, 0.00, 0.00, 0.00, 0.00, 0.00, 0.00
1624.0, 159691.36, 187500.00, 144950.77, 187500.00, 168545.09, 170837.48, 171277.97, 187500.00, 143948.66, 152113.52, 182542.89, 187500.00, 0.00, 0.00, 0.00, 0.00, 0.00, 0.00, 0.00
1628.0, 159472.81, 187500.00, 144674.50, 187500.00, 168344.69, 170621.16, 171073.88, 187500.00, 143948.66, 152113.52, 182542.89, 187500.00, 0.00, 0.00, 0.00, 0.00, 0.00, 0.00, 0.00
1632.0, 159472.81, 187500.00, 144674.50, 187500.00, 168344.69, 170621.16, 171073.88, 187500.00, 143855.22, 152021.00, 182443.06, 187500.00, 0.00, 0.00, 0.00, 0.00, 0.00, 0.00, 0.00
1636.0, 159435.95, 187500.00, 144608.34, 187500.00, 168292.31, 170572.91, 171020.72, 187500.00, 143855.22, 152021.00, 182443.06, 187500.00, 0.00, 0.00, 0.00, 0.00, 0.00, 0.00, 0.00
1640.0, 159435.95, 187500.00, 144608.34, 187500.00, 168292.31, 170572.91, 171020.72, 187500.00, 143792.91, 151966.31, 182391.22, 187500.00, 0.00, 0.00, 0.00, 0.00, 0.00, 0.00, 0.00
1644.0, 159376.16, 187500.00, 144564.38, 187500.00, 168254.56, 170528.45, 170984.67, 187500.00, 143792.91, 151966.31, 182391.22, 187500.00, 0.00, 0.00, 0.00, 0.00, 0.00, 0.00, 0.00
1648.0, 159376.16, 187500.00, 144564.38, 187500.00, 168254.56, 170528.45, 170984.67, 187500.00, 143789.91, 151956.75, 182375.61, 187500.00, 0.00, 0.00, 0.00, 0.00, 0.00, 0.00, 0.00
1652.0, 159389.95, 187500.00, 144555.97, 187500.00, 168243.41, 170526.48, 170974.13, 187500.00, 143789.91, 151956.75, 182375.61, 187500.00, 0.00, 0.00, 0.00, 0.00, 0.00, 0.00, 0.00
1656.0, 159389.95, 187500.00, 144555.97, 187500.00, 168243.41, 170526.48, 170974.13, 187500.00, 143758.34, 151935.38, 182354.20, 187500.00, 0.00, 0.00, 0.00, 0.00, 0.00, 0.00, 0.00
1660.0, 159345.53, 187500.00, 144530.86, 187500.00, 168232.08, 170499.72, 170962.55, 187500.00, 143758.34, 151935.38, 182354.20, 187500.00, 0.00, 0.00, 0.00, 0.00, 0.00, 0.00, 0.00
1664.0, 159345.53, 187500.00, 144530.86, 187500.00, 168232.08, 170499.72, 170962.55, 187500.00, 143759.73, 151931.44, 182337.08, 187500.00, 0.00, 0.00, 0.00, 0.00, 0.00, 0.00, 0.00
1668.0, 159354.44, 187500.00, 144513.09, 187500.00, 168216.63, 170498.63, 170945.08, 187500.00, 143759.73, 151931.44, 182337.08, 187500.00, 0.00, 0.00, 0.00, 0.00, 0.00, 0.00, 0.00
1672.0, 159354.44, 187500.00, 144513.09, 187500.00, 168216.63, 170498.63, 170945.08, 187500.00, 143744.91, 151916.80, 182324.31, 187500.00, 0.00, 0.00, 0.00, 0.00, 0.00, 0.00, 0.00
1676.0, 159311.38, 187500.00, 144499.22, 187500.00, 168208.94, 170477.95, 170935.42, 187500.00, 143744.91, 151916.80, 182324.31, 187500.00, 0.00, 0.00, 0.00, 0.00, 0.00, 0.00, 0.00
1680.0, 159311.38, 187500.00, 144499.22, 187500.00, 168208.94, 170477.95, 170935.42, 187500.00, 143745.14, 151902.36, 182322.38, 187500.00, 0.00, 0.00, 0.00, 0.00, 0.00, 0.00, 0.00
1684.0, 159345.78, 187500.00, 144498.92, 187500.00, 168205.50, 170489.17, 170930.41, 187500.00, 143745.14, 151902.36, 182322.38, 187500.00, 0.00, 0.00, 0.00, 0.00, 0.00, 0.00, 0.00
1688.0, 159345.78, 187500.00, 144498.92, 187500.00, 168205.50, 170489.17, 170930.41, 187500.00, 143746.44, 151904.91, 182319.86, 187500.00, 0.00, 0.00, 0.00, 0.00, 0.00, 0.00, 0.00
1692.0, 159316.03, 187500.00, 144495.91, 187500.00, 168209.09, 170479.94, 170938.61, 187500.00, 143746.44, 151904.91, 182319.86, 187500.00, 0.00, 0.00, 0.00, 0.00, 0.00, 0.00, 0.00
1696.0, 159316.03, 187500.00, 144495.91, 187500.00, 168209.09, 170479.94, 170938.61, 187500.00, 143763.47, 151924.73, 182332.94, 187500.00, 0.00, 0.00, 0.00, 0.00, 0.00, 0.00, 0.00
1700.0, 159367.89, 187500.00, 144520.30, 187500.00, 168240.48, 170508.88, 170965.47, 187500.00, 143763.47, 151924.73, 182332.94, 187500.00, 0.00, 0.00, 0.00, 0.00, 0.00, 0.00, 0.00
1704.0, 159367.89, 187500.00, 144520.30, 187500.00, 168240.48, 170508.88, 170965.47, 187500.00, 143793.14, 151945.03, 182354.83, 187500.00, 0.00, 0.00, 0.00, 0.00, 0.00, 0.00, 0.00
1708.0, 159354.80, 187500.00, 144537.53, 187500.00, 168254.11, 170523.67, 170983.42, 187500.00, 143793.14, 151945.03, 182354.83, 187500.00, 0.00, 0.00, 0.00, 0.00, 0.00, 0.00, 0.00
1712.0, 159354.80, 187500.00, 144537.53, 187500.00, 168254.11, 170523.67, 170983.42, 187500.00, 143820.03, 151965.81, 182368.95, 187500.00, 0.00, 0.00, 0.00, 0.00, 0.00, 0.00, 0.00
1716.0, 159406.38, 187500.00, 144558.25, 187500.00, 168274.47, 170550.95, 170998.48, 187500.00, 143820.03, 151965.81, 182368.95, 187500.00, 0.00, 0.00, 0.00, 0.00, 0.00, 0.00, 0.00
1720.0, 159406.38, 187500.00, 144558.25, 187500.00, 168274.47, 170550.95, 170998.48, 187500.00, 143838.28, 151974.41, 182387.95, 187500.00, 0.00, 0.00, 0.00, 0.00, 0.00, 0.00, 0.00
1724.0, 159364.84, 187500.00, 144545.28, 187500.00, 168264.80, 170530.45, 170989.25, 187500.00, 143838.28, 151974.41, 182387.95, 187500.00, 0.00, 0.00, 0.00, 0.00, 0.00, 0.00, 0.00
1728.0, 159364.84, 187500.00, 144545.28, 187500.00, 168264.80, 170530.45, 170989.25, 187500.00, 143747.23, 151890.20, 182291.36, 187500.00, 0.00, 0.00, 0.00, 0.00, 0.00, 0.00, 0.00
1732.0, 159223.86, 187500.00, 144375.92, 187500.00, 168095.14, 170365.73, 170816.77, 187500.00, 143747.23, 151890.20, 182291.36, 187500.00, 0.00, 0.00, 0.00, 0.00, 0.00, 0.00, 0.00
1736.0, 159223.86, 187500.00, 144375.92, 187500.00, 168095.14, 170365.73, 170816.77, 187500.00, 143656.11, 151788.56, 182198.58, 187500.00, 0.00, 0.00, 0.00, 0.00, 0.00, 0.00, 0.00
1740.0, 159186.09, 187500.00, 144358.27, 187500.00, 168077.56, 170341.52, 170801.25, 187500.00, 143656.11, 151788.56, 182198.58, 187500.00, 0.00, 0.00, 0.00, 0.00, 0.00, 0.00, 0.00
1744.0, 159186.09, 187500.00, 144358.27, 187500.00, 168077.56, 170341.52, 170801.25, 187500.00, 143611.86, 151745.73, 182158.02, 187500.00, 0.00, 0.00, 0.00, 0.00, 0.00, 0.00, 0.00
1748.0, 159163.03, 187500.00, 144316.52, 187500.00, 168033.45, 170304.59, 170754.83, 187500.00, 143611.86, 151745.73, 182158.02, 187500.00, 0.00, 0.00, 0.00, 0.00, 0.00, 0.00, 0.00
1752.0, 159163.03, 187500.00, 144316.52, 187500.00, 168033.45, 170304.59, 170754.83, 187500.00, 143640.50, 151764.56, 182173.75, 187500.00, 0.00, 0.00, 0.00, 0.00, 0.00, 0.00, 0.00
1756.0, 159163.14, 187500.00, 144338.59, 187500.00, 168054.30, 170318.34, 170777.00, 187500.00, 143640.50, 151764.56, 182173.75, 187500.00, 0.00, 0.00, 0.00, 0.00, 0.00, 0.00, 0.00
1760.0, 159163.14, 187500.00, 144338.59, 187500.00, 168054.30, 170318.34, 170777.00, 187500.00, 143612.03, 151743.06, 182149.77, 187500.00, 0.00, 0.00, 0.00, 0.00, 0.00, 0.00, 0.00
1764.0, 159173.70, 187500.00, 144329.86, 187500.00, 168047.92, 170317.20, 170766.92, 187500.00, 143612.03, 151743.06, 182149.77, 187500.00, 0.00, 0.00, 0.00, 0.00, 0.00, 0.00, 0.00
1768.0, 159173.70, 187500.00, 144329.86, 187500.00, 168047.92, 170317.20, 170766.92, 187500.00, 143649.92, 151770.44, 182174.80, 187500.00, 0.00, 0.00, 0.00, 0.00, 0.00, 0.00, 0.00
1772.0, 159152.13, 187500.00, 144320.50, 187500.00, 168035.02, 170303.23, 170755.05, 187500.00, 143649.92, 151770.44, 182174.80, 187500.00, 0.00, 0.00, 0.00, 0.00, 0.00, 0.00, 0.00
1776.0, 159152.13, 187500.00, 144320.50, 187500.00, 168035.02, 170303.23, 170755.05, 187500.00, 143513.17, 151649.03, 182056.00, 187500.00, 0.00, 0.00, 0.00, 0.00, 0.00, 0.00, 0.00
1780.0, 158929.28, 187500.00, 144087.30, 187500.00, 167809.61, 170076.52, 170525.39, 187500.00, 143513.17, 151649.03, 182056.00, 187500.00, 0.00, 0.00, 0.00, 0.00, 0.00, 0.00, 0.00
1784.0, 158929.28, 187500.00, 144087.30, 187500.00, 167809.61, 170076.52, 170525.39, 187500.00, 143326.98, 151446.75, 181858.45, 187500.00, 0.00, 0.00, 0.00, 0.00, 0.00, 0.00, 0.00
1788.0, 158801.94, 187500.00, 143963.16, 187500.00, 167684.86, 169954.25, 170402.98, 187500.00, 143326.98, 151446.75, 181858.45, 187500.00, 0.00, 0.00, 0.00, 0.00, 0.00, 0.00, 0.00
1792.0, 158801.94, 187500.00, 143963.16, 187500.00, 167684.86, 169954.25, 170402.98, 187500.00, 143261.47, 151389.30, 181788.05, 187500.00, 0.00, 0.00, 0.00, 0.00, 0.00, 0.00, 0.00
1796.0, 158773.91, 187500.00, 143934.72, 187500.00, 167657.25, 169925.38, 170372.25, 187500.00, 143261.47, 151389.30, 181788.05, 187500.00, 0.00, 0.00, 0.00, 0.00, 0.00, 0.00, 0.00
1800.0, 158773.91, 187500.00, 143934.72, 187500.00, 167657.25, 169925.38, 170372.25, 187500.00, 143263.64, 151378.50, 181773.61, 187500.00, 0.00, 0.00, 0.00, 0.00, 0.00, 0.00, 0.00
1804.0, 158743.63, 187500.00, 143897.47, 187500.00, 167626.66, 169907.03, 170347.36, 187500.00, 143263.64, 151378.50, 181773.61, 187500.00, 0.00, 0.00, 0.00, 0.00, 0.00, 0.00, 0.00
1808.0, 158743.63, 187500.00, 143897.47, 187500.00, 167626.66, 169907.03, 170347.36, 187500.00, 143169.98, 151293.45, 181682.97, 187500.00, 0.00, 0.00, 0.00, 0.00, 0.00, 0.00, 0.00
1812.0, 158574.61, 187500.00, 143731.44, 187500.00, 167468.19, 169737.31, 170183.47, 187500.00, 143169.98, 151293.45, 181682.97, 187500.00, 0.00, 0.00, 0.00, 0.00, 0.00, 0.00, 0.00
1816.0, 158574.61, 187500.00, 143731.44, 187500.00, 167468.19, 169737.31, 170183.47, 187500.00, 142956.45, 151067.81, 181458.81, 187500.00, 0.00, 0.00, 0.00, 0.00, 0.00, 0.00, 0.00
1820.0, 158201.47, 187500.00, 143410.80, 187500.00, 167149.56, 169427.89, 169866.02, 187500.00, 142956.45, 151067.81, 181458.81, 187500.00, 0.00, 0.00, 0.00, 0.00, 0.00, 0.00, 0.00
1824.0, 158201.47, 187500.00, 143410.80, 187500.00, 167149.56, 169427.89, 169866.02, 187500.00, 142649.59, 150766.48, 181162.42, 187500.00, 0.00, 0.00, 0.00, 0.00, 0.00, 0.00, 0.00
1828.0, 157963.89, 187500.00, 143219.41, 187500.00, 166959.28, 169225.25, 169676.80, 187500.00, 142649.59, 150766.48, 181162.42, 187500.00, 0.00, 0.00, 0.00, 0.00, 0.00, 0.00, 0.00
1832.0, 157963.89, 187500.00, 143219.41, 187500.00, 166959.28, 169225.25, 169676.80, 187500.00, 142619.50, 150723.80, 181125.36, 187500.00, 0.00, 0.00, 0.00, 0.00, 0.00, 0.00, 0.00
1836.0, 158086.55, 187500.00, 143264.84, 187500.00, 167003.91, 169273.95, 169711.50, 187500.00, 142619.50, 150723.80, 181125.36, 187500.00, 0.00, 0.00, 0.00, 0.00, 0.00, 0.00, 0.00
1840.0, 158086.55, 187500.00, 143264.84, 187500.00, 167003.91, 169273.95, 169711.50, 187500.00, 142605.73, 150716.72, 181136.34, 187500.00, 0.00, 0.00, 0.00, 0.00, 0.00, 0.00, 0.00
1844.0, 157956.06, 187500.00, 143238.94, 187500.00, 166983.17, 169241.03, 169696.42, 187500.00, 142605.73, 150716.72, 181136.34, 187500.00, 0.00, 0.00, 0.00, 0.00, 0.00, 0.00, 0.00
1848.0, 157956.06, 187500.00, 143238.94, 187500.00, 166983.17, 169241.03, 169696.42, 187500.00, 142732.58, 150835.17, 181212.84, 187500.00, 0.00, 0.00, 0.00, 0.00, 0.00, 0.00, 0.00
1852.0, 158258.55, 187500.00, 143461.73, 187500.00, 167212.92, 169482.45, 169922.89, 187500.00, 142732.58, 150835.17, 181212.84, 187500.00, 0.00, 0.00, 0.00, 0.00, 0.00, 0.00, 0.00
1856.0, 158258.55, 187500.00, 143461.73, 187500.00, 167212.92, 169482.45, 169922.89, 187500.00, 142922.81, 151028.05, 181412.81, 187500.00, 0.00, 0.00, 0.00, 0.00, 0.00, 0.00, 0.00
1860.0, 158364.25, 187500.00, 143554.83, 187500.00, 167307.16, 169566.70, 170019.23, 187500.00, 142922.81, 151028.05, 181412.81, 187500.00, 0.00, 0.00, 0.00, 0.00, 0.00, 0.00, 0.00
1864.0, 158364.25, 187500.00, 143554.83, 187500.00, 167307.16, 169566.70, 170019.23, 187500.00, 142990.70, 151084.06, 181482.80, 187500.00, 0.00, 0.00, 0.00, 0.00, 0.00, 0.00, 0.00
1868.0, 158702.86, 187500.00, 143830.47, 187500.00, 167579.81, 169854.16, 170291.36, 187500.00, 142990.70, 151084.06, 181482.80, 187500.00, 0.00, 0.00, 0.00, 0.00, 0.00, 0.00, 0.00
1872.0, 158702.86, 187500.00, 143830.47, 187500.00, 167579.81, 169854.16, 170291.36, 187500.00, 143579.28, 151672.89, 182060.63, 187500.00, 0.00, 0.00, 0.00, 0.00, 0.00, 0.00, 0.00
1876.0, 159471.27, 187500.00, 144613.75, 187500.00, 168360.00, 170622.58, 171074.30, 187500.00, 143579.28, 151672.89, 182060.63, 187500.00, 0.00, 0.00, 0.00, 0.00, 0.00, 0.00, 0.00
1880.0, 159471.27, 187500.00, 144613.75, 187500.00, 168360.00, 170622.58, 171074.30, 187500.00, 144136.83, 152226.70, 182625.61, 187500.00, 0.00, 0.00, 0.00, 0.00, 0.00, 0.00, 0.00
1884.0, 159752.52, 187500.00, 144871.53, 187500.00, 168612.09, 170882.75, 171319.77, 187500.00, 144136.83, 152226.70, 182625.61, 187500.00, 0.00, 0.00, 0.00, 0.00, 0.00, 0.00, 0.00
1888.0, 159752.52, 187500.00, 144871.53, 187500.00, 168612.09, 170882.75, 171319.77, 187500.00, 144241.08, 152328.36, 182734.72, 187500.00, 0.00, 0.00, 0.00, 0.00, 0.00, 0.00, 0.00
1892.0, 159783.39, 187500.00, 144929.94, 187500.00, 168672.81, 170934.20, 171378.00, 187500.00, 144241.08, 152328.36, 182734.72, 187500.00, 0.00, 0.00, 0.00, 0.00, 0.00, 0.00, 0.00
1896.0, 159783.39, 187500.00, 144929.94, 187500.00, 168672.81, 170934.20, 171378.00, 187500.00, 144277.28, 152364.89, 182774.36, 187500.00, 0.00, 0.00, 0.00, 0.00, 0.00, 0.00, 0.00
1900.0, 159846.69, 187500.00, 144966.53, 187500.00, 168707.66, 170973.52, 171410.61, 187500.00, 144277.28, 152364.89, 182774.36, 187500.00, 0.00, 0.00, 0.00, 0.00, 0.00, 0.00, 0.00
1904.0, 159846.69, 187500.00, 144966.53, 187500.00, 168707.66, 170973.52, 171410.61, 187500.00, 144304.64, 152391.42, 182800.22, 187500.00, 0.00, 0.00, 0.00, 0.00, 0.00, 0.00, 0.00
1908.0, 159837.97, 187500.00, 144983.38, 187500.00, 168725.67, 170974.17, 171433.98, 187500.00, 144304.64, 152391.42, 182800.22, 187500.00, 0.00, 0.00, 0.00, 0.00, 0.00, 0.00, 0.00
1912.0, 159837.97, 187500.00, 144983.38, 187500.00, 168725.67, 170974.17, 171433.98, 187500.00, 144317.36, 152406.30, 182806.31, 187500.00, 0.00, 0.00, 0.00, 0.00, 0.00, 0.00, 0.00
1916.0, 159866.22, 187500.00, 144984.11, 187500.00, 168732.55, 170995.83, 171438.25, 187500.00, 144317.36, 152406.30, 182806.31, 187500.00, 0.00, 0.00, 0.00, 0.00, 0.00, 0.00, 0.00
1920.0, 159866.22, 187500.00, 144984.11, 187500.00, 168732.55, 170995.83, 171438.25, 187500.00, 144331.89, 152414.22, 182813.23, 187500.00, 0.00, 0.00, 0.00, 0.00, 0.00, 0.00, 0.00
1924.0, 159850.42, 187500.00, 144990.16, 187500.00, 168739.58, 170991.95, 171447.78, 187500.00, 144331.89, 152414.22, 182813.23, 187500.00, 0.00, 0.00, 0.00, 0.00, 0.00, 0.00, 0.00
1928.0, 159850.42, 187500.00, 144990.16, 187500.00, 168739.58, 170991.95, 171447.78, 187500.00, 144335.63, 152420.73, 182816.50, 187500.00, 0.00, 0.00, 0.00, 0.00, 0.00, 0.00, 0.00
1932.0, 159883.31, 187500.00, 144997.84, 187500.00, 168744.27, 171008.56, 171449.45, 187500.00, 144335.63, 152420.73, 182816.50, 187500.00, 0.00, 0.00, 0.00, 0.00, 0.00, 0.00, 0.00
1936.0, 159883.31, 187500.00, 144997.84, 187500.00, 168744.27, 171008.56, 171449.45, 187500.00, 144350.72, 152430.08, 182820.39, 187500.00, 0.00, 0.00, 0.00, 0.00, 0.00, 0.00, 0.00
1940.0, 159852.19, 187500.00, 144990.23, 187500.00, 168748.02, 170997.56, 171452.41, 187500.00, 144350.72, 152430.08, 182820.39, 187500.00, 0.00, 0.00, 0.00, 0.00, 0.00, 0.00, 0.00
1944.0, 159852.19, 187500.00, 144990.23, 187500.00, 168748.02, 170997.56, 171452.41, 187500.00, 144340.88, 152429.33, 182815.97, 187500.00, 0.00, 0.00, 0.00, 0.00, 0.00, 0.00, 0.00
1948.0, 159877.47, 187500.00, 144995.69, 187500.00, 168759.63, 171014.75, 171459.63, 187500.00, 144340.88, 152429.33, 182815.97, 187500.00, 0.00, 0.00, 0.00, 0.00, 0.00, 0.00, 0.00
1952.0, 159877.47, 187500.00, 144995.69, 187500.00, 168759.63, 171014.75, 171459.63, 187500.00, 144378.89, 152458.52, 182826.53, 187500.00, 0.00, 0.00, 0.00, 0.00, 0.00, 0.00, 0.00
1956.0, 159856.09, 187500.00, 144997.48, 187500.00, 168761.78, 171016.50, 171465.56, 187500.00, 144378.89, 152458.52, 182826.53, 187500.00, 0.00, 0.00, 0.00, 0.00, 0.00, 0.00, 0.00
1960.0, 159856.09, 187500.00, 144997.48, 187500.00, 168761.78, 171016.50, 171465.56, 187500.00, 144364.41, 152457.25, 182822.80, 187500.00, 0.00, 0.00, 0.00, 0.00, 0.00, 0.00, 0.00
1964.0, 159881.36, 187500.00, 145000.50, 187500.00, 168767.48, 171026.53, 171467.95, 187500.00, 144364.41, 152457.25, 182822.80, 187500.00, 0.00, 0.00, 0.00, 0.00, 0.00, 0.00, 0.00
1968.0, 159881.36, 187500.00, 145000.50, 187500.00, 168767.48, 171026.53, 171467.95, 187500.00, 144389.05, 152465.11, 182834.14, 187500.00, 0.00, 0.00, 0.00, 0.00, 0.00, 0.00, 0.00
1972.0, 159870.75, 187500.00, 145004.14, 187500.00, 168773.50, 171026.73, 171471.56, 187500.00, 144389.05, 152465.11, 182834.14, 187500.00, 0.00, 0.00, 0.00, 0.00, 0.00, 0.00, 0.00
1976.0, 159870.75, 187500.00, 145004.14, 187500.00, 168773.50, 171026.73, 171471.56, 187500.00, 144363.59, 152450.77, 182836.53, 187500.00, 0.00, 0.00, 0.00, 0.00, 0.00, 0.00, 0.00
1980.0, 159883.77, 187500.00, 145008.80, 187500.00, 168779.94, 171033.59, 171476.28, 187500.00, 144363.59, 152450.77, 182836.53, 187500.00, 0.00, 0.00, 0.00, 0.00, 0.00, 0.00, 0.00
1984.0, 159883.77, 187500.00, 145008.80, 187500.00, 168779.94, 171033.59, 171476.28, 187500.00, 144394.98, 152469.98, 182850.92, 187500.00, 0.00, 0.00, 0.00, 0.00, 0.00, 0.00, 0.00
1988.0, 159877.00, 187500.00, 145005.73, 187500.00, 168776.19, 171033.98, 171475.20, 187500.00, 144394.98, 152469.98, 182850.92, 187500.00, 0.00, 0.00, 0.00, 0.00, 0.00, 0.00, 0.00
1992.0, 159877.00, 187500.00, 145005.73, 187500.00, 168776.19, 171033.98, 171475.20, 187500.00, 144382.08, 152467.69, 182841.53, 187500.00, 0.00, 0.00, 0.00, 0.00, 0.00, 0.00, 0.00
1996.0, 159837.77, 187500.00, 144967.63, 187500.00, 168749.31, 171000.86, 171445.77, 187500.00, 144382.08, 152467.69, 182841.53, 187500.00, 0.00, 0.00, 0.00, 0.00, 0.00, 0.00, 0.00
2000.0, 159837.77, 187500.00, 144967.63, 187500.00, 168749.31, 171000.86, 171445.77, 187500.00, 144128.69, 152195.25, 182575.64, 187500.00, 0.00, 0.00, 0.00, 0.00, 0.00, 0.00, 0.00
2004.0, 159327.13, 187500.00, 144433.41, 187500.00, 168212.16, 170501.94, 170896.02, 187500.00, 144128.69, 152195.25, 182575.64, 187500.00, 0.00, 0.00, 0.00, 0.00, 0.00, 0.00, 0.00
2008.0, 159327.13, 187500.00, 144433.41, 187500.00, 168212.16, 170501.94, 170896.02, 187500.00, 143893.27, 151959.53, 182346.64, 187500.00, 0.00, 0.00, 0.00, 0.00, 0.00, 0.00, 0.00
2012.0, 159637.73, 187500.00, 144760.13, 187500.00, 168534.30, 170807.31, 171231.52, 187500.00, 143893.27, 151959.53, 182346.64, 187500.00, 0.00, 0.00, 0.00, 0.00, 0.00, 0.00, 0.00
2016.0, 159637.73, 187500.00, 144760.13, 187500.00, 168534.30, 170807.31, 171231.52, 187500.00, 144315.13, 152383.13, 182759.84, 187500.00, 0.00, 0.00, 0.00, 0.00, 0.00, 0.00, 0.00
2020.0, 159767.17, 187500.00, 144883.09, 187500.00, 168657.30, 170930.56, 171356.69, 187500.00, 144315.13, 152383.13, 182759.84, 187500.00, 0.00, 0.00, 0.00, 0.00, 0.00, 0.00, 0.00
2024.0, 159767.17, 187500.00, 144883.09, 187500.00, 168657.30, 170930.56, 171356.69, 187500.00, 144214.64, 152291.39, 182678.31, 187500.00, 0.00, 0.00, 0.00, 0.00, 0.00, 0.00, 0.00
2028.0, 159707.20, 187500.00, 144830.92, 187500.00, 168613.48, 170872.02, 171307.31, 187500.00, 144214.64, 152291.39, 182678.31, 187500.00, 0.00, 0.00, 0.00, 0.00, 0.00, 0.00, 0.00
2032.0, 159707.20, 187500.00, 144830.92, 187500.00, 168613.48, 170872.02, 171307.31, 187500.00, 144235.11, 152302.09, 182693.41, 187500.00, 0.00, 0.00, 0.00, 0.00, 0.00, 0.00, 0.00
2036.0, 159806.09, 187500.00, 144909.64, 187500.00, 168687.84, 170949.95, 171384.75, 187500.00, 144235.11, 152302.09, 182693.41, 187500.00, 0.00, 0.00, 0.00, 0.00, 0.00, 0.00, 0.00
2040.0, 159806.09, 187500.00, 144909.64, 187500.00, 168687.84, 170949.95, 171384.75, 187500.00, 144397.47, 152480.27, 182868.89, 187500.00, 0.00, 0.00, 0.00, 0.00, 0.00, 0.00, 0.00
2044.0, 160130.78, 187500.00, 145263.16, 187500.00, 169044.30, 171276.70, 171753.48, 187500.00, 144397.47, 152480.27, 182868.89, 187500.00, 0.00, 0.00, 0.00, 0.00, 0.00, 0.00, 0.00
2048.0, 160130.78, 187500.00, 145263.16, 187500.00, 169044.30, 171276.70, 171753.48, 187500.00, 144899.38, 152990.56, 183372.66, 187500.00, 0.00, 0.00, 0.00, 0.00, 0.00, 0.00, 0.00
2052.0, 160569.92, 187500.00, 145685.11, 187500.00, 169463.56, 171682.42, 172186.67, 187500.00, 144899.38, 152990.56, 183372.66, 187500.00, 0.00, 0.00, 0.00, 0.00, 0.00, 0.00, 0.00
2056.0, 160569.92, 187500.00, 145685.11, 187500.00, 169463.56, 171682.42, 172186.67, 187500.00, 144845.27, 152943.70, 183309.80, 187500.00, 0.00, 0.00, 0.00, 0.00, 0.00, 0.00, 0.00
2060.0, 160102.23, 187500.00, 145225.56, 187500.00, 169005.00, 171232.69, 171717.58, 187500.00, 144845.27, 152943.70, 183309.80, 187500.00, 0.00, 0.00, 0.00, 0.00, 0.00, 0.00, 0.00
2064.0, 160102.23, 187500.00, 145225.56, 187500.00, 169005.00, 171232.69, 171717.58, 187500.00, 144463.00, 152536.09, 182925.48, 187500.00, 0.00, 0.00, 0.00, 0.00, 0.00, 0.00, 0.00
2068.0, 159956.00, 187500.00, 145046.88, 187500.00, 168830.77, 171081.94, 171534.95, 187500.00, 144463.00, 152536.09, 182925.48, 187500.00, 0.00, 0.00, 0.00, 0.00, 0.00, 0.00, 0.00
2072.0, 159956.00, 187500.00, 145046.88, 187500.00, 168830.77, 171081.94, 171534.95, 187500.00, 144413.91, 152492.22, 182862.14, 187500.00, 0.00, 0.00, 0.00, 0.00, 0.00, 0.00, 0.00
2076.0, 159899.81, 187500.00, 145022.94, 187500.00, 168812.02, 171057.17, 171517.16, 187500.00, 144413.91, 152492.22, 182862.14, 187500.00, 0.00, 0.00, 0.00, 0.00, 0.00, 0.00, 0.00
2080.0, 159899.81, 187500.00, 145022.94, 187500.00, 168812.02, 171057.17, 171517.16, 187500.00, 144421.88, 152499.39, 182851.95, 187500.00, 0.00, 0.00, 0.00, 0.00, 0.00, 0.00, 0.00
2084.0, 159925.63, 187500.00, 145027.17, 187500.00, 168815.64, 171072.47, 171515.48, 187500.00, 144421.88, 152499.39, 182851.95, 187500.00, 0.00, 0.00, 0.00, 0.00, 0.00, 0.00, 0.00
2088.0, 159925.63, 187500.00, 145027.17, 187500.00, 168815.64, 171072.47, 171515.48, 187500.00, 144409.47, 152485.00, 182850.66, 187500.00, 0.00, 0.00, 0.00, 0.00, 0.00, 0.00, 0.00
2092.0, 159903.72, 187500.00, 145020.22, 187500.00, 168809.13, 171060.08, 171507.50, 187500.00, 144409.47, 152485.00, 182850.66, 187500.00, 0.00, 0.00, 0.00, 0.00, 0.00, 0.00, 0.00
2096.0, 159903.72, 187500.00, 145020.22, 187500.00, 168809.13, 171060.08, 171507.50, 187500.00, 144394.97, 152470.23, 182844.45, 187500.00, 0.00, 0.00, 0.00, 0.00, 0.00, 0.00, 0.00
2100.0, 159921.19, 187500.00, 145021.36, 187500.00, 168806.38, 171059.42, 171506.66, 187500.00, 144394.97, 152470.23, 182844.45, 187500.00, 0.00, 0.00, 0.00, 0.00, 0.00, 0.00, 0.00
2104.0, 159921.19, 187500.00, 145021.36, 187500.00, 168806.38, 171059.42, 171506.66, 187500.00, 144399.39, 152481.94, 182844.17, 187500.00, 0.00, 0.00, 0.00, 0.00, 0.00, 0.00, 0.00
2108.0, 159875.92, 187500.00, 145005.78, 187500.00, 168800.23, 171036.70, 171497.70, 187500.00, 144399.39, 152481.94, 182844.17, 187500.00, 0.00, 0.00, 0.00, 0.00, 0.00, 0.00, 0.00
2112.0, 159875.92, 187500.00, 145005.78, 187500.00, 168800.23, 171036.70, 171497.70, 187500.00, 144377.84, 152461.69, 182839.61, 187500.00, 0.00, 0.00, 0.00, 0.00, 0.00, 0.00, 0.00
2116.0, 159902.98, 187500.00, 145007.41, 187500.00, 168798.56, 171047.95, 171491.58, 187500.00, 144377.84, 152461.69, 182839.61, 187500.00, 0.00, 0.00, 0.00, 0.00, 0.00, 0.00, 0.00
2120.0, 159902.98, 187500.00, 145007.41, 187500.00, 168798.56, 171047.95, 171491.58, 187500.00, 144401.52, 152475.50, 182843.55, 187500.00, 0.00, 0.00, 0.00, 0.00, 0.00, 0.00, 0.00
2124.0, 159876.55, 187500.00, 145005.50, 187500.00, 168802.77, 171040.23, 171496.13, 187500.00, 144401.52, 152475.50, 182843.55, 187500.00, 0.00, 0.00, 0.00, 0.00, 0.00, 0.00, 0.00
2128.0, 159876.55, 187500.00, 145005.50, 187500.00, 168802.77, 171040.23, 171496.13, 187500.00, 144385.05, 152465.09, 182831.63, 187500.00, 0.00, 0.00, 0.00, 0.00, 0.00, 0.00, 0.00
2132.0, 159901.48, 187500.00, 145002.94, 187500.00, 168799.34, 171049.58, 171495.50, 187500.00, 144385.05, 152465.09, 182831.63, 187500.00, 0.00, 0.00, 0.00, 0.00, 0.00, 0.00, 0.00
2136.0, 159901.48, 187500.00, 145002.94, 187500.00, 168799.34, 171049.58, 171495.50, 187500.00, 144405.58, 152474.81, 182845.83, 187500.00, 0.00, 0.00, 0.00, 0.00, 0.00, 0.00, 0.00
2140.0, 159886.83, 187500.00, 145006.92, 187500.00, 168801.78, 171050.86, 171498.77, 187500.00, 144405.58, 152474.81, 182845.83, 187500.00, 0.00, 0.00, 0.00, 0.00, 0.00, 0.00, 0.00
2144.0, 159886.83, 187500.00, 145006.92, 187500.00, 168801.78, 171050.86, 171498.77, 187500.00, 144383.19, 152463.02, 182834.38, 187500.00, 0.00, 0.00, 0.00, 0.00, 0.00, 0.00, 0.00
2148.0, 159900.81, 187500.00, 145005.44, 187500.00, 168798.72, 171047.67, 171496.30, 187500.00, 144383.19, 152463.02, 182834.38, 187500.00, 0.00, 0.00, 0.00, 0.00, 0.00, 0.00, 0.00
2152.0, 159900.81, 187500.00, 145005.44, 187500.00, 168798.72, 171047.67, 171496.30, 187500.00, 144389.02, 152454.25, 182828.39, 187500.00, 0.00, 0.00, 0.00, 0.00, 0.00, 0.00, 0.00
2156.0, 159881.55, 187500.00, 144994.13, 187500.00, 168794.06, 171040.70, 171486.67, 187500.00, 144389.02, 152454.25, 182828.39, 187500.00, 0.00, 0.00, 0.00, 0.00, 0.00, 0.00, 0.00
2160.0, 159881.55, 187500.00, 144994.13, 187500.00, 168794.06, 171040.70, 171486.67, 187500.00, 144392.75, 152468.84, 182823.83, 187500.00, 0.00, 0.00, 0.00, 0.00, 0.00, 0.00, 0.00
2164.0, 159905.16, 187500.00, 145000.98, 187500.00, 168800.80, 171053.88, 171491.09, 187500.00, 144392.75, 152468.84, 182823.83, 187500.00, 0.00, 0.00, 0.00, 0.00, 0.00, 0.00, 0.00
2168.0, 159905.16, 187500.00, 145000.98, 187500.00, 168800.80, 171053.88, 171491.09, 187500.00, 144405.88, 152472.11, 182834.89, 187500.00, 0.00, 0.00, 0.00, 0.00, 0.00, 0.00, 0.00
2172.0, 159891.64, 187500.00, 144996.81, 187500.00, 168798.42, 171050.41, 171486.89, 187500.00, 144405.88, 152472.11, 182834.89, 187500.00, 0.00, 0.00, 0.00, 0.00, 0.00, 0.00, 0.00
2176.0, 159891.64, 187500.00, 144996.81, 187500.00, 168798.42, 171050.41, 171486.89, 187500.00, 144399.66, 152474.75, 182828.19, 187500.00, 0.00, 0.00, 0.00, 0.00, 0.00, 0.00, 0.00
2180.0, 159909.27, 187500.00, 145011.47, 187500.00, 168812.84, 171063.42, 171499.61, 187500.00, 144399.66, 152474.75, 182828.19, 187500.00, 0.00, 0.00, 0.00, 0.00, 0.00, 0.00, 0.00
2184.0, 159909.27, 187500.00, 145011.47, 187500.00, 168812.84, 171063.42, 171499.61, 187500.00, 144420.52, 152481.66, 182844.44, 187500.00, 0.00, 0.00, 0.00, 0.00, 0.00, 0.00, 0.00
2188.0, 159908.86, 187500.00, 145012.13, 187500.00, 168813.06, 171068.33, 171499.91, 187500.00, 144420.52, 152481.66, 182844.44, 187500.00, 0.00, 0.00, 0.00, 0.00, 0.00, 0.00, 0.00
2192.0, 159908.86, 187500.00, 145012.13, 187500.00, 168813.06, 171068.33, 171499.91, 187500.00, 144408.72, 152481.98, 182837.91, 187500.00, 0.00, 0.00, 0.00, 0.00, 0.00, 0.00, 0.00
2196.0, 159909.94, 187500.00, 145009.55, 187500.00, 168808.39, 171061.56, 171494.11, 187500.00, 144408.72, 152481.98, 182837.91, 187500.00, 0.00, 0.00, 0.00, 0.00, 0.00, 0.00, 0.00
2200.0, 159909.94, 187500.00, 145009.55, 187500.00, 168808.39, 171061.56, 171494.11, 187500.00, 144424.34, 152487.19, 182838.84, 187500.00, 0.00, 0.00, 0.00, 0.00, 0.00, 0.00, 0.00
2204.0, 159922.08, 187500.00, 145013.42, 187500.00, 168813.05, 171069.00, 171499.30, 187500.00, 144424.34, 152487.19, 182838.84, 187500.00, 0.00, 0.00, 0.00, 0.00, 0.00, 0.00, 0.00
2208.0, 159922.08, 187500.00, 145013.42, 187500.00, 168813.05, 171069.00, 171499.30, 187500.00, 144407.42, 152479.02, 182828.28, 187500.00, 0.00, 0.00, 0.00, 0.00, 0.00, 0.00, 0.00
2212.0, 159912.47, 187500.00, 145017.13, 187500.00, 168815.30, 171060.75, 171499.72, 187500.00, 144407.42, 152479.02, 182828.28, 187500.00, 0.00, 0.00, 0.00, 0.00, 0.00, 0.00, 0.00
2216.0, 159912.47, 187500.00, 145017.13, 187500.00, 168815.30, 171060.75, 171499.72, 187500.00, 144421.13, 152487.03, 182843.23, 187500.00, 0.00, 0.00, 0.00, 0.00, 0.00, 0.00, 0.00
2220.0, 159920.89, 187500.00, 145016.86, 187500.00, 168814.38, 171066.45, 171504.02, 187500.00, 144421.13, 152487.03, 182843.23, 187500.00, 0.00, 0.00, 0.00, 0.00, 0.00, 0.00, 0.00
2224.0, 159920.89, 187500.00, 145016.86, 187500.00, 168814.38, 171066.45, 171504.02, 187500.00, 144406.19, 152483.23, 182830.27, 187500.00, 0.00, 0.00, 0.00, 0.00, 0.00, 0.00, 0.00
2228.0, 159919.73, 187500.00, 145016.42, 187500.00, 168817.27, 171059.25, 171507.75, 187500.00, 144406.19, 152483.23, 182830.27, 187500.00, 0.00, 0.00, 0.00, 0.00, 0.00, 0.00, 0.00
2232.0, 159919.73, 187500.00, 145016.42, 187500.00, 168817.27, 171059.25, 171507.75, 187500.00, 144415.53, 152479.86, 182835.81, 187500.00, 0.00, 0.00, 0.00, 0.00, 0.00, 0.00, 0.00
2236.0, 159922.66, 187500.00, 145010.16, 187500.00, 168807.55, 171056.48, 171499.47, 187500.00, 144415.53, 152479.86, 182835.81, 187500.00, 0.00, 0.00, 0.00, 0.00, 0.00, 0.00, 0.00
2240.0, 159922.66, 187500.00, 145010.16, 187500.00, 168807.55, 171056.48, 171499.47, 187500.00, 144393.09, 152467.09, 182818.23, 187500.00, 0.00, 0.00, 0.00, 0.00, 0.00, 0.00, 0.00
2244.0, 159902.03, 187500.00, 145006.58, 187500.00, 168809.75, 171047.83, 171498.48, 187500.00, 144393.09, 152467.09, 182818.23, 187500.00, 0.00, 0.00, 0.00, 0.00, 0.00, 0.00, 0.00
2248.0, 159902.03, 187500.00, 145006.58, 187500.00, 168809.75, 171047.83, 171498.48, 187500.00, 144413.92, 152480.80, 182828.95, 187500.00, 0.00, 0.00, 0.00, 0.00, 0.00, 0.00, 0.00
2252.0, 159925.66, 187500.00, 145013.52, 187500.00, 168816.23, 171064.88, 171508.19, 187500.00, 144413.92, 152480.80, 182828.95, 187500.00, 0.00, 0.00, 0.00, 0.00, 0.00, 0.00, 0.00
2256.0, 159925.66, 187500.00, 145013.52, 187500.00, 168816.23, 171064.88, 171508.19, 187500.00, 144407.16, 152478.52, 182826.31, 187500.00, 0.00, 0.00, 0.00, 0.00, 0.00, 0.00, 0.00
2260.0, 159902.09, 187500.00, 145011.41, 187500.00, 168816.59, 171052.73, 171507.61, 187500.00, 144407.16, 152478.52, 182826.31, 187500.00, 0.00, 0.00, 0.00, 0.00, 0.00, 0.00, 0.00
2264.0, 159902.09, 187500.00, 145011.41, 187500.00, 168816.59, 171052.73, 171507.61, 187500.00, 144411.42, 152479.13, 182837.47, 187500.00, 0.00, 0.00, 0.00, 0.00, 0.00, 0.00, 0.00
2268.0, 159932.63, 187500.00, 145020.23, 187500.00, 168824.94, 171073.36, 171511.55, 187500.00, 144411.42, 152479.13, 182837.47, 187500.00, 0.00, 0.00, 0.00, 0.00, 0.00, 0.00, 0.00
2272.0, 159932.63, 187500.00, 145020.23, 187500.00, 168824.94, 171073.36, 171511.55, 187500.00, 144414.27, 152484.20, 182830.95, 187500.00, 0.00, 0.00, 0.00, 0.00, 0.00, 0.00, 0.00
2276.0, 159901.73, 187500.00, 145011.47, 187500.00, 168817.16, 171054.86, 171501.70, 187500.00, 144414.27, 152484.20, 182830.95, 187500.00, 0.00, 0.00, 0.00, 0.00, 0.00, 0.00, 0.00
2280.0, 159901.73, 187500.00, 145011.47, 187500.00, 168817.16, 171054.86, 171501.70, 187500.00, 144413.92, 152487.39, 182829.78, 187500.00, 0.00, 0.00, 0.00, 0.00, 0.00, 0.00, 0.00
2284.0, 159938.19, 187500.00, 145020.06, 187500.00, 168827.61, 171085.08, 171516.64, 187500.00, 144413.92, 152487.39, 182829.78, 187500.00, 0.00, 0.00, 0.00, 0.00, 0.00, 0.00, 0.00
2288.0, 159938.19, 187500.00, 145020.06, 187500.00, 168827.61, 171085.08, 171516.64, 187500.00, 144433.23, 152504.09, 182831.70, 187500.00, 0.00, 0.00, 0.00, 0.00, 0.00, 0.00, 0.00
2292.0, 159911.39, 187500.00, 145015.55, 187500.00, 168828.08, 171075.55, 171512.28, 187500.00, 144433.23, 152504.09, 182831.70, 187500.00, 0.00, 0.00, 0.00, 0.00, 0.00, 0.00, 0.00
2296.0, 159911.39, 187500.00, 145015.55, 187500.00, 168828.08, 171075.55, 171512.28, 187500.00, 144419.44, 152497.09, 182817.81, 187500.00, 0.00, 0.00, 0.00, 0.00, 0.00, 0.00, 0.00
2300.0, 159937.75, 187500.00, 145010.56, 187500.00, 168828.06, 171081.28, 171516.27, 187500.00, 144419.44, 152497.09, 182817.81, 187500.00, 0.00, 0.00, 0.00, 0.00, 0.00, 0.00, 0.00
2304.0, 159937.75, 187500.00, 145010.56, 187500.00, 168828.06, 171081.28, 171516.27, 187500.00, 144423.44, 152503.27, 182815.81, 187500.00, 0.00, 0.00, 0.00, 0.00, 0.00, 0.00, 0.00
2308.0, 159905.36, 187500.00, 145003.89, 187500.00, 168829.41, 171066.48, 171514.92, 187500.00, 144423.44, 152503.27, 182815.81, 187500.00, 0.00, 0.00, 0.00, 0.00, 0.00, 0.00, 0.00
2312.0, 159905.36, 187500.00, 145003.89, 187500.00, 168829.41, 171066.48, 171514.92, 187500.00, 144414.97, 152494.02, 182812.05, 187500.00, 0.00, 0.00, 0.00, 0.00, 0.00, 0.00, 0.00
2316.0, 159934.89, 187500.00, 145003.94, 187500.00, 168827.66, 171074.70, 171512.73, 187500.00, 144414.97, 152494.02, 182812.05, 187500.00, 0.00, 0.00, 0.00, 0.00, 0.00, 0.00, 0.00
2320.0, 159934.89, 187500.00, 145003.94, 187500.00, 168827.66, 171074.70, 171512.73, 187500.00, 144414.48, 152487.39, 182817.08, 187500.00, 0.00, 0.00, 0.00, 0.00, 0.00, 0.00, 0.00
2324.0, 159909.69, 187500.00, 145005.75, 187500.00, 168831.95, 171069.88, 171510.31, 187500.00, 144414.48, 152487.39, 182817.08, 187500.00, 0.00, 0.00, 0.00, 0.00, 0.00, 0.00, 0.00
2328.0, 159909.69, 187500.00, 145005.75, 187500.00, 168831.95, 171069.88, 171510.31, 187500.00, 144406.66, 152484.69, 182818.91, 187500.00, 0.00, 0.00, 0.00, 0.00, 0.00, 0.00, 0.00
2332.0, 159915.58, 187500.00, 145008.23, 187500.00, 168831.73, 171074.91, 171513.53, 187500.00, 144406.66, 152484.69, 182818.91, 187500.00, 0.00, 0.00, 0.00, 0.00, 0.00, 0.00, 0.00
2336.0, 159915.58, 187500.00, 145008.23, 187500.00, 168831.73, 171074.91, 171513.53, 187500.00, 144425.59, 152489.34, 182823.97, 187500.00, 0.00, 0.00, 0.00, 0.00, 0.00, 0.00, 0.00
2340.0, 159915.70, 187500.00, 145012.88, 187500.00, 168832.98, 171066.92, 171505.64, 187500.00, 144425.59, 152489.34, 182823.97, 187500.00, 0.00, 0.00, 0.00, 0.00, 0.00, 0.00, 0.00
2344.0, 159915.70, 187500.00, 145012.88, 187500.00, 168832.98, 171066.92, 171505.64, 187500.00, 144398.86, 152466.16, 182822.33, 187500.00, 0.00, 0.00, 0.00, 0.00, 0.00, 0.00, 0.00
2348.0, 159935.23, 187500.00, 145020.73, 187500.00, 168841.14, 171079.02, 171516.55, 187500.00, 144398.86, 152466.16, 182822.33, 187500.00, 0.00, 0.00, 0.00, 0.00, 0.00, 0.00, 0.00
2352.0, 159935.23, 187500.00, 145020.73, 187500.00, 168841.14, 171079.02, 171516.55, 187500.00, 144423.78, 152487.75, 182839.63, 187500.00, 0.00, 0.00, 0.00, 0.00, 0.00, 0.00, 0.00
2356.0, 159926.33, 187500.00, 145020.38, 187500.00, 168847.11, 171073.19, 171520.63, 187500.00, 144423.78, 152487.75, 182839.63, 187500.00, 0.00, 0.00, 0.00, 0.00, 0.00, 0.00, 0.00
2360.0, 159926.33, 187500.00, 145020.38, 187500.00, 168847.11, 171073.19, 171520.63, 187500.00, 144413.03, 152480.83, 182826.17, 187500.00, 0.00, 0.00, 0.00, 0.00, 0.00, 0.00, 0.00
2364.0, 159937.59, 187500.00, 145027.66, 187500.00, 168854.58, 171083.20, 171526.41, 187500.00, 144413.03, 152480.83, 182826.17, 187500.00, 0.00, 0.00, 0.00, 0.00, 0.00, 0.00, 0.00
2368.0, 159937.59, 187500.00, 145027.66, 187500.00, 168854.58, 171083.20, 171526.41, 187500.00, 144431.42, 152491.63, 182843.23, 187500.00, 0.00, 0.00, 0.00, 0.00, 0.00, 0.00, 0.00
2372.0, 159936.56, 187500.00, 145030.03, 187500.00, 168858.95, 171086.39, 171533.11, 187500.00, 144431.42, 152491.63, 182843.23, 187500.00, 0.00, 0.00, 0.00, 0.00, 0.00, 0.00, 0.00
2376.0, 159936.56, 187500.00, 145030.03, 187500.00, 168858.95, 171086.39, 171533.11, 187500.00, 144406.45, 152476.83, 182825.58, 187500.00, 0.00, 0.00, 0.00, 0.00, 0.00, 0.00, 0.00
2380.0, 159931.69, 187500.00, 145013.98, 187500.00, 168843.44, 171067.34, 171511.95, 187500.00, 144406.45, 152476.83, 182825.58, 187500.00, 0.00, 0.00, 0.00, 0.00, 0.00, 0.00, 0.00
2384.0, 159931.69, 187500.00, 145013.98, 187500.00, 168843.44, 171067.34, 171511.95, 187500.00, 144417.95, 152473.94, 182825.47, 187500.00, 0.00, 0.00, 0.00, 0.00, 0.00, 0.00, 0.00
2388.0, 159923.38, 187500.00, 145012.41, 187500.00, 168843.75, 171070.09, 171515.30, 187500.00, 144417.95, 152473.94, 182825.47, 187500.00, 0.00, 0.00, 0.00, 0.00, 0.00, 0.00, 0.00
2392.0, 159923.38, 187500.00, 145012.41, 187500.00, 168843.75, 171070.09, 171515.30, 187500.00, 144406.22, 152475.70, 182819.88, 187500.00, 0.00, 0.00, 0.00, 0.00, 0.00, 0.00, 0.00
2396.0, 159935.08, 187500.00, 145018.72, 187500.00, 168849.23, 171074.19, 171520.11, 187500.00, 144406.22, 152475.70, 182819.88, 187500.00, 0.00, 0.00, 0.00, 0.00, 0.00, 0.00, 0.00
2400.0, 159935.08, 187500.00, 145018.72, 187500.00, 168849.23, 171074.19, 171520.11, 187500.00, 144429.41, 152485.78, 182840.38, 187500.00, 0.00, 0.00, 0.00, 0.00, 0.00, 0.00, 0.00
2404.0, 159946.75, 187500.00, 145024.44, 187500.00, 168854.48, 171083.84, 171524.52, 187500.00, 144429.41, 152485.78, 182840.38, 187500.00, 0.00, 0.00, 0.00, 0.00, 0.00, 0.00, 0.00
2408.0, 159946.75, 187500.00, 145024.44, 187500.00, 168854.48, 171083.84, 171524.52, 187500.00, 144417.86, 152484.83, 182824.19, 187500.00, 0.00, 0.00, 0.00, 0.00, 0.00, 0.00, 0.00
2412.0, 159924.47, 187500.00, 145012.22, 187500.00, 168849.97, 171069.09, 171515.02, 187500.00, 144417.86, 152484.83, 182824.19, 187500.00, 0.00, 0.00, 0.00, 0.00, 0.00, 0.00, 0.00
2416.0, 159924.47, 187500.00, 145012.22, 187500.00, 168849.97, 171069.09, 171515.02, 187500.00, 144407.69, 152463.03, 182826.20, 187500.00, 0.00, 0.00, 0.00, 0.00, 0.00, 0.00, 0.00
2420.0, 159941.72, 187500.00, 145015.52, 187500.00, 168850.45, 171075.22, 171517.88, 187500.00, 144407.69, 152463.03, 182826.20, 187500.00, 0.00, 0.00, 0.00, 0.00, 0.00, 0.00, 0.00
2424.0, 159941.72, 187500.00, 145015.52, 187500.00, 168850.45, 171075.22, 171517.88, 187500.00, 144409.44, 152474.19, 182826.25, 187500.00, 0.00, 0.00, 0.00, 0.00, 0.00, 0.00, 0.00
2428.0, 159938.19, 187500.00, 145021.69, 187500.00, 168855.64, 171074.30, 171519.86, 187500.00, 144409.44, 152474.19, 182826.25, 187500.00, 0.00, 0.00, 0.00, 0.00, 0.00, 0.00, 0.00
2432.0, 159938.19, 187500.00, 145021.69, 187500.00, 168855.64, 171074.30, 171519.86, 187500.00, 144432.09, 152487.13, 182828.61, 187500.00, 0.00, 0.00, 0.00, 0.00, 0.00, 0.00, 0.00
2436.0, 159947.25, 187500.00, 145019.72, 187500.00, 168852.22, 171075.59, 171517.41, 187500.00, 144432.09, 152487.13, 182828.61, 187500.00, 0.00, 0.00, 0.00, 0.00, 0.00, 0.00, 0.00
2440.0, 159947.25, 187500.00, 145019.72, 187500.00, 168852.22, 171075.59, 171517.41, 187500.00, 144410.81, 152475.44, 182813.53, 187500.00, 0.00, 0.00, 0.00, 0.00, 0.00, 0.00, 0.00
2444.0, 159933.75, 187500.00, 145014.63, 187500.00, 168850.14, 171065.78, 171520.78, 187500.00, 144410.81, 152475.44, 182813.53, 187500.00, 0.00, 0.00, 0.00, 0.00, 0.00, 0.00, 0.00
2448.0, 159933.75, 187500.00, 145014.63, 187500.00, 168850.14, 171065.78, 171520.78, 187500.00, 144421.77, 152478.13, 182820.44, 187500.00, 0.00, 0.00, 0.00, 0.00, 0.00, 0.00, 0.00
2452.0, 159955.53, 187500.00, 145022.42, 187500.00, 168855.27, 171081.66, 171520.80, 187500.00, 144421.77, 152478.13, 182820.44, 187500.00, 0.00, 0.00, 0.00, 0.00, 0.00, 0.00, 0.00
2456.0, 159955.53, 187500.00, 145022.42, 187500.00, 168855.27, 171081.66, 171520.80, 187500.00, 144423.47, 152485.34, 182846.77, 187500.00, 0.00, 0.00, 0.00, 0.00, 0.00, 0.00, 0.00
2460.0, 159952.36, 187500.00, 145050.70, 187500.00, 168885.64, 171089.59, 171545.41, 187500.00, 144423.47, 152485.34, 182846.77, 187500.00, 0.00, 0.00, 0.00, 0.00, 0.00, 0.00, 0.00
2464.0, 159952.36, 187500.00, 145050.70, 187500.00, 168885.64, 171089.59, 171545.41, 187500.00, 144422.47, 152479.14, 182848.78, 187500.00, 0.00, 0.00, 0.00, 0.00, 0.00, 0.00, 0.00
2468.0, 159930.81, 187500.00, 145001.73, 187500.00, 168832.27, 171061.41, 171500.09, 187500.00, 144422.47, 152479.14, 182848.78, 187500.00, 0.00, 0.00, 0.00, 0.00, 0.00, 0.00, 0.00
2472.0, 159930.81, 187500.00, 145001.73, 187500.00, 168832.27, 171061.41, 171500.09, 187500.00, 144408.52, 152467.50, 182814.08, 187500.00, 0.00, 0.00, 0.00, 0.00, 0.00, 0.00, 0.00
2476.0, 159922.81, 187500.00, 145018.34, 187500.00, 168838.03, 171062.61, 171509.02, 187500.00, 144408.52, 152467.50, 182814.08, 187500.00, 0.00, 0.00, 0.00, 0.00, 0.00, 0.00, 0.00
2480.0, 159922.81, 187500.00, 145018.34, 187500.00, 168838.03, 171062.61, 171509.02, 187500.00, 144420.52, 152476.84, 182836.13, 187500.00, 0.00, 0.00, 0.00, 0.00, 0.00, 0.00, 0.00
2484.0, 159945.55, 187500.00, 145011.05, 187500.00, 168822.42, 171055.80, 171492.48, 187500.00, 144420.52, 152476.84, 182836.13, 187500.00, 0.00, 0.00, 0.00, 0.00, 0.00, 0.00, 0.00
2488.0, 159945.55, 187500.00, 145011.05, 187500.00, 168822.42, 171055.80, 171492.48, 187500.00, 144414.19, 152469.09, 182834.84, 187500.00, 0.00, 0.00, 0.00, 0.00, 0.00, 0.00, 0.00
2492.0, 159920.28, 187500.00, 145003.72, 187500.00, 168820.70, 171042.19, 171490.16, 187500.00, 144414.19, 152469.09, 182834.84, 187500.00, 0.00, 0.00, 0.00, 0.00, 0.00, 0.00, 0.00
2496.0, 159920.28, 187500.00, 145003.72, 187500.00, 168820.70, 171042.19, 171490.16, 187500.00, 144398.77, 152454.19, 182822.48, 187500.00, 0.00, 0.00, 0.00, 0.00, 0.00, 0.00, 0.00
2500.0, 159947.92, 187500.00, 145014.31, 187500.00, 168824.63, 171056.95, 171493.58, 187500.00, 144398.77, 152454.19, 182822.48, 187500.00, 0.00, 0.00, 0.00, 0.00, 0.00, 0.00, 0.00
2504.0, 159947.92, 187500.00, 145014.31, 187500.00, 168824.63, 171056.95, 171493.58, 187500.00, 144428.72, 152471.92, 182855.50, 187500.00, 0.00, 0.00, 0.00, 0.00, 0.00, 0.00, 0.00
2508.0, 159944.05, 187500.00, 145024.80, 187500.00, 168836.80, 171060.23, 171500.55, 187500.00, 144428.72, 152471.92, 182855.50, 187500.00, 0.00, 0.00, 0.00, 0.00, 0.00, 0.00, 0.00
2512.0, 159944.05, 187500.00, 145024.80, 187500.00, 168836.80, 171060.23, 171500.55, 187500.00, 144409.09, 152465.27, 182856.67, 187500.00, 0.00, 0.00, 0.00, 0.00, 0.00, 0.00, 0.00
2516.0, 159966.77, 187500.00, 145035.19, 187500.00, 168838.56, 171055.25, 171502.56, 187500.00, 144409.09, 152465.27, 182856.67, 187500.00, 0.00, 0.00, 0.00, 0.00, 0.00, 0.00, 0.00
2520.0, 159966.77, 187500.00, 145035.19, 187500.00, 168838.56, 171055.25, 171502.56, 187500.00, 144406.84, 152461.88, 182867.89, 187500.00, 0.00, 0.00, 0.00, 0.00, 0.00, 0.00, 0.00
2524.0, 159955.97, 187500.00, 145037.16, 187500.00, 168838.41, 171050.94, 171500.77, 187500.00, 144406.84, 152461.88, 182867.89, 187500.00, 0.00, 0.00, 0.00, 0.00, 0.00, 0.00, 0.00
2528.0, 159955.97, 187500.00, 145037.16, 187500.00, 168838.41, 171050.94, 171500.77, 187500.00, 144401.67, 152463.84, 182863.33, 187500.00, 0.00, 0.00, 0.00, 0.00, 0.00, 0.00, 0.00
2532.0, 159981.94, 187500.00, 145045.92, 187500.00, 168846.81, 171067.78, 171512.33, 187500.00, 144401.67, 152463.84, 182863.33, 187500.00, 0.00, 0.00, 0.00, 0.00, 0.00, 0.00, 0.00
2536.0, 159981.94, 187500.00, 145045.92, 187500.00, 168846.81, 171067.78, 171512.33, 187500.00, 144424.16, 152474.39, 182872.22, 187500.00, 0.00, 0.00, 0.00, 0.00, 0.00, 0.00, 0.00
2540.0, 159960.50, 187500.00, 145040.00, 187500.00, 168840.88, 171059.08, 171504.70, 187500.00, 144424.16, 152474.39, 182872.22, 187500.00, 0.00, 0.00, 0.00, 0.00, 0.00, 0.00, 0.00
2544.0, 159960.50, 187500.00, 145040.00, 187500.00, 168840.88, 171059.08, 171504.70, 187500.00, 144403.75, 152464.63, 182863.02, 187500.00, 0.00, 0.00, 0.00, 0.00, 0.00, 0.00, 0.00
2548.0, 159971.03, 187500.00, 145041.67, 187500.00, 168845.30, 171062.23, 171508.53, 187500.00, 144403.75, 152464.63, 182863.02, 187500.00, 0.00, 0.00, 0.00, 0.00, 0.00, 0.00, 0.00
2552.0, 159971.03, 187500.00, 145041.67, 187500.00, 168845.30, 171062.23, 171508.53, 187500.00, 144430.63, 152480.27, 182875.00, 187500.00, 0.00, 0.00, 0.00, 0.00, 0.00, 0.00, 0.00
2556.0, 159978.06, 187500.00, 145052.52, 187500.00, 168853.20, 171070.83, 171514.27, 187500.00, 144430.63, 152480.27, 182875.00, 187500.00, 0.00, 0.00, 0.00, 0.00, 0.00, 0.00, 0.00
2560.0, 159978.06, 187500.00, 145052.52, 187500.00, 168853.20, 171070.83, 171514.27, 187500.00, 144413.63, 152471.50, 182871.47, 187500.00, 0.00, 0.00, 0.00, 0.00, 0.00, 0.00, 0.00
2564.0, 159992.27, 187500.00, 145054.41, 187500.00, 168852.11, 171073.86, 171515.48, 187500.00, 144413.63, 152471.50, 182871.47, 187500.00, 0.00, 0.00, 0.00, 0.00, 0.00, 0.00, 0.00
2568.0, 159992.27, 187500.00, 145054.41, 187500.00, 168852.11, 171073.86, 171515.48, 187500.00, 144437.53, 152480.80, 182881.50, 187500.00, 0.00, 0.00, 0.00, 0.00, 0.00, 0.00, 0.00
2572.0, 159981.55, 187500.00, 145051.16, 187500.00, 168854.39, 171072.80, 171520.78, 187500.00, 144437.53, 152480.80, 182881.50, 187500.00, 0.00, 0.00, 0.00, 0.00, 0.00, 0.00, 0.00
2576.0, 159981.55, 187500.00, 145051.16, 187500.00, 168854.39, 171072.80, 171520.78, 187500.00, 144414.75, 152474.72, 182865.11, 187500.00, 0.00, 0.00, 0.00, 0.00, 0.00, 0.00, 0.00
2580.0, 159982.47, 187500.00, 145051.42, 187500.00, 168856.41, 171070.92, 171516.98, 187500.00, 144414.75, 152474.72, 182865.11, 187500.00, 0.00, 0.00, 0.00, 0.00, 0.00, 0.00, 0.00
2584.0, 159982.47, 187500.00, 145051.42, 187500.00, 168856.41, 171070.92, 171516.98, 187500.00, 144439.42, 152487.27, 182871.19, 187500.00, 0.00, 0.00, 0.00, 0.00, 0.00, 0.00, 0.00
2588.0, 159990.73, 187500.00, 145057.63, 187500.00, 168858.92, 171081.97, 171524.22, 187500.00, 144439.42, 152487.27, 182871.19, 187500.00, 0.00, 0.00, 0.00, 0.00, 0.00, 0.00, 0.00
2592.0, 159990.73, 187500.00, 145057.63, 187500.00, 168858.92, 171081.97, 171524.22, 187500.00, 144415.20, 152468.83, 182859.38, 187500.00, 0.00, 0.00, 0.00, 0.00, 0.00, 0.00, 0.00
2596.0, 159978.41, 187500.00, 145049.83, 187500.00, 168855.73, 171072.69, 171514.31, 187500.00, 144415.20, 152468.83, 182859.38, 187500.00, 0.00, 0.00, 0.00, 0.00, 0.00, 0.00, 0.00
2600.0, 159978.41, 187500.00, 145049.83, 187500.00, 168855.73, 171072.69, 171514.31, 187500.00, 144435.94, 152478.91, 182876.41, 187500.00, 0.00, 0.00, 0.00, 0.00, 0.00, 0.00, 0.00
2604.0, 159991.53, 187500.00, 145058.25, 187500.00, 168863.13, 171081.47, 171525.16, 187500.00, 144435.94, 152478.91, 182876.41, 187500.00, 0.00, 0.00, 0.00, 0.00, 0.00, 0.00, 0.00
2608.0, 159991.53, 187500.00, 145058.25, 187500.00, 168863.13, 171081.47, 171525.16, 187500.00, 144423.48, 152475.33, 182870.23, 187500.00, 0.00, 0.00, 0.00, 0.00, 0.00, 0.00, 0.00
2612.0, 159973.98, 187500.00, 145054.69, 187500.00, 168863.59, 171068.47, 171521.36, 187500.00, 144423.48, 152475.33, 182870.23, 187500.00, 0.00, 0.00, 0.00, 0.00, 0.00, 0.00, 0.00
2616.0, 159973.98, 187500.00, 145054.69, 187500.00, 168863.59, 171068.47, 171521.36, 187500.00, 144430.08, 152484.28, 182883.78, 187500.00, 0.00, 0.00, 0.00, 0.00, 0.00, 0.00, 0.00
2620.0, 159990.89, 187500.00, 145055.55, 187500.00, 168858.84, 171070.02, 171514.92, 187500.00, 144430.08, 152484.28, 182883.78, 187500.00, 0.00, 0.00, 0.00, 0.00, 0.00, 0.00, 0.00
2624.0, 159990.89, 187500.00, 145055.55, 187500.00, 168858.84, 171070.02, 171514.92, 187500.00, 144412.63, 152463.28, 182860.94, 187500.00, 0.00, 0.00, 0.00, 0.00, 0.00, 0.00, 0.00
2628.0, 159971.83, 187500.00, 145051.94, 187500.00, 168857.19, 171065.69, 171518.47, 187500.00, 144412.63, 152463.28, 182860.94, 187500.00, 0.00, 0.00, 0.00, 0.00, 0.00, 0.00, 0.00
2632.0, 159971.83, 187500.00, 145051.94, 187500.00, 168857.19, 171065.69, 171518.47, 187500.00, 144428.70, 152470.70, 182876.64, 187500.00, 0.00, 0.00, 0.00, 0.00, 0.00, 0.00, 0.00
2636.0, 159989.06, 187500.00, 145042.92, 187500.00, 168854.14, 171069.61, 171515.77, 187500.00, 144428.70, 152470.70, 182876.64, 187500.00, 0.00, 0.00, 0.00, 0.00, 0.00, 0.00, 0.00
2640.0, 159989.06, 187500.00, 145042.92, 187500.00, 168854.14, 171069.61, 171515.77, 187500.00, 144409.72, 152466.63, 182856.28, 187500.00, 0.00, 0.00, 0.00, 0.00, 0.00, 25120.00, 0.00
2644.0, 159967.11, 187500.00, 145039.50, 187500.00, 168853.28, 171057.06, 171512.66, 187500.00, 144409.72, 152466.63, 182856.28, 187500.00, 0.00, 0.00, 0.00, 0.00, 0.00, 0.00, 0.00
2648.0, 159967.11, 187500.00, 145039.50, 187500.00, 168853.28, 171057.06, 171512.66, 187500.00, 144434.89, 152475.59, 182870.17, 187500.00, 0.00, 0.00, 0.00, 0.00, 0.00, 0.00, 0.00
