%OpenBCI Raw EEG Data
%
%Sample Rate = 250.0 Hz
%First Column = Time (ms)
%Other Columns = EEG data in microvolts followed by Accel Data (in G) interleaved with Aux Data
0.0, -187500.02, -187500.02, -187500.02, -187500.02, -187500.02, -187500.02, -151431.30, -187500.02, 0.00, 0.00, 0.00
4.0, -187500.02, -187500.02, -187500.02, -187500.02, -187500.02, -187500.02, -151478.58, -187500.02, 0.00, 0.00, 0.00
8.0, -187500.02, -187500.02, -187500.02, -187500.02, -187500.02, -187500.02, -151595.09, -187500.02, 0.00, 0.00, 0.00
12.0, -187500.02, -187500.02, -187500.02, -187500.02, -187500.02, -187500.02, -151611.16, -187500.02, 0.00, 0.00, 0.00
16.0, -187500.02, -187500.02, -187500.02, -187500.02, -187500.02, -187500.02, -151530.67, -187500.02, 0.00, 0.00, 0.00
20.0, -187500.02, -187500.02, -187500.02, -187500.02, -187500.02, -187500.02, -151530.36, -187500.02, 0.00, 0.00, 0.00
24.0, -187500.02, -187500.02, -187500.02, -187500.02, -187500.02, -187500.02, -151615.14, -187500.02, 0.00, 0.00, 0.00
28.0, -187500.02, -187500.02, -187500.02, -187500.02, -187500.02, -187500.02, -151627.55, -187500.02, 0.00, 0.00, 0.00
32.0, -187500.02, -187500.02, -187500.02, -187500.02, -187500.02, -187500.02, -151536.39, -187500.02, 0.00, 0.00, 0.00
36.0, -187500.02, -187500.02, -187500.02, -187500.02, -187500.02, -187500.02, -151514.94, -187500.02, 0.00, 0.00, 0.00
40.0, -187500.02, -187500.02, -187500.02, -187500.02, -187500.02, -187500.02, -151614.02, -187500.02, 0.00, 0.00, 0.00
44.0, -187500.02, -187500.02, -187500.02, -187500.02, -187500.02, -187500.02, -151676.11, -187500.02, 0.00, 0.00, 0.00
48.0, -187500.02, -187500.02, -187500.02, -187500.02, -187482.64, -187500.02, -151619.33, -187500.02, 0.00, 0.00, 0.00
52.0, -187500.02, -187500.02, -187500.02, -187500.02, -187279.78, -187500.02, -151576.34, -187500.02, 0.00, 0.00, 0.00
56.0, -187500.02, -187500.02, -187500.02, -187500.02, -187499.44, -187500.02, -151652.20, -187500.02, 0.00, 0.00, 0.00
60.0, -187500.02, -187500.02, -187500.02, -187500.02, -187500.02, -187500.02, -151709.83, -187500.02, 0.00, 0.00, 0.00
64.0, -187500.02, -187500.02, -187500.02, -187500.02, -187500.02, -187500.02, -151637.78, -187500.02, 0.00, 0.00, 0.00
68.0, -187500.02, -187500.02, -187500.02, -187500.02, -187500.02, -187500.02, -151568.77, -187500.02, 0.00, 0.00, 0.00
72.0, -187500.02, -187500.02, -187500.02, -187500.02, -187500.02, -187500.02, -151621.69, -187500.02, 0.00, 0.00, 0.00
76.0, -187500.02, -187500.02, -187500.02, -187500.02, -187500.02, -187500.02, -151686.28, -187500.02, 0.00, 0.00, 0.00
80.0, -187500.02, -187500.02, -187500.02, -187500.02, -187500.02, -187500.02, -151632.48, -187500.02, 0.00, 0.00, 0.00
84.0, -187500.02, -187500.02, -187500.02, -187500.02, -187500.02, -187500.02, -151549.94, -187500.02, 0.00, 0.00, 0.00
88.0, -187500.02, -187500.02, -187500.02, -187500.02, -187500.02, -187500.02, -151588.66, -187500.02, 0.00, 0.00, 0.00
92.0, -187500.02, -187500.02, -187500.02, -187500.02, -187500.02, -187500.02, -151679.88, -187500.02, 0.00, 0.00, 0.00
96.0, -187500.02, -187500.02, -187500.02, -187500.02, -187500.02, -187500.02, -151669.67, -187500.02, 0.00, 0.00, 0.00
100.0, -187500.02, -187500.02, -187494.47, -187500.02, -187500.02, -187500.02, -151604.72, -187500.02, 0.00, 0.00, 0.00
104.0, -187500.02, -187500.02, -187474.22, -187500.02, -187500.02, -187500.02, -151652.17, -187500.02, 0.00, 0.00, 0.00
108.0, -187500.02, -187500.02, -187500.02, -187500.02, -187500.02, -187500.02, -151768.16, -187500.02, 0.00, 0.00, 0.00
112.0, -187500.02, -187500.02, -187500.02, -187500.02, -187500.02, -187500.02, -151785.38, -187500.02, 0.00, 0.00, 0.00
116.0, -187500.02, -187500.02, -187500.02, -187500.02, -187500.02, -187500.02, -151717.64, -187500.02, 0.00, 0.00, 0.00
120.0, -187500.02, -187500.02, -187500.02, -187500.02, -187500.02, -187500.02, -151738.02, -187500.02, 0.00, 0.00, 0.00
124.0, -187500.02, -187500.02, -187500.02, -187500.02, -187500.02, -187500.02, -151854.22, -187500.02, 0.00, 0.00, 0.00
128.0, -187500.02, -187500.02, -187500.02, -187500.02, -187500.02, -187500.02, -151899.03, -187500.02, 0.00, 0.00, 0.00
132.0, -187500.02, -187500.02, -187498.05, -187500.02, -187500.02, -187500.02, -151827.53, -187500.02, 0.00, 0.00, 0.00
136.0, -187500.02, -187500.02, -187489.84, -187500.02, -187500.02, -187500.02, -151800.86, -187500.02, 0.00, 0.00, 0.00
140.0, -187500.02, -187500.02, -187491.83, -187500.02, -187500.02, -187500.02, -151885.73, -187500.02, 0.00, 0.00, 0.00
144.0, -187500.02, -187500.02, -187482.27, -187500.02, -187500.02, -187500.02, -151924.72, -187500.02, 0.00, 0.00, 0.00
148.0, -187500.02, -187500.02, -187473.89, -187500.02, -187152.22, -187500.02, -151828.17, -187500.02, 0.00, 0.00, 0.00
152.0, -187500.02, -187500.02, -187469.48, -187500.02, -187147.69, -187500.02, -151751.48, -187500.02, 0.00, 0.00, 0.00
156.0, -187500.02, -187500.02, -187472.05, -187500.02, -187359.28, -187500.02, -151807.88, -187500.02, 0.00, 0.00, 0.00
160.0, -187500.02, -187500.02, -187464.52, -187500.02, -187500.02, -187500.02, -151865.75, -187500.02, 0.00, 0.00, 0.00
164.0, -187500.02, -187500.02, -187452.97, -187500.02, -187500.02, -187500.02, -151796.70, -187500.02, 0.00, 0.00, 0.00
168.0, -187500.02, -187500.02, -187435.64, -187500.02, -187500.02, -187500.02, -151725.22, -187500.02, 0.00, 0.00, 0.00
172.0, -187500.02, -187500.02, -187458.33, -187500.02, -187500.02, -187500.02, -151781.55, -187500.02, 0.00, 0.00, 0.00
176.0, -187500.02, -187500.02, -187462.78, -187500.02, -187500.02, -187500.02, -151872.44, -187500.02, 0.00, 0.00, 0.00
180.0, -187500.02, -187500.02, -187439.02, -187500.02, -187500.02, -187500.02, -151850.02, -187500.02, 0.00, 0.00, 0.00
184.0, -187500.02, -187500.02, -187406.30, -187500.02, -187500.02, -187500.02, -151792.17, -187500.02, 0.00, 0.00, 0.00
188.0, -187500.02, -187500.02, -187398.45, -187500.02, -187500.02, -187500.02, -151856.94, -187500.02, 0.00, 0.00, 0.00
192.0, -187500.02, -187500.02, -187425.42, -187500.02, -187500.02, -187500.02, -151963.36, -187500.02, 0.00, 0.00, 0.00
196.0, -187500.02, -187500.02, -187433.94, -187500.02, -187500.02, -187500.02, -151941.47, -187500.02, 0.00, 0.00, 0.00
200.0, -187500.02, -187500.02, -187411.30, -187500.02, -187500.02, -187500.02, -151849.88, -187500.02, 0.00, 0.00, 0.00
204.0, -187500.02, -187500.02, -187426.13, -187500.02, -187500.02, -187500.02, -151862.08, -187500.02, 0.00, 0.00, 0.00
208.0, -187500.02, -187500.02, -187434.25, -187500.02, -187500.02, -187500.02, -151954.91, -187500.02, 0.00, 0.00, 0.00
212.0, -187500.02, -187500.02, -187411.86, -187500.02, -187500.02, -187500.02, -151953.61, -187500.02, 0.00, 0.00, 0.00
216.0, -187500.02, -187500.02, -187375.88, -187500.02, -187500.02, -187500.02, -151866.84, -187500.02, 0.00, 0.00, 0.00
220.0, -187500.02, -187500.02, -187334.69, -187500.02, -187500.02, -187500.02, -151881.75, -187500.02, 0.00, 0.00, 0.00
224.0, -187500.02, -187500.02, -187361.09, -187500.02, -187500.02, -187500.02, -151994.41, -187500.02, 0.00, 0.00, 0.00
228.0, -187500.02, -187500.02, -187392.33, -187500.02, -187500.02, -187500.02, -152033.66, -187500.02, 0.00, 0.00, 0.00
232.0, -187500.02, -187500.02, -187376.33, -187500.02, -187500.02, -187500.02, -151968.95, -187500.02, 0.00, 0.00, 0.00
236.0, -187500.02, -187500.02, -187388.45, -187500.02, -187500.02, -187500.02, -151959.89, -187500.02, 0.00, 0.00, 0.00
240.0, -187500.02, -187500.02, -187422.09, -187500.02, -187500.02, -187500.02, -152066.48, -187500.02, 0.00, 0.00, 0.00
244.0, -187500.02, -187500.02, -187409.17, -187500.02, -187500.02, -187500.02, -152133.95, -187500.02, 0.00, 0.00, 0.00
248.0, -187500.02, -187500.02, -187363.98, -187500.02, -187195.66, -187500.02, -152075.98, -187500.02, 0.00, 0.00, 0.00
252.0, -187500.02, -187500.02, -187330.48, -187500.02, -187044.47, -187500.02, -152024.77, -187500.02, 0.00, 0.00, 0.00
256.0, -187500.02, -187500.02, -187325.52, -187500.02, -187264.39, -187500.02, -152093.88, -187500.02, 0.00, 0.00, 0.00
260.0, -187495.05, -187500.02, -187354.80, -187500.02, -187466.88, -187500.02, -152141.41, -187500.02, 0.00, 0.00, 0.00
264.0, -187417.94, -187500.02, -187347.70, -187500.02, -187500.02, -187500.02, -152049.39, -187500.02, 0.00, 0.00, 0.00
268.0, -187478.17, -187500.02, -187305.31, -187500.02, -187500.02, -187500.02, -151952.08, -187500.02, 0.00, 0.00, 0.00
272.0, -187500.02, -187500.02, -187331.69, -187500.02, -187500.02, -187500.02, -151977.58, -187500.02, 0.00, 0.00, 0.00
276.0, -187500.02, -187500.02, -187353.30, -187500.02, -187500.02, -187500.02, -152032.97, -187500.02, 0.00, 0.00, 0.00
280.0, -187500.02, -187500.02, -187329.97, -187500.02, -187500.02, -187500.02, -151981.67, -187500.02, 0.00, 0.00, 0.00
284.0, -187500.02, -187500.02, -187310.67, -187500.02, -187500.02, -187500.02, -151896.97, -187500.02, 0.00, 0.00, 0.00
288.0, -187500.02, -187500.02, -187337.92, -187500.02, -187500.02, -187500.02, -151941.61, -187500.02, 0.00, 0.00, 0.00
292.0, -187500.02, -187500.02, -187360.52, -187500.02, -187500.02, -187500.02, -152053.59, -187500.02, 0.00, 0.00, 0.00
296.0, -187500.02, -187500.02, -187319.38, -187500.02, -187500.02, -187500.02, -152059.22, -187500.02, 0.00, 0.00, 0.00
300.0, -187500.02, -187500.02, -187299.14, -187500.02, -187500.02, -187500.02, -151990.88, -187500.02, 0.00, 0.00, 0.00
304.0, -187500.02, -187500.02, -187292.69, -187500.02, -187500.02, -187500.02, -152027.13, -187500.02, 0.00, 0.00, 0.00
308.0, -187500.02, -187500.02, -187318.67, -187500.02, -187500.02, -187500.02, -152141.38, -187500.02, 0.00, 0.00, 0.00
312.0, -187500.02, -187500.02, -187297.31, -187500.02, -187500.02, -187500.02, -152166.14, -187500.02, 0.00, 0.00, 0.00
316.0, -187500.02, -187500.02, -187270.19, -187500.02, -187500.02, -187500.02, -152095.80, -187500.02, 0.00, 0.00, 0.00
320.0, -187500.02, -187500.02, -187237.78, -187500.02, -187500.02, -187500.02, -152108.27, -187500.02, 0.00, 0.00, 0.00
324.0, -187500.02, -187500.02, -187264.55, -187500.02, -187500.02, -187500.02, -152222.33, -187500.02, 0.00, 0.00, 0.00
328.0, -187500.02, -187500.02, -187280.70, -187500.02, -187500.02, -187500.02, -152267.44, -187500.02, 0.00, 0.00, 0.00
332.0, -187348.20, -187500.02, -187269.80, -187500.02, -187500.02, -187500.02, -152188.34, -187500.02, 0.00, 0.00, 0.00
336.0, -187391.94, -187500.02, -187275.52, -187500.02, -187500.02, -187500.02, -152150.27, -187500.02, 0.00, 0.00, 0.00
340.0, -187500.02, -187500.02, -187288.72, -187500.02, -187500.02, -187500.02, -152229.05, -187500.02, 0.00, 0.00, 0.00
344.0, -187500.02, -187500.02, -187272.13, -187500.02, -187465.06, -187500.02, -152273.41, -187500.02, 0.00, 0.00, 0.00
348.0, -187500.02, -187500.02, -187246.19, -187500.02, -187043.23, -187500.02, -152184.63, -187500.02, 0.00, 0.00, 0.00
352.0, -187500.02, -187500.02, -187232.83, -187495.83, -186902.58, -187500.02, -152102.03, -187500.02, 0.00, 0.00, 0.00
356.0, -187500.02, -187500.02, -187250.50, -187490.14, -187113.64, -187500.02, -152158.28, -187500.02, 0.00, 0.00, 0.00
360.0, -187500.02, -187500.02, -187244.11, -187500.02, -187335.59, -187500.02, -152223.16, -187500.02, 0.00, 0.00, 0.00
364.0, -187500.02, -187500.02, -187227.14, -187500.02, -187435.59, -187500.02, -152159.20, -187500.02, 0.00, 0.00, 0.00
368.0, -187500.02, -187500.02, -187205.22, -187485.53, -187500.02, -187500.02, -152081.36, -187500.02, 0.00, 0.00, 0.00
372.0, -187500.02, -187500.02, -187237.41, -187464.45, -187500.02, -187500.02, -152128.89, -187500.02, 0.00, 0.00, 0.00
376.0, -187500.02, -187500.02, -187246.19, -187489.59, -187500.02, -187500.02, -152220.22, -187500.02, 0.00, 0.00, 0.00
380.0, -187500.02, -187500.02, -187218.34, -187500.02, -187500.02, -187500.02, -152204.17, -187500.02, 0.00, 0.00, 0.00
384.0, -187500.02, -187500.02, -187188.33, -187466.56, -187500.02, -187500.02, -152141.41, -187500.02, 0.00, 0.00, 0.00
388.0, -187500.02, -187500.02, -187177.33, -187436.98, -187500.02, -187500.02, -152197.77, -187500.02, 0.00, 0.00, 0.00
392.0, -187402.03, -187500.02, -187200.30, -187480.70, -187500.02, -187500.02, -152304.36, -187500.02, 0.00, 0.00, 0.00
396.0, -187295.05, -187500.02, -187197.64, -187492.59, -187500.02, -187500.02, -152287.73, -187500.02, 0.00, 0.00, 0.00
400.0, -187354.95, -187500.02, -187181.58, -187462.06, -187500.02, -187500.02, -152193.33, -187500.02, 0.00, 0.00, 0.00
404.0, -187493.17, -187500.02, -187185.45, -187418.91, -187500.02, -187500.02, -152197.92, -187500.02, 0.00, 0.00, 0.00
408.0, -187500.02, -187500.02, -187192.95, -187439.55, -187500.02, -187500.02, -152288.59, -187500.02, 0.00, 0.00, 0.00
412.0, -187500.02, -187500.02, -187184.45, -187471.92, -187500.02, -187500.02, -152290.91, -187500.02, 0.00, 0.00, 0.00
416.0, -187500.02, -187500.02, -187155.84, -187451.58, -187500.02, -187500.02, -152205.58, -187500.02, 0.00, 0.00, 0.00
420.0, -187500.02, -187500.02, -187173.34, -187399.34, -187500.02, -187500.02, -152208.72, -187500.02, 0.00, 0.00, 0.00
424.0, -187500.02, -187500.02, -187208.80, -187428.48, -187500.02, -187500.02, -152320.89, -187500.02, 0.00, 0.00, 0.00
428.0, -187500.02, -187500.02, -187185.58, -187440.06, -187500.02, -187500.02, -152375.45, -187500.02, 0.00, 0.00, 0.00
432.0, -187500.02, -187500.02, -187146.55, -187430.03, -187449.09, -187500.02, -152316.42, -187500.02, 0.00, 0.00, 0.00
436.0, -187500.02, -187500.02, -187150.75, -187395.61, -187356.89, -187500.02, -152300.69, -187500.02, 0.00, 0.00, 0.00
440.0, -187500.02, -187500.02, -187173.09, -187411.69, -187379.05, -187500.02, -152404.52, -187500.02, 0.00, 0.00, 0.00
444.0, -187500.02, -187500.02, -187168.52, -187431.17, -187355.38, -187500.02, -152478.66, -187500.02, 0.00, 0.00, 0.00
448.0, -187500.02, -187500.02, -187139.28, -187422.77, -186983.00, -187500.02, -152422.17, -187500.02, 0.00, 0.00, 0.00
452.0, -187500.02, -187500.02, -187094.73, -187380.34, -186810.22, -187500.02, -152364.53, -187500.02, 0.00, 0.00, 0.00
456.0, -187291.61, -187500.02, -187087.09, -187361.88, -187017.89, -187500.02, -152420.72, -187500.02, 0.00, 0.00, 0.00
460.0, -187261.14, -187500.02, -187131.06, -187414.66, -187212.27, -187500.02, -152459.95, -187500.02, 0.00, 0.00, 0.00
464.0, -187316.95, -187500.02, -187119.66, -187411.84, -187285.86, -187500.02, -152374.23, -187500.02, 0.00, 0.00, 0.00
468.0, -187372.28, -187500.02, -187091.06, -187367.66, -187343.05, -187500.02, -152270.16, -187500.02, 0.00, 0.00, 0.00
472.0, -187500.02, -187500.02, -187118.45, -187350.55, -187500.02, -187500.02, -152285.92, -187500.02, 0.00, 0.00, 0.00
476.0, -187500.02, -187500.02, -187110.27, -187366.83, -187500.02, -187500.02, -152345.27, -187500.02, 0.00, 0.00, 0.00
480.0, -187500.02, -187500.02, -187091.83, -187389.58, -187500.02, -187500.02, -152299.73, -187500.02, 0.00, 0.00, 0.00
484.0, -187500.02, -187500.02, -187062.95, -187350.14, -187500.02, -187500.02, -152226.58, -187500.02, 0.00, 0.00, 0.00
488.0, -187500.02, -187500.02, -187101.39, -187319.77, -187500.02, -187500.02, -152273.58, -187500.02, 0.00, 0.00, 0.00
492.0, -187500.02, -187500.02, -187130.98, -187358.48, -187500.02, -187500.02, -152387.19, -187500.02, 0.00, 0.00, 0.00
496.0, -187500.02, -187500.02, -187086.94, -187350.28, -187500.02, -187500.02, -152402.38, -187500.02, 0.00, 0.00, 0.00
500.0, -187500.02, -187500.02, -187069.03, -187332.56, -187500.02, -187500.02, -152336.08, -187500.02, 0.00, 0.00, 0.00
504.0, -187500.02, -187500.02, -187072.53, -187296.17, -187500.02, -187500.02, -152362.36, -187500.02, 0.00, 0.00, 0.00
508.0, -187500.02, -187500.02, -187098.13, -187332.25, -187500.02, -187500.02, -152474.92, -187500.02, 0.00, 0.00, 0.00
512.0, -187500.02, -187500.02, -187073.97, -187345.30, -187500.02, -187500.02, -152507.48, -187500.02, 0.00, 0.00, 0.00
516.0, -187500.02, -187500.02, -187045.78, -187332.83, -187500.02, -187500.02, -152440.17, -187500.02, 0.00, 0.00, 0.00
520.0, -187444.38, -187500.02, -187014.33, -187282.44, -187500.02, -187500.02, -152445.78, -187500.02, 0.00, 0.00, 0.00
524.0, -187354.95, -187500.02, -187036.59, -187312.38, -187500.02, -187500.02, -152554.88, -187500.02, 0.00, 0.00, 0.00
528.0, -187149.23, -187500.02, -187040.05, -187340.78, -187500.02, -187500.02, -152594.77, -187500.02, 0.00, 0.00, 0.00
532.0, -187164.31, -187500.02, -187030.63, -187332.52, -187405.02, -187500.02, -152504.22, -187500.02, 0.00, 0.00, 0.00
536.0, -187266.39, -187500.02, -187029.91, -187282.22, -187285.06, -187500.02, -152455.81, -187500.02, 0.00, 0.00, 0.00
540.0, -187449.48, -187500.02, -187045.06, -187273.23, -187281.55, -187500.02, -152530.84, -187500.02, 0.00, 0.00, 0.00
544.0, -187500.02, -187500.02, -187036.08, -187306.31, -187218.09, -187500.02, -152580.36, -187500.02, 0.00, 0.00, 0.00
548.0, -187500.02, -187500.02, -187009.80, -187303.91, -186799.16, -187500.02, -152499.73, -187500.02, 0.00, 0.00, 0.00
552.0, -187500.02, -187500.02, -187006.09, -187267.52, -186681.06, -187500.02, -152426.06, -187500.02, 0.00, 0.00, 0.00
556.0, -187500.02, -187500.02, -187018.06, -187260.94, -186897.02, -187500.02, -152484.22, -187500.02, 0.00, 0.00, 0.00
560.0, -187500.02, -187500.02, -187016.06, -187280.88, -187124.95, -187500.02, -152554.30, -187500.02, 0.00, 0.00, 0.00
564.0, -187500.02, -187500.02, -187002.00, -187287.66, -187229.69, -187500.02, -152496.53, -187500.02, 0.00, 0.00, 0.00
568.0, -187500.02, -187500.02, -186960.58, -187250.92, -187313.13, -187500.02, -152416.34, -187500.02, 0.00, 0.00, 0.00
572.0, -187500.02, -187500.02, -186994.58, -187229.73, -187500.02, -187500.02, -152455.44, -187500.02, 0.00, 0.00, 0.00
576.0, -187500.02, -187500.02, -187010.52, -187253.66, -187500.02, -187500.02, -152547.66, -187500.02, 0.00, 0.00, 0.00
580.0, -187417.97, -187500.02, -186982.53, -187263.69, -187500.02, -187500.02, -152537.83, -187500.02, 0.00, 0.00, 0.00
584.0, -187110.36, -187500.02, -186948.73, -187233.77, -187500.02, -187500.02, -152466.91, -187500.02, 0.00, 0.00, 0.00
588.0, -187100.95, -187500.02, -186914.98, -187192.56, -187500.02, -187500.02, -152495.98, -187500.02, 0.00, 0.00, 0.00
592.0, -187288.92, -187500.02, -186947.72, -187226.91, -187500.02, -187500.02, -152585.50, -187500.02, 0.00, 0.00, 0.00
596.0, -187400.14, -187500.02, -186962.14, -187249.98, -187500.02, -187500.02, -152568.95, -187500.02, 0.00, 0.00, 0.00
600.0, -187467.31, -187500.02, -186944.06, -187214.50, -187500.02, -187500.02, -152473.00, -187500.02, 0.00, 0.00, 0.00
604.0, -187500.02, -187500.02, -186929.39, -187186.98, -187500.02, -187500.02, -152472.83, -187500.02, 0.00, 0.00, 0.00
608.0, -187500.02, -187500.02, -186949.09, -187210.63, -187500.02, -187500.02, -152578.67, -187500.02, 0.00, 0.00, 0.00
612.0, -187500.02, -187500.02, -186935.66, -187217.92, -187500.02, -187500.02, -152616.95, -187500.02, 0.00, 0.00, 0.00
616.0, -187500.02, -187500.02, -186927.28, -187209.67, -187438.34, -187500.02, -152550.05, -187500.02, 0.00, 0.00, 0.00
620.0, -187500.02, -187500.02, -186898.84, -187163.69, -187364.09, -187500.02, -152551.88, -187500.02, 0.00, 0.00, 0.00
624.0, -187500.02, -187500.02, -186923.66, -187192.19, -187394.72, -187500.02, -152662.14, -187500.02, 0.00, 0.00, 0.00
628.0, -187500.02, -187500.02, -186923.03, -187214.55, -187375.42, -187500.02, -152721.50, -187500.02, 0.00, 0.00, 0.00
632.0, -187500.02, -187500.02, -186908.44, -187211.52, -187241.98, -187500.02, -152658.91, -187500.02, 0.00, 0.00, 0.00
636.0, -187437.00, -187500.02, -186908.98, -187155.86, -187143.69, -187500.02, -152632.92, -187500.02, 0.00, 0.00, 0.00
640.0, -187418.95, -187500.02, -186935.88, -187167.47, -187161.45, -187500.02, -152728.03, -187500.02, 0.00, 0.00, 0.00
644.0, -187365.44, -187500.02, -186936.06, -187197.39, -187153.78, -187500.02, -152805.94, -187500.02, 0.00, 0.00, 0.00
648.0, -187067.75, -187500.02, -186899.72, -187192.59, -186812.56, -187500.02, -152748.42, -187500.02, 0.00, 0.00, 0.00
652.0, -186953.69, -187500.02, -186891.00, -187162.14, -186553.06, -187500.02, -152660.59, -187500.02, 0.00, 0.00, 0.00
656.0, -187102.17, -187500.02, -186884.63, -187143.34, -186728.83, -187500.02, -152692.61, -187500.02, 0.00, 0.00, 0.00
660.0, -187252.83, -187500.02, -186885.75, -187169.39, -186932.02, -187500.02, -152735.77, -187500.02, 0.00, 0.00, 0.00
664.0, -187313.98, -187500.02, -186885.14, -187172.63, -187012.08, -187500.02, -152652.95, -187500.02, 0.00, 0.00, 0.00
668.0, -187364.88, -187500.02, -186866.95, -187126.45, -187066.03, -187500.02, -152542.98, -187500.02, 0.00, 0.00, 0.00
672.0, -187500.02, -187500.02, -186856.23, -187116.59, -187236.88, -187500.02, -152555.97, -187500.02, 0.00, 0.00, 0.00
676.0, -187500.02, -187500.02, -186856.95, -187129.06, -187500.02, -187500.02, -152630.80, -187500.02, 0.00, 0.00, 0.00
680.0, -187500.02, -187500.02, -186857.83, -187158.23, -187500.02, -187500.02, -152611.36, -187500.02, 0.00, 0.00, 0.00
684.0, -187500.02, -187500.02, -186836.89, -187123.33, -187500.02, -187500.02, -152543.59, -187500.02, 0.00, 0.00, 0.00
688.0, -187500.02, -187500.02, -186860.94, -187090.39, -187500.02, -187500.02, -152586.22, -187500.02, 0.00, 0.00, 0.00
692.0, -187500.02, -187500.02, -186889.05, -187131.19, -187500.02, -187500.02, -152700.41, -187500.02, 0.00, 0.00, 0.00
696.0, -187500.02, -187500.02, -186854.45, -187125.89, -187500.02, -187500.02, -152719.16, -187500.02, 0.00, 0.00, 0.00
700.0, -187418.61, -187500.02, -186842.56, -187111.67, -187500.02, -187500.02, -152648.70, -187500.02, 0.00, 0.00, 0.00
704.0, -187349.00, -187500.02, -186836.30, -187073.95, -187500.02, -187500.02, -152665.97, -187500.02, 0.00, 0.00, 0.00
708.0, -187339.89, -187500.02, -186861.45, -187107.72, -187500.02, -187500.02, -152779.98, -187500.02, 0.00, 0.00, 0.00
712.0, -187236.52, -187500.02, -186840.66, -187114.94, -187500.02, -187500.02, -152820.39, -187500.02, 0.00, 0.00, 0.00
716.0, -186920.97, -187500.02, -186818.28, -187102.09, -187453.45, -187500.02, -152742.89, -187500.02, 0.00, 0.00, 0.00
720.0, -186925.53, -187500.02, -186781.16, -187060.78, -187354.33, -187500.02, -152714.83, -187500.02, 0.00, 0.00, 0.00
724.0, -187115.05, -187500.02, -186789.92, -187067.84, -187359.94, -187500.02, -152795.09, -187500.02, 0.00, 0.00, 0.00
728.0, -187260.61, -187500.02, -186822.73, -187103.52, -187315.91, -187500.02, -152826.38, -187500.02, 0.00, 0.00, 0.00
732.0, -187331.28, -187500.02, -186797.34, -187094.38, -187159.73, -187500.02, -152741.53, -187500.02, 0.00, 0.00, 0.00
736.0, -187500.02, -187500.02, -186772.06, -187043.89, -187035.81, -187500.02, -152689.14, -187500.02, 0.00, 0.00, 0.00
740.0, -187500.02, -187500.02, -186782.25, -187046.19, -187045.36, -187500.02, -152776.78, -187500.02, 0.00, 0.00, 0.00
744.0, -187500.02, -187500.02, -186793.23, -187078.59, -187043.66, -187500.02, -152857.45, -187500.02, 0.00, 0.00, 0.00
748.0, -187500.02, -187500.02, -186783.08, -187082.86, -186735.39, -187500.02, -152809.11, -187500.02, 0.00, 0.00, 0.00
752.0, -187500.02, -187500.02, -186772.88, -187045.98, -186456.38, -187500.02, -152744.75, -187500.02, 0.00, 0.00, 0.00
756.0, -187500.02, -187500.02, -186802.03, -187027.56, -186643.78, -187500.02, -152797.66, -187500.02, 0.00, 0.00, 0.00
760.0, -187473.55, -187500.02, -186798.53, -187050.44, -186877.50, -187500.02, -152869.92, -187500.02, 0.00, 0.00, 0.00
764.0, -187343.64, -187500.02, -186768.64, -187061.27, -186988.47, -187500.02, -152817.78, -187500.02, 0.00, 0.00, 0.00
768.0, -187192.72, -187500.02, -186749.83, -187027.03, -187060.33, -187500.02, -152729.78, -187500.02, 0.00, 0.00, 0.00
772.0, -187015.45, -187500.02, -186763.13, -186996.30, -187293.34, -187500.02, -152760.09, -187500.02, 0.00, 0.00, 0.00
776.0, -186875.78, -187500.02, -186763.77, -187021.42, -187500.02, -187500.02, -152837.45, -187500.02, 0.00, 0.00, 0.00
780.0, -186949.81, -187500.02, -186753.20, -187046.16, -187500.02, -187500.02, -152805.59, -187500.02, 0.00, 0.00, 0.00
784.0, -187018.81, -187500.02, -186730.47, -187016.70, -187500.02, -187500.02, -152712.86, -187500.02, 0.00, 0.00, 0.00
788.0, -187160.36, -187500.02, -186759.80, -186975.73, -187500.02, -187500.02, -152721.31, -187500.02, 0.00, 0.00, 0.00
792.0, -187409.67, -187500.02, -186770.52, -186992.66, -187500.02, -187500.02, -152810.31, -187500.02, 0.00, 0.00, 0.00
796.0, -187500.02, -187500.02, -186737.00, -187013.50, -187500.02, -187500.02, -152816.75, -187500.02, 0.00, 0.00, 0.00
800.0, -187500.02, -187500.02, -186717.91, -186995.33, -187434.38, -187500.02, -152741.36, -187500.02, 0.00, 0.00, 0.00
804.0, -187500.02, -187500.02, -186693.77, -186951.75, -187374.25, -187500.02, -152756.28, -187500.02, 0.00, 0.00, 0.00
808.0, -187500.02, -187500.02, -186719.69, -186987.77, -187407.23, -187500.02, -152868.77, -187500.02, 0.00, 0.00, 0.00
812.0, -187500.02, -187500.02, -186713.53, -187005.22, -187374.08, -187500.02, -152912.56, -187500.02, 0.00, 0.00, 0.00
816.0, -187374.53, -187500.02, -186694.75, -186991.94, -187237.22, -187500.02, -152846.97, -187500.02, 0.00, 0.00, 0.00
820.0, -187290.61, -187500.02, -186651.16, -186936.44, -187157.44, -187500.02, -152840.91, -187500.02, 0.00, 0.00, 0.00
824.0, -187277.44, -187500.02, -186673.69, -186963.31, -187184.05, -187500.02, -152945.25, -187500.02, 0.00, 0.00, 0.00
828.0, -187226.47, -187500.02, -186704.70, -186988.36, -187168.56, -187500.02, -153005.11, -187500.02, 0.00, 0.00, 0.00
832.0, -187003.66, -187500.02, -186693.44, -186983.06, -187034.98, -187500.02, -152943.97, -187500.02, 0.00, 0.00, 0.00
836.0, -186763.33, -187500.02, -186690.13, -186943.86, -186913.97, -187500.02, -152894.84, -187500.02, 0.00, 0.00, 0.00
840.0, -186902.70, -187500.02, -186693.70, -186936.80, -186904.81, -187500.02, -152962.75, -187500.02, 0.00, 0.00, 0.00
844.0, -187070.11, -187500.02, -186692.63, -186963.66, -186825.28, -187500.02, -153021.67, -187500.02, 0.00, 0.00, 0.00
848.0, -187140.98, -187500.02, -186676.78, -186964.09, -186407.55, -187500.02, -152944.08, -187500.02, 0.00, 0.00, 0.00
852.0, -187210.77, -187500.02, -186658.11, -186927.45, -186331.83, -187500.02, -152846.28, -187500.02, 0.00, 0.00, 0.00
856.0, -187500.02, -187500.02, -186665.53, -186913.03, -186519.64, -187500.02, -152876.27, -187500.02, 0.00, 0.00, 0.00
860.0, -187500.02, -187500.02, -186669.33, -186936.06, -186746.98, -187500.02, -152946.14, -187500.02, 0.00, 0.00, 0.00
864.0, -187500.02, -187500.02, -186655.81, -186954.95, -186858.59, -187500.02, -152894.91, -187500.02, 0.00, 0.00, 0.00
868.0, -187418.56, -187500.02, -186634.17, -186915.61, -186932.59, -187500.02, -152804.48, -187500.02, 0.00, 0.00, 0.00
872.0, -187353.08, -187500.02, -186642.83, -186881.75, -187165.67, -187500.02, -152833.00, -187500.02, 0.00, 0.00, 0.00
876.0, -187327.44, -187500.02, -186653.56, -186906.33, -187500.02, -187500.02, -152927.97, -187500.02, 0.00, 0.00, 0.00
880.0, -187236.52, -187500.02, -186630.16, -186916.50, -187500.02, -187500.02, -152927.88, -187500.02, 0.00, 0.00, 0.00
884.0, -187105.03, -187500.02, -186611.25, -186905.27, -187500.02, -187500.02, -152857.25, -187500.02, 0.00, 0.00, 0.00
888.0, -187044.89, -187500.02, -186646.38, -186876.30, -187500.02, -187500.02, -152886.17, -187500.02, 0.00, 0.00, 0.00
892.0, -186971.31, -187500.02, -186678.80, -186910.84, -187500.02, -187500.02, -152995.77, -187500.02, 0.00, 0.00, 0.00
896.0, -186727.55, -187500.02, -186639.27, -186907.30, -187500.02, -187500.02, -153007.16, -187500.02, 0.00, 0.00, 0.00
900.0, -186719.78, -187500.02, -186608.36, -186885.72, -187404.47, -187500.02, -152913.06, -187500.02, 0.00, 0.00, 0.00
904.0, -186846.03, -187500.02, -186572.91, -186845.95, -187317.02, -187500.02, -152899.25, -187500.02, 0.00, 0.00, 0.00
908.0, -187037.25, -187500.02, -186584.00, -186858.70, -187326.30, -187500.02, -152984.70, -187500.02, 0.00, 0.00, 0.00
912.0, -187173.44, -187500.02, -186611.09, -186894.78, -187269.84, -187500.02, -153002.30, -187500.02, 0.00, 0.00, 0.00
916.0, -187314.30, -187500.02, -186591.28, -186868.89, -187109.70, -187500.02, -152912.14, -187500.02, 0.00, 0.00, 0.00
920.0, -187500.02, -187500.02, -186587.22, -186827.20, -187011.50, -187500.02, -152886.31, -187500.02, 0.00, 0.00, 0.00
924.0, -187500.02, -187500.02, -186609.55, -186843.14, -187035.09, -187500.02, -152987.47, -187500.02, 0.00, 0.00, 0.00
928.0, -187500.02, -187500.02, -186601.45, -186864.16, -187024.91, -187500.02, -153056.22, -187500.02, 0.00, 0.00, 0.00
932.0, -187450.28, -187500.02, -186581.94, -186863.91, -186898.48, -187500.02, -153003.03, -187500.02, 0.00, 0.00, 0.00
936.0, -187345.20, -187500.02, -186564.47, -186824.69, -186791.53, -187500.02, -152968.14, -187500.02, 0.00, 0.00, 0.00
940.0, -187325.25, -187500.02, -186576.67, -186829.75, -186804.45, -187500.02, -153059.41, -187500.02, 0.00, 0.00, 0.00
944.0, -187296.95, -187500.02, -186582.95, -186857.66, -186811.09, -187500.02, -153147.73, -187500.02, 0.00, 0.00, 0.00
948.0, -187179.78, -187500.02, -186557.95, -186844.19, -186511.69, -187500.02, -153106.88, -187500.02, 0.00, 0.00, 0.00
952.0, -187046.08, -187500.02, -186536.50, -186813.44, -186228.17, -187500.02, -153035.70, -187500.02, 0.00, 0.00, 0.00
956.0, -186991.33, -187500.02, -186520.23, -186786.44, -186411.75, -187500.02, -153084.34, -187500.02, 0.00, 0.00, 0.00
960.0, -186820.41, -187500.02, -186546.95, -186833.73, -186638.98, -187500.02, -153153.52, -187500.02, 0.00, 0.00, 0.00
964.0, -186597.08, -187500.02, -186543.50, -186845.95, -186734.78, -187500.02, -153087.70, -187500.02, 0.00, 0.00, 0.00
968.0, -186622.52, -187500.02, -186526.02, -186795.91, -186782.06, -187500.02, -152971.84, -187500.02, 0.00, 0.00, 0.00
972.0, -186753.59, -187500.02, -186496.41, -186776.13, -186949.61, -187500.02, -152971.56, -187500.02, 0.00, 0.00, 0.00
976.0, -186922.53, -187500.02, -186512.98, -186797.23, -187373.69, -187500.02, -153034.41, -187500.02, 0.00, 0.00, 0.00
980.0, -187023.70, -187500.02, -186522.89, -186814.16, -187500.02, -187500.02, -153001.95, -187500.02, 0.00, 0.00, 0.00
984.0, -187117.20, -187500.02, -186503.38, -186778.28, -187471.41, -187500.02, -152904.23, -187500.02, 0.00, 0.00, 0.00
988.0, -187437.03, -187500.02, -186486.50, -186747.97, -187409.67, -187500.02, -152916.45, -187500.02, 0.00, 0.00, 0.00
992.0, -187500.02, -187500.02, -186508.20, -186777.14, -187439.67, -187500.02, -153025.94, -187500.02, 0.00, 0.00, 0.00
996.0, -187494.06, -187500.02, -186495.48, -186784.63, -187391.47, -187500.02, -153053.94, -187500.02, 0.00, 0.00, 0.00
1000.0, -187358.78, -187500.02, -186492.20, -186772.16, -187249.50, -187500.02, -152980.97, -187500.02, 0.00, 0.00, 0.00
1004.0, -187284.95, -187500.02, -186468.11, -186725.69, -187182.86, -187500.02, -152987.11, -187500.02, 0.00, 0.00, 0.00
1008.0, -187276.55, -187500.02, -186494.28, -186762.91, -187214.61, -187500.02, -153096.80, -187500.02, 0.00, 0.00, 0.00
1012.0, -187220.70, -187500.02, -186487.81, -186779.89, -187188.34, -187500.02, -153146.61, -187500.02, 0.00, 0.00, 0.00
1016.0, -187091.14, -187500.02, -186465.53, -186769.11, -187053.86, -187500.02, -153083.20, -187500.02, 0.00, 0.00, 0.00
1020.0, -186999.47, -187500.02, -186454.98, -186714.67, -186964.16, -187500.02, -153066.48, -187500.02, 0.00, 0.00, 0.00
1024.0, -186980.67, -187500.02, -186514.23, -186732.86, -186982.42, -187500.02, -153162.42, -187500.02, 0.00, 0.00, 0.00
1028.0, -186924.30, -187500.02, -186507.95, -186754.25, -186976.50, -187500.02, -153232.48, -187500.02, 0.00, 0.00, 0.00
1032.0, -186632.34, -187500.02, -186463.00, -186741.80, -186849.77, -187500.02, -153176.92, -187500.02, 0.00, 0.00, 0.00
1036.0, -186528.50, -187500.02, -186455.39, -186714.70, -186718.31, -187500.02, -153115.28, -187500.02, 0.00, 0.00, 0.00
1040.0, -186703.20, -187500.02, -186451.58, -186707.63, -186705.52, -187500.02, -153176.48, -187500.02, 0.00, 0.00, 0.00
1044.0, -186874.02, -187500.02, -186460.09, -186740.91, -186672.78, -187500.02, -153238.84, -187500.02, 0.00, 0.00, 0.00
1048.0, -186949.02, -187500.02, -186457.83, -186751.45, -186284.73, -187500.02, -153167.94, -187500.02, 0.00, 0.00, 0.00
1052.0, -187025.69, -187500.02, -186431.05, -186706.63, -186084.72, -187500.02, -153065.95, -187500.02, 0.00, 0.00, 0.00
1056.0, -187341.66, -187500.02, -186425.88, -186686.25, -186262.41, -187500.02, -153088.30, -187500.02, 0.00, 0.00, 0.00
1060.0, -187472.20, -187500.02, -186433.97, -186714.38, -186494.20, -187500.02, -153161.09, -187500.02, 0.00, 0.00, 0.00
1064.0, -187346.48, -187500.02, -186443.41, -186736.55, -186611.58, -187500.02, -153117.00, -187500.02, 0.00, 0.00, 0.00
1068.0, -187195.56, -187500.02, -186412.89, -186695.48, -186683.64, -187500.02, -153025.83, -187500.02, 0.00, 0.00, 0.00
1072.0, -187124.95, -187500.02, -186440.13, -186658.00, -186891.92, -187500.02, -153047.53, -187500.02, 0.00, 0.00, 0.00
1076.0, -187098.47, -187500.02, -186454.56, -186683.70, -187399.45, -187500.02, -153140.64, -187500.02, 0.00, 0.00, 0.00
1080.0, -187011.89, -187500.02, -186417.45, -186693.41, -187500.02, -187500.02, -153145.00, -187500.02, 0.00, 0.00, 0.00
1084.0, -186878.84, -187500.02, -186403.70, -186674.20, -187423.94, -187500.02, -153073.03, -187500.02, 0.00, 0.00, 0.00
1088.0, -186815.30, -187500.02, -186391.81, -186633.80, -187373.17, -187500.02, -153097.94, -187500.02, 0.00, 0.00, 0.00
1092.0, -186758.25, -187500.02, -186417.14, -186671.58, -187405.31, -187500.02, -153209.00, -187500.02, 0.00, 0.00, 0.00
1096.0, -186509.78, -187500.02, -186403.42, -186686.88, -187348.53, -187500.02, -153226.95, -187500.02, 0.00, 0.00, 0.00
1100.0, -186482.30, -187500.02, -186375.56, -186672.91, -187185.19, -187500.02, -153132.06, -187500.02, 0.00, 0.00, 0.00
1104.0, -186602.84, -187500.02, -186385.67, -186629.73, -187088.39, -187500.02, -153105.39, -187500.02, 0.00, 0.00, 0.00
1108.0, -186791.94, -187500.02, -186403.69, -186634.95, -187095.41, -187500.02, -153188.64, -187500.02, 0.00, 0.00, 0.00
1112.0, -186935.86, -187500.02, -186385.09, -186662.78, -187049.50, -187500.02, -153217.31, -187500.02, 0.00, 0.00, 0.00
1116.0, -187065.23, -187500.02, -186361.98, -186657.25, -186892.19, -187500.02, -153129.05, -187500.02, 0.00, 0.00, 0.00
1120.0, -187333.11, -187500.02, -186377.31, -186610.30, -186782.56, -187500.02, -153091.30, -187500.02, 0.00, 0.00, 0.00
1124.0, -187386.27, -187500.02, -186414.64, -186619.69, -186800.31, -187500.02, -153186.36, -187500.02, 0.00, 0.00, 0.00
1128.0, -187347.83, -187500.02, -186408.36, -186641.94, -186798.91, -187500.02, -153260.14, -187500.02, 0.00, 0.00, 0.00
1132.0, -187229.88, -187500.02, -186352.13, -186631.14, -186682.08, -187500.02, -153214.39, -187500.02, 0.00, 0.00, 0.00
1136.0, -187120.97, -187500.02, -186358.73, -186601.63, -186568.50, -187500.02, -153173.06, -187500.02, 0.00, 0.00, 0.00
1140.0, -187096.48, -187500.02, -186379.44, -186602.23, -186575.84, -187500.02, -153255.77, -187500.02, 0.00, 0.00, 0.00
1144.0, -187069.44, -187500.02, -186386.75, -186632.75, -186587.94, -187500.02, -153346.38, -187500.02, 0.00, 0.00, 0.00
1148.0, -186956.48, -187500.02, -186345.50, -186623.81, -186303.39, -187500.02, -153311.77, -187500.02, 0.00, 0.00, 0.00
1152.0, -186818.44, -187500.02, -186324.88, -186592.42, -185999.08, -187500.02, -153234.66, -187500.02, 0.00, 0.00, 0.00
1156.0, -186758.70, -187500.02, -186308.36, -186565.98, -186170.44, -187500.02, -153276.23, -187500.02, 0.00, 0.00, 0.00
1160.0, -186586.86, -187500.02, -186322.58, -186606.42, -186402.50, -187500.02, -153350.53, -187500.02, 0.00, 0.00, 0.00
1164.0, -186378.42, -187500.02, -186329.52, -186625.53, -186505.16, -187500.02, -153290.38, -187500.02, 0.00, 0.00, 0.00
1168.0, -186405.70, -187500.02, -186308.42, -186577.42, -186552.06, -187500.02, -153172.86, -187500.02, 0.00, 0.00, 0.00
1172.0, -186531.27, -187500.02, -186284.84, -186552.89, -186706.89, -187500.02, -153165.86, -187500.02, 0.00, 0.00, 0.00
1176.0, -186699.05, -187500.02, -186290.81, -186566.78, -187105.80, -187500.02, -153229.20, -187500.02, 0.00, 0.00, 0.00
1180.0, -186804.14, -187500.02, -186296.08, -186588.94, -187398.61, -187500.02, -153203.75, -187500.02, 0.00, 0.00, 0.00
1184.0, -186894.22, -187500.02, -186278.63, -186553.63, -187260.78, -187500.02, -153105.17, -187500.02, 0.00, 0.00, 0.00
1188.0, -187208.91, -187500.02, -186275.05, -186523.06, -187190.31, -187500.02, -153107.86, -187500.02, 0.00, 0.00, 0.00
1192.0, -187340.67, -187500.02, -186300.16, -186552.08, -187221.00, -187500.02, -153218.00, -187500.02, 0.00, 0.00, 0.00
1196.0, -187274.83, -187500.02, -186284.19, -186558.72, -187180.70, -187500.02, -153254.80, -187500.02, 0.00, 0.00, 0.00
1200.0, -187142.81, -187500.02, -186260.59, -186547.78, -187042.83, -187500.02, -153186.98, -187500.02, 0.00, 0.00, 0.00
1204.0, -187064.33, -187500.02, -186226.06, -186502.56, -186969.86, -187500.02, -153184.41, -187500.02, 0.00, 0.00, 0.00
1208.0, -187053.63, -187500.02, -186249.30, -186532.31, -186999.05, -187500.02, -153289.13, -187500.02, 0.00, 0.00, 0.00
1212.0, -186999.63, -187500.02, -186269.28, -186553.95, -186976.52, -187500.02, -153344.30, -187500.02, 0.00, 0.00, 0.00
1216.0, -186869.55, -187500.02, -186253.59, -186547.11, -186842.97, -187500.02, -153282.52, -187500.02, 0.00, 0.00, 0.00
1220.0, -186772.13, -187500.02, -186252.08, -186496.56, -186744.97, -187500.02, -153256.63, -187500.02, 0.00, 0.00, 0.00
1224.0, -186755.30, -187500.02, -186280.19, -186508.22, -186763.81, -187500.02, -153352.98, -187500.02, 0.00, 0.00, 0.00
1228.0, -186706.22, -187500.02, -186278.41, -186532.78, -186765.34, -187500.02, -153431.17, -187500.02, 0.00, 0.00, 0.00
1232.0, -186422.22, -187500.02, -186243.72, -186524.61, -186643.97, -187500.02, -153381.59, -187500.02, 0.00, 0.00, 0.00
1236.0, -186305.30, -187500.02, -186219.95, -186494.48, -186509.03, -187500.02, -153315.80, -187500.02, 0.00, 0.00, 0.00
1240.0, -186474.98, -187500.02, -186207.81, -186475.55, -186490.91, -187500.02, -153371.66, -187500.02, 0.00, 0.00, 0.00
1244.0, -186649.00, -187500.02, -186231.53, -186515.52, -186470.73, -187500.02, -153436.66, -187500.02, 0.00, 0.00, 0.00
1248.0, -186729.50, -187500.02, -186224.09, -186520.98, -186114.56, -187500.02, -153371.52, -187500.02, 0.00, 0.00, 0.00
1252.0, -186811.25, -187500.02, -186211.61, -186475.05, -185850.66, -187500.02, -153264.77, -187500.02, 0.00, 0.00, 0.00
1256.0, -187131.45, -187500.02, -186196.19, -186451.23, -186018.28, -187500.02, -153283.83, -187500.02, 0.00, 0.00, 0.00
1260.0, -187245.47, -187500.02, -186204.63, -186476.84, -186255.34, -187500.02, -153362.48, -187500.02, 0.00, 0.00, 0.00
1264.0, -187126.27, -187500.02, -186210.83, -186503.75, -186383.50, -187500.02, -153328.42, -187500.02, 0.00, 0.00, 0.00
1268.0, -186973.61, -187500.02, -186193.25, -186471.25, -186452.97, -187500.02, -153234.14, -187500.02, 0.00, 0.00, 0.00
1272.0, -186897.72, -187500.02, -186206.16, -186436.00, -186648.08, -187500.02, -153245.67, -187500.02, 0.00, 0.00, 0.00
1276.0, -186871.48, -187500.02, -186218.61, -186457.28, -187151.47, -187500.02, -153337.56, -187500.02, 0.00, 0.00, 0.00
1280.0, -186786.28, -187500.02, -186195.67, -186476.89, -187335.42, -187500.02, -153346.78, -187500.02, 0.00, 0.00, 0.00
1284.0, -186653.20, -187500.02, -186164.64, -186459.67, -187196.14, -187500.02, -153274.47, -187500.02, 0.00, 0.00, 0.00
1288.0, -186584.84, -187500.02, -186177.95, -186416.67, -187136.64, -187500.02, -153288.19, -187500.02, 0.00, 0.00, 0.00
1292.0, -186523.95, -187500.02, -186208.80, -186451.67, -187169.08, -187500.02, -153396.59, -187500.02, 0.00, 0.00, 0.00
1296.0, -186285.27, -187500.02, -186184.59, -186457.63, -187123.23, -187500.02, -153424.58, -187500.02, 0.00, 0.00, 0.00
1300.0, -186265.95, -187500.02, -186149.36, -186442.69, -186963.42, -187500.02, -153332.09, -187500.02, 0.00, 0.00, 0.00
1304.0, -186377.02, -187500.02, -186159.72, -186410.17, -186857.31, -187500.02, -153295.48, -187500.02, 0.00, 0.00, 0.00
1308.0, -186565.11, -187500.02, -186173.11, -186409.83, -186860.83, -187500.02, -153373.28, -187500.02, 0.00, 0.00, 0.00
1312.0, -186714.44, -187500.02, -186159.36, -186435.47, -186821.28, -187500.02, -153404.58, -187500.02, 0.00, 0.00, 0.00
1316.0, -186852.52, -187500.02, -186137.70, -186432.66, -186667.23, -187500.02, -153317.41, -187500.02, 0.00, 0.00, 0.00
1320.0, -187114.30, -187500.02, -186128.36, -186388.94, -186554.11, -187500.02, -153275.52, -187500.02, 0.00, 0.00, 0.00
1324.0, -187158.84, -187500.02, -186166.02, -186396.08, -186568.86, -187500.02, -153366.38, -187500.02, 0.00, 0.00, 0.00
1328.0, -187125.69, -187500.02, -186168.77, -186421.72, -186574.63, -187500.02, -153448.28, -187500.02, 0.00, 0.00, 0.00
1332.0, -187008.64, -187500.02, -186133.66, -186417.67, -186460.56, -187500.02, -153405.36, -187500.02, 0.00, 0.00, 0.00
1336.0, -186898.28, -187500.02, -186095.97, -186369.89, -186344.08, -187500.02, -153359.05, -187500.02, 0.00, 0.00, 0.00
1340.0, -186871.78, -187500.02, -186100.55, -186363.78, -186347.05, -187500.02, -153435.69, -187500.02, 0.00, 0.00, 0.00
1344.0, -186846.45, -187500.02, -186123.73, -186405.56, -186358.98, -187500.02, -153526.64, -187500.02, 0.00, 0.00, 0.00
1348.0, -186733.86, -187500.02, -186127.16, -186413.34, -186067.81, -187500.02, -153490.98, -187500.02, 0.00, 0.00, 0.00
1352.0, -186592.88, -187500.02, -186104.95, -186383.91, -185775.05, -187500.02, -153409.50, -187500.02, 0.00, 0.00, 0.00
1356.0, -186526.34, -187500.02, -186119.80, -186353.44, -185941.94, -187500.02, -153440.67, -187500.02, 0.00, 0.00, 0.00
1360.0, -186360.09, -187500.02, -186124.42, -186381.52, -186181.05, -187500.02, -153520.63, -187500.02, 0.00, 0.00, 0.00
1364.0, -186161.86, -187500.02, -186101.56, -186386.31, -186293.61, -187500.02, -153472.44, -187500.02, 0.00, 0.00, 0.00
1368.0, -186188.11, -187500.02, -186077.42, -186346.98, -186336.14, -187500.02, -153352.88, -187500.02, 0.00, 0.00, 0.00
1372.0, -186306.72, -187500.02, -186077.64, -186331.73, -186480.19, -187500.02, -153335.70, -187500.02, 0.00, 0.00, 0.00
1376.0, -186474.27, -187500.02, -186076.64, -186341.17, -186852.98, -187500.02, -153397.53, -187500.02, 0.00, 0.00, 0.00
1380.0, -186584.11, -187500.02, -186078.42, -186370.45, -187189.58, -187500.02, -153379.72, -187500.02, 0.00, 0.00, 0.00
1384.0, -186679.89, -187500.02, -186059.45, -186337.75, -187066.19, -187500.02, -153283.28, -187500.02, 0.00, 0.00, 0.00
1388.0, -186993.59, -187500.02, -186041.98, -186298.70, -186989.92, -187500.02, -153281.23, -187500.02, 0.00, 0.00, 0.00
1392.0, -187116.38, -187500.02, -186067.50, -186326.91, -187021.89, -187500.02, -153392.22, -187500.02, 0.00, 0.00, 0.00
1396.0, -187055.28, -187500.02, -186057.34, -186338.44, -186989.03, -187500.02, -153435.16, -187500.02, 0.00, 0.00, 0.00
1400.0, -186924.08, -187500.02, -186032.42, -186324.30, -186851.13, -187500.02, -153367.05, -187500.02, 0.00, 0.00, 0.00
1404.0, -186839.80, -187500.02, -185990.64, -186270.31, -186770.09, -187500.02, -153357.08, -187500.02, 0.00, 0.00, 0.00
1408.0, -186825.81, -187500.02, -186011.81, -186295.91, -186795.25, -187500.02, -153458.36, -187500.02, 0.00, 0.00, 0.00
1412.0, -186775.66, -187500.02, -186045.05, -186326.42, -186779.53, -187500.02, -153516.53, -187500.02, 0.00, 0.00, 0.00
1416.0, -186648.70, -187500.02, -186037.19, -186325.25, -186650.09, -187500.02, -153454.27, -187500.02, 0.00, 0.00, 0.00
1420.0, -186546.53, -187500.02, -186041.77, -186281.47, -186545.94, -187500.02, -153419.63, -187500.02, 0.00, 0.00, 0.00
1424.0, -186529.02, -187500.02, -186066.58, -186290.78, -186561.38, -187500.02, -153512.27, -187500.02, 0.00, 0.00, 0.00
1428.0, -186488.83, -187500.02, -186067.83, -186317.59, -186568.47, -187500.02, -153595.08, -187500.02, 0.00, 0.00, 0.00
1432.0, -186215.95, -187500.02, -186023.64, -186300.20, -186452.45, -187500.02, -153549.86, -187500.02, 0.00, 0.00, 0.00
1436.0, -186070.89, -187500.02, -186010.73, -186272.69, -186311.58, -187500.02, -153476.70, -187500.02, 0.00, 0.00, 0.00
1440.0, -186232.11, -187500.02, -185998.77, -186256.80, -186287.14, -187500.02, -153524.84, -187500.02, 0.00, 0.00, 0.00
1444.0, -186410.59, -187500.02, -186006.61, -186291.09, -186282.77, -187500.02, -153594.28, -187500.02, 0.00, 0.00, 0.00
1448.0, -186498.80, -187500.02, -186000.75, -186302.66, -185998.52, -187500.02, -153536.88, -187500.02, 0.00, 0.00, 0.00
1452.0, -186567.97, -187500.02, -185987.00, -186260.64, -185642.14, -187500.02, -153428.52, -187500.02, 0.00, 0.00, 0.00
1456.0, -186872.17, -187500.02, -185975.31, -186230.86, -185776.41, -187500.02, -153440.09, -187500.02, 0.00, 0.00, 0.00
1460.0, -187031.19, -187500.02, -185981.66, -186251.58, -186015.14, -187500.02, -153519.69, -187500.02, 0.00, 0.00, 0.00
1464.0, -186917.47, -187500.02, -185985.13, -186281.94, -186147.42, -187500.02, -153488.27, -187500.02, 0.00, 0.00, 0.00
1468.0, -186761.98, -187500.02, -185964.31, -186251.06, -186214.33, -187500.02, -153389.88, -187500.02, 0.00, 0.00, 0.00
1472.0, -186680.11, -187500.02, -185963.20, -186213.00, -186396.72, -187500.02, -153394.27, -187500.02, 0.00, 0.00, 0.00
1476.0, -186653.58, -187500.02, -185975.77, -186233.88, -186883.42, -187500.02, -153485.22, -187500.02, 0.00, 0.00, 0.00
1480.0, -186574.19, -187500.02, -185963.38, -186248.45, -187118.47, -187500.02, -153500.28, -187500.02, 0.00, 0.00, 0.00
1484.0, -186441.02, -187500.02, -185932.63, -186234.66, -186985.39, -187500.02, -153427.31, -187500.02, 0.00, 0.00, 0.00
1488.0, -186368.08, -187500.02, -185954.77, -186195.91, -186919.63, -187500.02, -153433.56, -187500.02, 0.00, 0.00, 0.00
1492.0, -186314.20, -187500.02, -186008.03, -186226.02, -186948.52, -187500.02, -153538.95, -187500.02, 0.00, 0.00, 0.00
1496.0, -186075.78, -187500.02, -185977.28, -186236.94, -186908.64, -187500.02, -153573.09, -187500.02, 0.00, 0.00, 0.00
1500.0, -186040.64, -187500.02, -185940.17, -186216.56, -186750.58, -187500.02, -153483.14, -187500.02, 0.00, 0.00, 0.00
1504.0, -186149.05, -187500.02, -185911.72, -186176.30, -186639.83, -187500.02, -153441.23, -187500.02, 0.00, 0.00, 0.00
1508.0, -186337.28, -187500.02, -185911.70, -186178.45, -186642.33, -187500.02, -153517.16, -187500.02, 0.00, 0.00, 0.00
1512.0, -186488.95, -187500.02, -185931.55, -186220.92, -186606.77, -187500.02, -153553.84, -187500.02, 0.00, 0.00, 0.00
1516.0, -186612.20, -187500.02, -185924.91, -186214.59, -186455.72, -187500.02, -153469.44, -187500.02, 0.00, 0.00, 0.00
1520.0, -186884.78, -187500.02, -185920.55, -186163.67, -186337.41, -187500.02, -153420.27, -187500.02, 0.00, 0.00, 0.00
1524.0, -186949.77, -187500.02, -185943.19, -186167.45, -186349.89, -187500.02, -153506.77, -187500.02, 0.00, 0.00, 0.00
1528.0, -186919.08, -187500.02, -185947.11, -186195.81, -186359.16, -187500.02, -153591.13, -187500.02, 0.00, 0.00, 0.00
1532.0, -186805.81, -187500.02, -185906.69, -186184.45, -186249.72, -187500.02, -153553.59, -187500.02, 0.00, 0.00, 0.00
1536.0, -186687.50, -187500.02, -185897.91, -186159.33, -186125.30, -187500.02, -153497.61, -187500.02, 0.00, 0.00, 0.00
1540.0, -186655.77, -187500.02, -185905.36, -186149.19, -186122.44, -187500.02, -153568.02, -187500.02, 0.00, 0.00, 0.00
1544.0, -186635.58, -187500.02, -185920.27, -186184.45, -186143.09, -187500.02, -153665.72, -187500.02, 0.00, 0.00, 0.00
1548.0, -186531.50, -187500.02, -185899.00, -186175.50, -185898.45, -187500.02, -153641.27, -187500.02, 0.00, 0.00, 0.00
1552.0, -186393.56, -187500.02, -185878.23, -186152.09, -185556.55, -187500.02, -153558.73, -187500.02, 0.00, 0.00, 0.00
1556.0, -186330.73, -187500.02, -185850.95, -186118.00, -185703.52, -187500.02, -153586.14, -187500.02, 0.00, 0.00, 0.00
1560.0, -186220.89, -187500.02, -185870.81, -186152.89, -185943.91, -187500.02, -153666.05, -187500.02, 0.00, 0.00, 0.00
1564.0, -185944.88, -187500.02, -185882.48, -186177.00, -186062.94, -187500.02, -153621.83, -187500.02, 0.00, 0.00, 0.00
1568.0, -185927.28, -187500.02, -185856.58, -186131.58, -186105.33, -187500.02, -153499.53, -187500.02, 0.00, 0.00, 0.00
1572.0, -186042.53, -187500.02, -185833.52, -186103.19, -186247.63, -187500.02, -153478.41, -187500.02, 0.00, 0.00, 0.00
1576.0, -186211.58, -187500.02, -185835.28, -186117.53, -186640.45, -187500.02, -153542.44, -187500.02, 0.00, 0.00, 0.00
1580.0, -186326.30, -187500.02, -185847.75, -186142.61, -186959.17, -187500.02, -153529.48, -187500.02, 0.00, 0.00, 0.00
1584.0, -186401.94, -187500.02, -185834.09, -186110.47, -186826.95, -187500.02, -153430.73, -187500.02, 0.00, 0.00, 0.00
1588.0, -186689.03, -187500.02, -185828.91, -186073.33, -186740.22, -187500.02, -153414.19, -187500.02, 0.00, 0.00, 0.00
1592.0, -186895.80, -187500.02, -185850.81, -186095.80, -186768.02, -187500.02, -153516.52, -187500.02, 0.00, 0.00, 0.00
1596.0, -186844.14, -187500.02, -185838.66, -186110.88, -186740.69, -187500.02, -153561.44, -187500.02, 0.00, 0.00, 0.00
1600.0, -186710.39, -187500.02, -185832.27, -186104.91, -186602.61, -187500.02, -153491.09, -187500.02, 0.00, 0.00, 0.00
1604.0, -186620.00, -187500.02, -185811.92, -186063.45, -186512.98, -187500.02, -153472.77, -187500.02, 0.00, 0.00, 0.00
1608.0, -186606.58, -187500.02, -185830.97, -186085.55, -186536.75, -187500.02, -153572.33, -187500.02, 0.00, 0.00, 0.00
1612.0, -186564.38, -187500.02, -185829.33, -186106.55, -186530.83, -187500.02, -153641.44, -187500.02, 0.00, 0.00, 0.00
1616.0, -186442.42, -187500.02, -185803.88, -186098.50, -186408.72, -187500.02, -153589.61, -187500.02, 0.00, 0.00, 0.00
1620.0, -186341.09, -187500.02, -185758.09, -186047.55, -186303.48, -187500.02, -153553.91, -187500.02, 0.00, 0.00, 0.00
1624.0, -186321.83, -187500.02, -185768.56, -186054.48, -186315.89, -187500.02, -153641.03, -187500.02, 0.00, 0.00, 0.00
1628.0, -186286.09, -187500.02, -185803.61, -186088.81, -186323.86, -187500.02, -153724.05, -187500.02, 0.00, 0.00, 0.00
1632.0, -186031.73, -187500.02, -185796.55, -186085.11, -186208.06, -187500.02, -153678.94, -187500.02, 0.00, 0.00, 0.00
1636.0, -185839.75, -187500.02, -185787.27, -186053.61, -186064.94, -187500.02, -153602.69, -187500.02, 0.00, 0.00, 0.00
1640.0, -185990.67, -187500.02, -185787.11, -186034.92, -186035.94, -187500.02, -153645.70, -187500.02, 0.00, 0.00, 0.00
1644.0, -186170.91, -187500.02, -185793.86, -186066.00, -186030.25, -187500.02, -153720.36, -187500.02, 0.00, 0.00, 0.00
1648.0, -186261.81, -187500.02, -185785.30, -186079.73, -185707.27, -187500.02, -153670.86, -187500.02, 0.00, 0.00, 0.00
1652.0, -186318.80, -187500.02, -185771.00, -186037.75, -185410.89, -187500.02, -153558.42, -187500.02, 0.00, 0.00, 0.00
1656.0, -186599.75, -187500.02, -185758.50, -186012.53, -185557.27, -187500.02, -153560.33, -187500.02, 0.00, 0.00, 0.00
1660.0, -186803.16, -187500.02, -185762.81, -186032.47, -185795.00, -187500.02, -153640.09, -187500.02, 0.00, 0.00, 0.00
1664.0, -186699.11, -187500.02, -185758.13, -186055.05, -185931.02, -187500.02, -153617.14, -187500.02, 0.00, 0.00, 0.00
1668.0, -186542.33, -187500.02, -185746.31, -186025.38, -185996.64, -187500.02, -153519.20, -187500.02, 0.00, 0.00, 0.00
1672.0, -186457.63, -187500.02, -185744.53, -185995.75, -186167.41, -187500.02, -153517.16, -187500.02, 0.00, 0.00, 0.00
1676.0, -186431.78, -187500.02, -185756.61, -186014.23, -186635.81, -187500.02, -153606.92, -187500.02, 0.00, 0.00, 0.00
1680.0, -186357.78, -187500.02, -185744.27, -186032.47, -186905.48, -187500.02, -153630.80, -187500.02, 0.00, 0.00, 0.00
1684.0, -186224.98, -187500.02, -185724.59, -186022.47, -186776.92, -187500.02, -153558.67, -187500.02, 0.00, 0.00, 0.00
1688.0, -186146.84, -187500.02, -185738.83, -185973.64, -186704.92, -187500.02, -153559.83, -187500.02, 0.00, 0.00, 0.00
1692.0, -186083.78, -187500.02, -185768.20, -186001.63, -186733.78, -187500.02, -153665.47, -187500.02, 0.00, 0.00, 0.00
1696.0, -185851.69, -187500.02, -185747.58, -186014.23, -186697.05, -187500.02, -153701.50, -187500.02, 0.00, 0.00, 0.00
1700.0, -185835.23, -187500.02, -185712.56, -185999.97, -186540.64, -187500.02, -153612.97, -187500.02, 0.00, 0.00, 0.00
1704.0, -185942.56, -187500.02, -185678.33, -185956.88, -186426.39, -187500.02, -153567.86, -187500.02, 0.00, 0.00, 0.00
1708.0, -186122.64, -187500.02, -185739.61, -185961.41, -186422.06, -187500.02, -153634.86, -187500.02, 0.00, 0.00, 0.00
1712.0, -186283.20, -187500.02, -185731.02, -185987.00, -186395.59, -187500.02, -153681.84, -187500.02, 0.00, 0.00, 0.00
1716.0, -186453.19, -187500.02, -185691.22, -185986.28, -186251.63, -187500.02, -153608.56, -187500.02, 0.00, 0.00, 0.00
1720.0, -186685.27, -187500.02, -185642.31, -185933.56, -186134.17, -187500.02, -153562.17, -187500.02, 0.00, 0.00, 0.00
1724.0, -186705.13, -187500.02, -185650.78, -185936.75, -186143.94, -187500.02, -153645.06, -187500.02, 0.00, 0.00, 0.00
1728.0, -186673.19, -187500.02, -185687.53, -185972.25, -186152.61, -187500.02, -153728.56, -187500.02, 0.00, 0.00, 0.00
1732.0, -186557.23, -187500.02, -185686.42, -185972.13, -186042.81, -187500.02, -153689.16, -187500.02, 0.00, 0.00, 0.00
1736.0, -186437.39, -187500.02, -185682.39, -185934.97, -185916.16, -187500.02, -153628.88, -187500.02, 0.00, 0.00, 0.00
1740.0, -186403.38, -187500.02, -185702.69, -185920.63, -185907.45, -187500.02, -153693.89, -187500.02, 0.00, 0.00, 0.00
1744.0, -186386.70, -187500.02, -185720.97, -185959.33, -185933.83, -187500.02, -153795.42, -187500.02, 0.00, 0.00, 0.00
1748.0, -186288.53, -187500.02, -185677.81, -185951.58, -185733.95, -187500.02, -153780.22, -187500.02, 0.00, 0.00, 0.00
1752.0, -186147.00, -187500.02, -185661.83, -185928.33, -185349.78, -187500.02, -153696.61, -187500.02, 0.00, 0.00, 0.00
1756.0, -186076.28, -187500.02, -185644.13, -185894.53, -185461.73, -187500.02, -153718.22, -187500.02, 0.00, 0.00, 0.00
1760.0, -185918.09, -187500.02, -185651.84, -185923.44, -185700.72, -187500.02, -153798.91, -187500.02, 0.00, 0.00, 0.00
1764.0, -185715.83, -187500.02, -185652.78, -185945.14, -185822.34, -187500.02, -153759.75, -187500.02, 0.00, 0.00, 0.00
1768.0, -185736.70, -187500.02, -185625.00, -185903.19, -185863.00, -187500.02, -153636.97, -187500.02, 0.00, 0.00, 0.00
1772.0, -185847.97, -187500.02, -185602.84, -185873.39, -185996.13, -187500.02, -153609.92, -187500.02, 0.00, 0.00, 0.00
1776.0, -186018.61, -187500.02, -185610.05, -185885.91, -186340.34, -187500.02, -153674.61, -187500.02, 0.00, 0.00, 0.00
1780.0, -186133.08, -187500.02, -185637.64, -185924.47, -186714.70, -187500.02, -153661.47, -187500.02, 0.00, 0.00, 0.00
1784.0, -186216.73, -187500.02, -185608.08, -185891.66, -186613.19, -187500.02, -153561.67, -187500.02, 0.00, 0.00, 0.00
1788.0, -186514.86, -187500.02, -185596.03, -185853.92, -186522.63, -187500.02, -153542.23, -187500.02, 0.00, 0.00, 0.00
1792.0, -186676.17, -187500.02, -185617.63, -185878.42, -186548.70, -187500.02, -153644.33, -187500.02, 0.00, 0.00, 0.00
1796.0, -186624.03, -187500.02, -185608.33, -185888.64, -186527.58, -187500.02, -153698.28, -187500.02, 0.00, 0.00, 0.00
1800.0, -186494.66, -187500.02, -185603.14, -185881.69, -186393.84, -187500.02, -153634.23, -187500.02, 0.00, 0.00, 0.00
1804.0, -186400.69, -187500.02, -185582.81, -185840.83, -186300.59, -187500.02, -153610.53, -187500.02, 0.00, 0.00, 0.00
1808.0, -186387.14, -187500.02, -185602.52, -185858.34, -186324.06, -187500.02, -153707.06, -187500.02, 0.00, 0.00, 0.00
1812.0, -186349.33, -187500.02, -185602.48, -185878.84, -186323.84, -187500.02, -153781.27, -187500.02, 0.00, 0.00, 0.00
1816.0, -186228.52, -187500.02, -185589.25, -185868.73, -186203.61, -187500.02, -153730.33, -187500.02, 0.00, 0.00, 0.00
1820.0, -186120.06, -187500.02, -185576.89, -185831.66, -186089.36, -187500.02, -153683.97, -187500.02, 0.00, 0.00, 0.00
1824.0, -186095.83, -187500.02, -185585.56, -185830.63, -186095.97, -187500.02, -153763.19, -187500.02, 0.00, 0.00, 0.00
1828.0, -186065.50, -187500.02, -185596.97, -185865.52, -186111.64, -187500.02, -153852.70, -187500.02, 0.00, 0.00, 0.00
1832.0, -185818.14, -187500.02, -185568.64, -185862.17, -186004.64, -187500.02, -153814.63, -187500.02, 0.00, 0.00, 0.00
1836.0, -185623.66, -187500.02, -185563.33, -185836.06, -185857.30, -187500.02, -153734.27, -187500.02, 0.00, 0.00, 0.00
1840.0, -185771.41, -187500.02, -185592.14, -185812.89, -185822.50, -187500.02, -153769.41, -187500.02, 0.00, 0.00, 0.00
1844.0, -185957.77, -187500.02, -185593.55, -185837.45, -185826.03, -187500.02, -153846.77, -187500.02, 0.00, 0.00, 0.00
1848.0, -186055.42, -187500.02, -185562.30, -185848.69, -185564.83, -187500.02, -153804.77, -187500.02, 0.00, 0.00, 0.00
1852.0, -186116.78, -187500.02, -185536.30, -185817.67, -185193.06, -187500.02, -153691.84, -187500.02, 0.00, 0.00, 0.00
1856.0, -186397.88, -187500.02, -185544.97, -185799.39, -185304.56, -187500.02, -153684.27, -187500.02, 0.00, 0.00, 0.00
1860.0, -186592.17, -187500.02, -185552.03, -185811.14, -185544.86, -187500.02, -153763.59, -187500.02, 0.00, 0.00, 0.00
1864.0, -186492.20, -187500.02, -185541.42, -185833.00, -185689.84, -187500.02, -153747.47, -187500.02, 0.00, 0.00, 0.00
1868.0, -186335.95, -187500.02, -185523.63, -185808.59, -185754.52, -187500.02, -153648.70, -187500.02, 0.00, 0.00, 0.00
1872.0, -186248.25, -187500.02, -185529.89, -185767.95, -185920.39, -187500.02, -153642.13, -187500.02, 0.00, 0.00, 0.00
1876.0, -186222.95, -187500.02, -185544.39, -185789.95, -186383.41, -187500.02, -153733.30, -187500.02, 0.00, 0.00, 0.00
1880.0, -186152.83, -187500.02, -185523.03, -185795.42, -186675.17, -187500.02, -153762.14, -187500.02, 0.00, 0.00, 0.00
1884.0, -186019.55, -187500.02, -185506.89, -185787.81, -186550.22, -187500.02, -153689.53, -187500.02, 0.00, 0.00, 0.00
1888.0, -185939.58, -187500.02, -185478.77, -185741.97, -186473.33, -187500.02, -153683.58, -187500.02, 0.00, 0.00, 0.00
1892.0, -185915.23, -187500.02, -185500.86, -185769.83, -186502.22, -187500.02, -153787.28, -187500.02, 0.00, 0.00, 0.00
1896.0, -185691.78, -187500.02, -185505.25, -185797.39, -186476.34, -187500.02, -153834.58, -187500.02, 0.00, 0.00, 0.00
1900.0, -185565.36, -187500.02, -185491.84, -185785.61, -186323.67, -187500.02, -153749.17, -187500.02, 0.00, 0.00, 0.00
1904.0, -185660.48, -187500.02, -185500.50, -185746.31, -186202.19, -187500.02, -153694.84, -187500.02, 0.00, 0.00, 0.00
1908.0, -185842.81, -187500.02, -185515.27, -185739.69, -186197.92, -187500.02, -153764.48, -187500.02, 0.00, 0.00, 0.00
1912.0, -186006.83, -187500.02, -185503.88, -185765.56, -186177.44, -187500.02, -153815.72, -187500.02, 0.00, 0.00, 0.00
1916.0, -186102.78, -187500.02, -185478.48, -185765.31, -186034.61, -187500.02, -153739.78, -187500.02, 0.00, 0.00, 0.00
1920.0, -186365.23, -187500.02, -185466.20, -185730.50, -185898.84, -187500.02, -153671.05, -187500.02, 0.00, 0.00, 0.00
1924.0, -186508.72, -187500.02, -185504.98, -185728.69, -185897.91, -187500.02, -153741.94, -187500.02, 0.00, 0.00, 0.00
1928.0, -186486.78, -187500.02, -185515.72, -185756.64, -185915.66, -187500.02, -153833.75, -187500.02, 0.00, 0.00, 0.00
1932.0, -186382.39, -187500.02, -185465.30, -185739.91, -185818.58, -187500.02, -153805.95, -187500.02, 0.00, 0.00, 0.00
1936.0, -186260.97, -187500.02, -185461.11, -185714.27, -185690.17, -187500.02, -153745.66, -187500.02, 0.00, 0.00, 0.00
1940.0, -186222.88, -187500.02, -185470.61, -185695.66, -185677.39, -187500.02, -153806.69, -187500.02, 0.00, 0.00, 0.00
1944.0, -186208.33, -187500.02, -185490.42, -185735.53, -185705.53, -187500.02, -153911.06, -187500.02, 0.00, 0.00, 0.00
1948.0, -186113.00, -187500.02, -185456.28, -185729.11, -185501.45, -187500.02, -153900.34, -187500.02, 0.00, 0.00, 0.00
1952.0, -185969.28, -187500.02, -185427.41, -185707.23, -185121.77, -187500.02, -153813.33, -187500.02, 0.00, 0.00, 0.00
1956.0, -185897.53, -187500.02, -185396.72, -185670.23, -185235.66, -187500.02, -153828.59, -187500.02, 0.00, 0.00, 0.00
1960.0, -185823.28, -187500.02, -185417.50, -185702.25, -185478.22, -187500.02, -153911.89, -187500.02, 0.00, 0.00, 0.00
1964.0, -185534.06, -187500.02, -185438.84, -185733.67, -185613.28, -187500.02, -153882.05, -187500.02, 0.00, 0.00, 0.00
1968.0, -185473.11, -187500.02, -185407.36, -185691.84, -185658.44, -187500.02, -153761.53, -187500.02, 0.00, 0.00, 0.00
1972.0, -185579.73, -187500.02, -185382.61, -185658.88, -185787.41, -187500.02, -153727.94, -187500.02, 0.00, 0.00, 0.00
1976.0, -185749.34, -187500.02, -185387.34, -185665.72, -186158.59, -187500.02, -153790.50, -187500.02, 0.00, 0.00, 0.00
1980.0, -185869.67, -187500.02, -185419.47, -185697.58, -186509.77, -187500.02, -153786.20, -187500.02, 0.00, 0.00, 0.00
1984.0, -185935.97, -187500.02, -185389.44, -185669.98, -186388.16, -187500.02, -153688.06, -187500.02, 0.00, 0.00, 0.00
1988.0, -186183.78, -187500.02, -185387.39, -185638.05, -186286.16, -187500.02, -153656.55, -187500.02, 0.00, 0.00, 0.00
1992.0, -186441.80, -187500.02, -185408.97, -185654.33, -186307.97, -187500.02, -153754.34, -187500.02, 0.00, 0.00, 0.00
1996.0, -186410.61, -187500.02, -185400.09, -185669.72, -186294.55, -187500.02, -153815.72, -187500.02, 0.00, 0.00, 0.00
2000.0, -186286.16, -187500.02, -185366.08, -185664.06, -186167.72, -187500.02, -153758.30, -187500.02, 0.00, 0.00, 0.00
2004.0, -186185.69, -187500.02, -185367.14, -185627.88, -186065.69, -187500.02, -153725.53, -187500.02, 0.00, 0.00, 0.00
2008.0, -186166.80, -187500.02, -185403.94, -185636.47, -186081.50, -187500.02, -153814.38, -187500.02, 0.00, 0.00, 0.00
2012.0, -186132.48, -187500.02, -185404.11, -185661.05, -186085.95, -187500.02, -153892.92, -187500.02, 0.00, 0.00, 0.00
2016.0, -186015.19, -187500.02, -185365.84, -185648.86, -185970.69, -187500.02, -153846.77, -187500.02, 0.00, 0.00, 0.00
2020.0, -185902.89, -187500.02, -185346.94, -185612.36, -185851.83, -187500.02, -153794.91, -187500.02, 0.00, 0.00, 0.00
2024.0, -185876.34, -187500.02, -185354.61, -185607.52, -185854.72, -187500.02, -153870.97, -187500.02, 0.00, 0.00, 0.00
2028.0, -185853.52, -187500.02, -185369.31, -185643.66, -185875.69, -187500.02, -153964.95, -187500.02, 0.00, 0.00, 0.00
2032.0, -185637.36, -187500.02, -185353.09, -185637.05, -185777.80, -187500.02, -153935.16, -187500.02, 0.00, 0.00, 0.00
2036.0, -185402.63, -187500.02, -185327.41, -185607.36, -185630.67, -187500.02, -153852.78, -187500.02, 0.00, 0.00, 0.00
2040.0, -185534.98, -187500.02, -185301.05, -185575.38, -185592.20, -187500.02, -153885.52, -187500.02, 0.00, 0.00, 0.00
2044.0, -185719.91, -187500.02, -185333.14, -185612.70, -185594.39, -187500.02, -153964.53, -187500.02, 0.00, 0.00, 0.00
2048.0, -185818.66, -187500.02, -185339.67, -185630.94, -185315.88, -187500.02, -153924.14, -187500.02, 0.00, 0.00, 0.00
2052.0, -185873.05, -187500.02, -185317.48, -185588.41, -184964.34, -187500.02, -153808.42, -187500.02, 0.00, 0.00, 0.00
2056.0, -186129.88, -187500.02, -185296.78, -185569.08, -185080.84, -187500.02, -153796.38, -187500.02, 0.00, 0.00, 0.00
2060.0, -186368.28, -187500.02, -185304.83, -185585.64, -185320.45, -187500.02, -153876.38, -187500.02, 0.00, 0.00, 0.00
2064.0, -186281.69, -187500.02, -185318.34, -185615.42, -185472.73, -187500.02, -153863.77, -187500.02, 0.00, 0.00, 0.00
2068.0, -186125.73, -187500.02, -185299.22, -185587.44, -185539.52, -187500.02, -153762.06, -187500.02, 0.00, 0.00, 0.00
2072.0, -186032.42, -187500.02, -185297.97, -185542.58, -185693.75, -187500.02, -153746.02, -187500.02, 0.00, 0.00, 0.00
2076.0, -186006.11, -187500.02, -185310.02, -185558.08, -186144.77, -187500.02, -153836.22, -187500.02, 0.00, 0.00, 0.00
2080.0, -185938.33, -187500.02, -185301.86, -185583.31, -186453.78, -187500.02, -153870.83, -187500.02, 0.00, 0.00, 0.00
2084.0, -185805.84, -187500.02, -185278.83, -185577.50, -186333.20, -187500.02, -153801.16, -187500.02, 0.00, 0.00, 0.00
2088.0, -185719.44, -187500.02, -185279.55, -185526.17, -186248.61, -187500.02, -153786.36, -187500.02, 0.00, 0.00, 0.00
2092.0, -185699.16, -187500.02, -185308.31, -185550.92, -186274.00, -187500.02, -153886.33, -187500.02, 0.00, 0.00, 0.00
2096.0, -185497.72, -187500.02, -185301.98, -185574.48, -186258.52, -187500.02, -153944.86, -187500.02, 0.00, 0.00, 0.00
2100.0, -185344.89, -187500.02, -185272.06, -185562.67, -186112.28, -187500.02, -153867.14, -187500.02, 0.00, 0.00, 0.00
2104.0, -185437.06, -187500.02, -185236.77, -185521.58, -185986.31, -187500.02, -153808.88, -187500.02, 0.00, 0.00, 0.00
2108.0, -185615.63, -187500.02, -185279.45, -185520.80, -185975.73, -187500.02, -153869.53, -187500.02, 0.00, 0.00, 0.00
2112.0, -185781.70, -187500.02, -185276.53, -185541.52, -185958.50, -187500.02, -153923.45, -187500.02, 0.00, 0.00, 0.00
2116.0, -185879.17, -187500.02, -185253.63, -185545.78, -185820.94, -187500.02, -153852.03, -187500.02, 0.00, 0.00, 0.00
2120.0, -186134.97, -187500.02, -185249.06, -185507.05, -185681.61, -187500.02, -153779.13, -187500.02, 0.00, 0.00, 0.00
2124.0, -186286.58, -187500.02, -185283.80, -185500.67, -185676.19, -187500.02, -153848.81, -187500.02, 0.00, 0.00, 0.00
2128.0, -186270.20, -187500.02, -185299.11, -185532.95, -185699.66, -187500.02, -153948.33, -187500.02, 0.00, 0.00, 0.00
2132.0, -186169.14, -187500.02, -185245.58, -185519.56, -185608.97, -187500.02, -153927.86, -187500.02, 0.00, 0.00, 0.00
2136.0, -186043.59, -187500.02, -185239.56, -185491.94, -185474.56, -187500.02, -153859.97, -187500.02, 0.00, 0.00, 0.00
2140.0, -186002.06, -187500.02, -185250.94, -185466.67, -185454.52, -187500.02, -153911.22, -187500.02, 0.00, 0.00, 0.00
2144.0, -185988.34, -187500.02, -185272.67, -185508.39, -185484.58, -187500.02, -154016.83, -187500.02, 0.00, 0.00, 0.00
2148.0, -185899.16, -187500.02, -185235.98, -185508.30, -185330.33, -187500.02, -154014.91, -187500.02, 0.00, 0.00, 0.00
2152.0, -185757.70, -187500.02, -185210.55, -185486.92, -184917.45, -187500.02, -153929.50, -187500.02, 0.00, 0.00, 0.00
2156.0, -185682.31, -187500.02, -185181.38, -185445.63, -184982.45, -187500.02, -153937.20, -187500.02, 0.00, 0.00, 0.00
2160.0, -185621.48, -187500.02, -185200.63, -185474.91, -185231.09, -187500.02, -154023.31, -187500.02, 0.00, 0.00, 0.00
2164.0, -185335.66, -187500.02, -185224.56, -185509.39, -185376.63, -187500.02, -154004.66, -187500.02, 0.00, 0.00, 0.00
2168.0, -185245.06, -187500.02, -185198.92, -185471.38, -185421.69, -187500.02, -153883.03, -187500.02, 0.00, 0.00, 0.00
2172.0, -185347.28, -187500.02, -185177.06, -185440.23, -185542.06, -187500.02, -153839.34, -187500.02, 0.00, 0.00, 0.00
2176.0, -185514.69, -187500.02, -185173.56, -185442.92, -185857.52, -187500.02, -153897.98, -187500.02, 0.00, 0.00, 0.00
2180.0, -185638.63, -187500.02, -185192.33, -185473.97, -186271.66, -187500.02, -153902.06, -187500.02, 0.00, 0.00, 0.00
2184.0, -185704.03, -187500.02, -185172.53, -185446.58, -186196.53, -187500.02, -153807.47, -187500.02, 0.00, 0.00, 0.00
2188.0, -185929.16, -187500.02, -185166.41, -185421.69, -186087.56, -187500.02, -153766.42, -187500.02, 0.00, 0.00, 0.00
2192.0, -186217.45, -187500.02, -185184.78, -185439.77, -186106.86, -187500.02, -153858.77, -187500.02, 0.00, 0.00, 0.00
2196.0, -186199.45, -187500.02, -185180.03, -185451.84, -186099.77, -187500.02, -153924.28, -187500.02, 0.00, 0.00, 0.00
2200.0, -186075.86, -187500.02, -185161.20, -185437.86, -185974.48, -187500.02, -153867.13, -187500.02, 0.00, 0.00, 0.00
2204.0, -185972.13, -187500.02, -185142.53, -185400.09, -185866.97, -187500.02, -153828.02, -187500.02, 0.00, 0.00, 0.00
2208.0, -185950.66, -187500.02, -185153.84, -185409.64, -185879.53, -187500.02, -153913.34, -187500.02, 0.00, 0.00, 0.00
2212.0, -185920.48, -187500.02, -185162.05, -185438.98, -185889.38, -187500.02, -153997.55, -187500.02, 0.00, 0.00, 0.00
2216.0, -185806.22, -187500.02, -185145.69, -185435.20, -185779.11, -187500.02, -153958.00, -187500.02, 0.00, 0.00, 0.00
2220.0, -185692.05, -187500.02, -185115.55, -185392.56, -185657.53, -187500.02, -153905.30, -187500.02, 0.00, 0.00, 0.00
2224.0, -185664.69, -187500.02, -185118.45, -185383.13, -185657.58, -187500.02, -153978.56, -187500.02, 0.00, 0.00, 0.00
2228.0, -185644.94, -187500.02, -185141.44, -185426.09, -185681.09, -187500.02, -154075.53, -187500.02, 0.00, 0.00, 0.00
2232.0, -185442.11, -187500.02, -185138.33, -185426.31, -185585.92, -187500.02, -154048.47, -187500.02, 0.00, 0.00, 0.00
2236.0, -185184.63, -187500.02, -185126.23, -185398.80, -185434.06, -187500.02, -153961.67, -187500.02, 0.00, 0.00, 0.00
2240.0, -185299.42, -187500.02, -185139.50, -185362.94, -185385.45, -187500.02, -153982.41, -187500.02, 0.00, 0.00, 0.00
2244.0, -185488.42, -187500.02, -185144.20, -185386.75, -185395.78, -187500.02, -154064.27, -187500.02, 0.00, 0.00, 0.00
2248.0, -185596.36, -187500.02, -185120.27, -185403.63, -185175.77, -187500.02, -154035.55, -187500.02, 0.00, 0.00, 0.00
2252.0, -185648.36, -187500.02, -185093.38, -185374.20, -184770.00, -187500.02, -153921.39, -187500.02, 0.00, 0.00, 0.00
2256.0, -185893.17, -187500.02, -185102.91, -185354.20, -184847.72, -187500.02, -153900.25, -187500.02, 0.00, 0.00, 0.00
2260.0, -186143.42, -187500.02, -185114.73, -185363.17, -185086.63, -187500.02, -153980.02, -187500.02, 0.00, 0.00, 0.00
2264.0, -186066.48, -187500.02, -185104.02, -185384.78, -185247.94, -187500.02, -153979.63, -187500.02, 0.00, 0.00, 0.00
2268.0, -185909.05, -187500.02, -185078.78, -185367.33, -185312.81, -187500.02, -153878.83, -187500.02, 0.00, 0.00, 0.00
2272.0, -185808.45, -187500.02, -185076.63, -185320.11, -185456.13, -187500.02, -153852.50, -187500.02, 0.00, 0.00, 0.00
2276.0, -185780.81, -187500.02, -185091.69, -185331.92, -185889.44, -187500.02, -153937.84, -187500.02, 0.00, 0.00, 0.00
2280.0, -185719.44, -187500.02, -185083.02, -185353.94, -186235.27, -187500.02, -153979.64, -187500.02, 0.00, 0.00, 0.00
2284.0, -185590.22, -187500.02, -185055.94, -185354.09, -186125.25, -187500.02, -153914.02, -187500.02, 0.00, 0.00, 0.00
2288.0, -185499.88, -187500.02, -185064.97, -185304.05, -186034.70, -187500.02, -153893.52, -187500.02, 0.00, 0.00, 0.00
2292.0, -185477.42, -187500.02, -185101.81, -185320.66, -186056.73, -187500.02, -153991.73, -187500.02, 0.00, 0.00, 0.00
2296.0, -185279.77, -187500.02, -185091.45, -185344.72, -186046.95, -187500.02, -154056.28, -187500.02, 0.00, 0.00, 0.00
2300.0, -185129.45, -187500.02, -185055.83, -185331.58, -185905.83, -187500.02, -153981.13, -187500.02, 0.00, 0.00, 0.00
2304.0, -185212.03, -187500.02, -185041.06, -185301.81, -185770.34, -187500.02, -153912.00, -187500.02, 0.00, 0.00, 0.00
2308.0, -185390.64, -187500.02, -185034.11, -185289.47, -185758.38, -187500.02, -153972.83, -187500.02, 0.00, 0.00, 0.00
2312.0, -185560.73, -187500.02, -185039.38, -185322.31, -185746.95, -187500.02, -154036.28, -187500.02, 0.00, 0.00, 0.00
2316.0, -185654.41, -187500.02, -185036.11, -185336.55, -185613.91, -187500.02, -153971.89, -187500.02, 0.00, 0.00, 0.00
2320.0, -185899.92, -187500.02, -185032.00, -185290.50, -185470.67, -187500.02, -153895.63, -187500.02, 0.00, 0.00, 0.00
2324.0, -186070.48, -187500.02, -185059.73, -185275.03, -185459.23, -187500.02, -153956.67, -187500.02, 0.00, 0.00, 0.00
2328.0, -186057.56, -187500.02, -185076.19, -185312.11, -185485.00, -187500.02, -154056.36, -187500.02, 0.00, 0.00, 0.00
2332.0, -185960.89, -187500.02, -185023.73, -185298.91, -185400.63, -187500.02, -154042.56, -187500.02, 0.00, 0.00, 0.00
2336.0, -185831.48, -187500.02, -185018.97, -185276.02, -185262.94, -187500.02, -153971.89, -187500.02, 0.00, 0.00, 0.00
2340.0, -185783.42, -187500.02, -185032.41, -185250.42, -185234.33, -187500.02, -154015.41, -187500.02, 0.00, 0.00, 0.00
2344.0, -185772.58, -187500.02, -185056.50, -185291.03, -185268.00, -187500.02, -154121.73, -187500.02, 0.00, 0.00, 0.00
2348.0, -185689.77, -187500.02, -185016.14, -185289.25, -185129.92, -187500.02, -154128.06, -187500.02, 0.00, 0.00, 0.00
2352.0, -185548.78, -187500.02, -184995.25, -185273.84, -184714.25, -187500.02, -154042.98, -187500.02, 0.00, 0.00, 0.00
2356.0, -185466.63, -187500.02, -184976.75, -185234.28, -184759.11, -187500.02, -154041.89, -187500.02, 0.00, 0.00, 0.00
2360.0, -185421.39, -187500.02, -184986.42, -185253.75, -185004.73, -187500.02, -154126.52, -187500.02, 0.00, 0.00, 0.00
2364.0, -185152.77, -187500.02, -184987.34, -185281.88, -185160.45, -187500.02, -154119.05, -187500.02, 0.00, 0.00, 0.00
2368.0, -185005.72, -187500.02, -184969.31, -185249.63, -185203.95, -187500.02, -153996.63, -187500.02, 0.00, 0.00, 0.00
2372.0, -185094.50, -187500.02, -184969.64, -185226.78, -185313.72, -187500.02, -153944.48, -187500.02, 0.00, 0.00, 0.00
2376.0, -185261.11, -187500.02, -184966.27, -185224.58, -185637.69, -187500.02, -154003.61, -187500.02, 0.00, 0.00, 0.00
2380.0, -185392.94, -187500.02, -184969.19, -185257.27, -186055.58, -187500.02, -154016.50, -187500.02, 0.00, 0.00, 0.00
2384.0, -185458.27, -187500.02, -184959.50, -185250.58, -185975.77, -187500.02, -153923.73, -187500.02, 0.00, 0.00, 0.00
2388.0, -185634.94, -187500.02, -184952.66, -185197.97, -185859.16, -187500.02, -153872.94, -187500.02, 0.00, 0.00, 0.00
2392.0, -185976.95, -187500.02, -184970.89, -185203.63, -185870.64, -187500.02, -153957.30, -187500.02, 0.00, 0.00, 0.00
2396.0, -185996.14, -187500.02, -184969.23, -185226.03, -185868.81, -187500.02, -154028.64, -187500.02, 0.00, 0.00, 0.00
2400.0, -185874.22, -187500.02, -184938.34, -185222.11, -185747.95, -187500.02, -153975.97, -187500.02, 0.00, 0.00, 0.00
2404.0, -185768.16, -187500.02, -184902.91, -185177.17, -185636.17, -187500.02, -153934.16, -187500.02, 0.00, 0.00, 0.00
2408.0, -185746.25, -187500.02, -184911.55, -185177.38, -185645.78, -187500.02, -154015.88, -187500.02, 0.00, 0.00, 0.00
2412.0, -185720.27, -187500.02, -184934.23, -185217.33, -185660.72, -187500.02, -154102.42, -187500.02, 0.00, 0.00, 0.00
2416.0, -185609.69, -187500.02, -184933.50, -185223.38, -185556.02, -187500.02, -154065.39, -187500.02, 0.00, 0.00, 0.00
2420.0, -185491.33, -187500.02, -184900.13, -185183.17, -185430.31, -187500.02, -154007.00, -187500.02, 0.00, 0.00, 0.00
2424.0, -185454.52, -187500.02, -184943.06, -185172.13, -185418.31, -187500.02, -154065.97, -187500.02, 0.00, 0.00, 0.00
2428.0, -185439.55, -187500.02, -184966.11, -185209.13, -185445.13, -187500.02, -154165.39, -187500.02, 0.00, 0.00, 0.00
2432.0, -185280.64, -187500.02, -184920.88, -185196.84, -185362.09, -187500.02, -154149.88, -187500.02, 0.00, 0.00, 0.00
2436.0, -184982.03, -187500.02, -184897.56, -185173.73, -185213.41, -187500.02, -154064.73, -187500.02, 0.00, 0.00, 0.00
2440.0, -185060.80, -187500.02, -184876.19, -185137.58, -185162.05, -187500.02, -154082.39, -187500.02, 0.00, 0.00, 0.00
2444.0, -185251.52, -187500.02, -184890.77, -185169.48, -185173.95, -187500.02, -154167.36, -187500.02, 0.00, 0.00, 0.00
2448.0, -185364.03, -187500.02, -184899.14, -185196.02, -185003.06, -187500.02, -154147.17, -187500.02, 0.00, 0.00, 0.00
2452.0, -185417.50, -187500.02, -184877.63, -185155.83, -184563.80, -187500.02, -154033.83, -187500.02, 0.00, 0.00, 0.00
2456.0, -185647.13, -187500.02, -184854.78, -185123.64, -184591.41, -187500.02, -154006.17, -187500.02, 0.00, 0.00, 0.00
2460.0, -185918.14, -187500.02, -184862.48, -185135.31, -184828.30, -187500.02, -154084.52, -187500.02, 0.00, 0.00, 0.00
2464.0, -185848.73, -187500.02, -184875.14, -185171.50, -184992.34, -187500.02, -154085.59, -187500.02, 0.00, 0.00, 0.00
2468.0, -185691.53, -187500.02, -184856.14, -185148.61, -185059.89, -187500.02, -153986.22, -187500.02, 0.00, 0.00, 0.00
2472.0, -185588.38, -187500.02, -184844.55, -185109.61, -185192.02, -187500.02, -153954.47, -187500.02, 0.00, 0.00, 0.00
2476.0, -185560.00, -187500.02, -184852.88, -185116.38, -185565.50, -187500.02, -154037.33, -187500.02, 0.00, 0.00, 0.00
2480.0, -185502.02, -187500.02, -184857.50, -185143.05, -185987.67, -187500.02, -154084.00, -187500.02, 0.00, 0.00, 0.00
2484.0, -185373.50, -187500.02, -184842.45, -185141.80, -185910.81, -187500.02, -154017.89, -187500.02, 0.00, 0.00, 0.00
2488.0, -185277.77, -187500.02, -184837.30, -185090.78, -185812.77, -187500.02, -153987.73, -187500.02, 0.00, 0.00, 0.00
2492.0, -185251.94, -187500.02, -184880.13, -185103.75, -185830.63, -187500.02, -154078.14, -187500.02, 0.00, 0.00, 0.00
2496.0, -185056.67, -187500.02, -184874.88, -185129.14, -185826.00, -187500.02, -154145.88, -187500.02, 0.00, 0.00, 0.00
2500.0, -184906.97, -187500.02, -184840.20, -185120.19, -185689.55, -187500.02, -154075.36, -187500.02, 0.00, 0.00, 0.00
2504.0, -184987.25, -187500.02, -184806.92, -185078.47, -185551.53, -187500.02, -154001.92, -187500.02, 0.00, 0.00, 0.00
2508.0, -185165.06, -187500.02, -184795.03, -185058.06, -185535.00, -187500.02, -154055.42, -187500.02, 0.00, 0.00, 0.00
2512.0, -185341.38, -187500.02, -184819.33, -185106.28, -185529.11, -187500.02, -154120.70, -187500.02, 0.00, 0.00, 0.00
2516.0, -185444.23, -187500.02, -184822.17, -185117.56, -185401.50, -187500.02, -154058.98, -187500.02, 0.00, 0.00, 0.00
2520.0, -185695.20, -187500.02, -184812.89, -185072.11, -185254.47, -187500.02, -153977.39, -187500.02, 0.00, 0.00, 0.00
2524.0, -185839.92, -187500.02, -184832.98, -185057.48, -185237.27, -187500.02, -154032.84, -187500.02, 0.00, 0.00, 0.00
2528.0, -185826.42, -187500.02, -184850.73, -185093.88, -185265.47, -187500.02, -154133.78, -187500.02, 0.00, 0.00, 0.00
2532.0, -185733.47, -187500.02, -184809.73, -185082.39, -185186.67, -187500.02, -154126.38, -187500.02, 0.00, 0.00, 0.00
2536.0, -185604.55, -187500.02, -184797.95, -185060.45, -185048.83, -187500.02, -154054.86, -187500.02, 0.00, 0.00, 0.00
2540.0, -185554.44, -187500.02, -184795.97, -185036.52, -185015.91, -187500.02, -154091.73, -187500.02, 0.00, 0.00, 0.00
2544.0, -185544.80, -187500.02, -184823.66, -185077.00, -185050.91, -187500.02, -154199.00, -187500.02, 0.00, 0.00, 0.00
2548.0, -185466.13, -187500.02, -184795.80, -185073.22, -184932.73, -187500.02, -154212.06, -187500.02, 0.00, 0.00, 0.00
2552.0, -185324.56, -187500.02, -184776.52, -185057.22, -184512.13, -187500.02, -154126.27, -187500.02, 0.00, 0.00, 0.00
2556.0, -185238.67, -187500.02, -184742.95, -185009.98, -184527.41, -187500.02, -154117.03, -187500.02, 0.00, 0.00, 0.00
2560.0, -185181.09, -187500.02, -184754.81, -185030.78, -184770.33, -187500.02, -154198.84, -187500.02, 0.00, 0.00, 0.00
2564.0, -184908.48, -187500.02, -184773.34, -185071.23, -184929.59, -187500.02, -154196.08, -187500.02, 0.00, 0.00, 0.00
2568.0, -184809.22, -187500.02, -184756.00, -185035.98, -184973.48, -187500.02, -154076.63, -187500.02, 0.00, 0.00, 0.00
2572.0, -184899.22, -187500.02, -184739.31, -185002.03, -185075.72, -187500.02, -154016.98, -187500.02, 0.00, 0.00, 0.00
2576.0, -185066.72, -187500.02, -184729.83, -185003.39, -185360.22, -187500.02, -154074.06, -187500.02, 0.00, 0.00, 0.00
2580.0, -185201.34, -187500.02, -184743.20, -185037.72, -185806.67, -187500.02, -154089.66, -187500.02, 0.00, 0.00, 0.00
2584.0, -185270.09, -187500.02, -184725.98, -185014.77, -185778.86, -187500.02, -153997.64, -187500.02, 0.00, 0.00, 0.00
2588.0, -185472.95, -187500.02, -184722.80, -184980.44, -185654.61, -187500.02, -153939.66, -187500.02, 0.00, 0.00, 0.00
2592.0, -185772.00, -187500.02, -184737.41, -184985.20, -185662.50, -187500.02, -154019.03, -187500.02, 0.00, 0.00, 0.00
2596.0, -185769.55, -187500.02, -184743.00, -185012.38, -185666.64, -187500.02, -154094.28, -187500.02, 0.00, 0.00, 0.00
2600.0, -185651.14, -187500.02, -184722.98, -185012.33, -185551.02, -187500.02, -154046.03, -187500.02, 0.00, 0.00, 0.00
2604.0, -185542.34, -187500.02, -184679.25, -184960.81, -185435.63, -187500.02, -153998.17, -187500.02, 0.00, 0.00, 0.00
2608.0, -185518.80, -187500.02, -184684.17, -184959.89, -185440.61, -187500.02, -154075.36, -187500.02, 0.00, 0.00, 0.00
2612.0, -185496.19, -187500.02, -184707.95, -185002.14, -185460.17, -187500.02, -154166.97, -187500.02, 0.00, 0.00, 0.00
2616.0, -185387.67, -187500.02, -184711.30, -185004.91, -185360.66, -187500.02, -154136.23, -187500.02, 0.00, 0.00, 0.00
2620.0, -185264.91, -187500.02, -184687.86, -184966.73, -185228.98, -187500.02, -154072.48, -187500.02, 0.00, 0.00, 0.00
2624.0, -185223.20, -187500.02, -184716.08, -184943.16, -185210.22, -187500.02, -154124.48, -187500.02, 0.00, 0.00, 0.00
2628.0, -185209.70, -187500.02, -184738.48, -184984.75, -185239.50, -187500.02, -154226.78, -187500.02, 0.00, 0.00, 0.00
2632.0, -185051.34, -187500.02, -184695.75, -184972.50, -185164.39, -187500.02, -154220.59, -187500.02, 0.00, 0.00, 0.00
2636.0, -184757.86, -187500.02, -184681.89, -184955.14, -185012.78, -187500.02, -154134.98, -187500.02, 0.00, 0.00, 0.00
2640.0, -184838.69, -187500.02, -184666.91, -184922.80, -184954.06, -187500.02, -154144.64, -187500.02, 0.00, 0.00, 0.00
2644.0, -185027.56, -187500.02, -184676.77, -184945.64, -184967.63, -187500.02, -154230.61, -187500.02, 0.00, 0.00, 0.00
2648.0, -185144.56, -187500.02, -184679.88, -184978.20, -184819.02, -187500.02, -154218.22, -187500.02, 0.00, 0.00, 0.00
2652.0, -185198.64, -187500.02, -184661.05, -184950.67, -184372.83, -187500.02, -154104.70, -187500.02, 0.00, 0.00, 0.00
2656.0, -185408.08, -187500.02, -184655.20, -184911.77, -184370.17, -187500.02, -154064.22, -187500.02, 0.00, 0.00, 0.00
2660.0, -185696.94, -187500.02, -184660.27, -184916.69, -184606.22, -187500.02, -154140.63, -187500.02, 0.00, 0.00, 0.00
2664.0, -185643.92, -187500.02, -184661.95, -184947.56, -184780.72, -187500.02, -154152.98, -187500.02, 0.00, 0.00, 0.00
2668.0, -185489.00, -187500.02, -184647.58, -184936.19, -184850.23, -187500.02, -154055.23, -187500.02, 0.00, 0.00, 0.00
2672.0, -185381.47, -187500.02, -184644.78, -184890.34, -184976.69, -187500.02, -154015.42, -187500.02, 0.00, 0.00, 0.00
2676.0, -185350.69, -187500.02, -184657.50, -184897.92, -185350.14, -187500.02, -154093.88, -187500.02, 0.00, 0.00, 0.00
2680.0, -185298.22, -187500.02, -184647.52, -184915.94, -185780.39, -187500.02, -154146.31, -187500.02, 0.00, 0.00, 0.00
2684.0, -185173.00, -187500.02, -184617.72, -184917.39, -185708.72, -187500.02, -154086.22, -187500.02, 0.00, 0.00, 0.00
2688.0, -185069.83, -187500.02, -184612.19, -184874.94, -185601.95, -187500.02, -154047.75, -187500.02, 0.00, 0.00, 0.00
2692.0, -185047.38, -187500.02, -184658.58, -184882.53, -185614.63, -187500.02, -154132.80, -187500.02, 0.00, 0.00, 0.00
2696.0, -184892.02, -187500.02, -184661.08, -184909.53, -185619.31, -187500.02, -154210.95, -187500.02, 0.00, 0.00, 0.00
2700.0, -184685.66, -187500.02, -184618.56, -184895.95, -185491.47, -187500.02, -154151.11, -187500.02, 0.00, 0.00, 0.00
2704.0, -184749.83, -187500.02, -184570.58, -184862.08, -185351.61, -187500.02, -154075.27, -187500.02, 0.00, 0.00, 0.00
2708.0, -184918.41, -187500.02, -184587.31, -184845.05, -185327.16, -187500.02, -154120.17, -187500.02, 0.00, 0.00, 0.00
2712.0, -185095.06, -187500.02, -184631.69, -184877.95, -185322.42, -187500.02, -154187.02, -187500.02, 0.00, 0.00, 0.00
2716.0, -185195.03, -187500.02, -184599.11, -184890.61, -185204.36, -187500.02, -154135.95, -187500.02, 0.00, 0.00, 0.00
2720.0, -185407.83, -187500.02, -184576.77, -184855.17, -185050.23, -187500.02, -154045.33, -187500.02, 0.00, 0.00, 0.00
2724.0, -185621.42, -187500.02, -184614.81, -184832.73, -185021.39, -187500.02, -154085.77, -187500.02, 0.00, 0.00, 0.00
2728.0, -185621.63, -187500.02, -184641.52, -184869.70, -185052.77, -187500.02, -154191.64, -187500.02, 0.00, 0.00, 0.00
2732.0, -185534.81, -187500.02, -184592.84, -184859.14, -184983.41, -187500.02, -154192.00, -187500.02, 0.00, 0.00, 0.00
2736.0, -185407.00, -187500.02, -184577.09, -184841.25, -184845.30, -187500.02, -154116.66, -187500.02, 0.00, 0.00, 0.00
2740.0, -185350.00, -187500.02, -184586.44, -184812.36, -184803.97, -187500.02, -154143.72, -187500.02, 0.00, 0.00, 0.00
2744.0, -185341.94, -187500.02, -184613.31, -184851.36, -184839.78, -187500.02, -154251.89, -187500.02, 0.00, 0.00, 0.00
2748.0, -185269.48, -187500.02, -184582.36, -184851.92, -184750.50, -187500.02, -154273.13, -187500.02, 0.00, 0.00, 0.00
2752.0, -185128.34, -187500.02, -184560.16, -184838.23, -184333.63, -187500.02, -154189.14, -187500.02, 0.00, 0.00, 0.00
2756.0, -185036.97, -187500.02, -184536.53, -184798.34, -184290.38, -187500.02, -154171.84, -187500.02, 0.00, 0.00, 0.00
2760.0, -184999.14, -187500.02, -184544.09, -184811.08, -184532.89, -187500.02, -154253.94, -187500.02, 0.00, 0.00, 0.00
2764.0, -184758.66, -187500.02, -184550.28, -184841.41, -184706.86, -187500.02, -154263.55, -187500.02, 0.00, 0.00, 0.00
2768.0, -184574.91, -187500.02, -184534.00, -184819.08, -184758.28, -187500.02, -154148.48, -187500.02, 0.00, 0.00, 0.00
2772.0, -184652.53, -187500.02, -184533.89, -184787.70, -184852.56, -187500.02, -154077.55, -187500.02, 0.00, 0.00, 0.00
2776.0, -184817.72, -187500.02, -184534.56, -184778.84, -185130.06, -187500.02, -154127.20, -187500.02, 0.00, 0.00, 0.00
2780.0, -184957.80, -187500.02, -184530.86, -184816.08, -185583.72, -187500.02, -154150.80, -187500.02, 0.00, 0.00, 0.00
2784.0, -185023.80, -187500.02, -184517.67, -184813.83, -185557.61, -187500.02, -154061.30, -187500.02, 0.00, 0.00, 0.00
2788.0, -185188.58, -187500.02, -184503.73, -184767.02, -185427.09, -187500.02, -153998.47, -187500.02, 0.00, 0.00, 0.00
2792.0, -185523.25, -187500.02, -184512.86, -184763.45, -185429.94, -187500.02, -154075.59, -187500.02, 0.00, 0.00, 0.00
2796.0, -185551.59, -187500.02, -184520.55, -184791.34, -185440.39, -187500.02, -154160.67, -187500.02, 0.00, 0.00, 0.00
2800.0, -185438.52, -187500.02, -184498.94, -184787.70, -185332.48, -187500.02, -154121.89, -187500.02, 0.00, 0.00, 0.00
2804.0, -185324.41, -187500.02, -184462.38, -184742.97, -185212.00, -187500.02, -154067.53, -187500.02, 0.00, 0.00, 0.00
2808.0, -185295.84, -187500.02, -184463.06, -184731.78, -185209.83, -187500.02, -154137.61, -187500.02, 0.00, 0.00, 0.00
2812.0, -185276.36, -187500.02, -184489.27, -184777.53, -185232.83, -187500.02, -154234.98, -187500.02, 0.00, 0.00, 0.00
2816.0, -185171.98, -187500.02, -184491.89, -184784.13, -185138.59, -187500.02, -154208.59, -187500.02, 0.00, 0.00, 0.00
2820.0, -185046.23, -187500.02, -184470.13, -184748.47, -185003.58, -187500.02, -154138.50, -187500.02, 0.00, 0.00, 0.00
2824.0, -185001.89, -187500.02, -184487.02, -184722.44, -184979.95, -187500.02, -154186.19, -187500.02, 0.00, 0.00, 0.00
2828.0, -184990.88, -187500.02, -184511.91, -184764.56, -185013.03, -187500.02, -154293.70, -187500.02, 0.00, 0.00, 0.00
2832.0, -184849.92, -187500.02, -184483.30, -184763.97, -184945.91, -187500.02, -154296.03, -187500.02, 0.00, 0.00, 0.00
2836.0, -184546.84, -187500.02, -184457.86, -184745.56, -184794.30, -187500.02, -154210.17, -187500.02, 0.00, 0.00, 0.00
2840.0, -184609.06, -187500.02, -184422.94, -184702.22, -184729.34, -187500.02, -154212.14, -187500.02, 0.00, 0.00, 0.00
2844.0, -184799.61, -187500.02, -184448.47, -184727.28, -184741.94, -187500.02, -154294.52, -187500.02, 0.00, 0.00, 0.00
2848.0, -184918.81, -187500.02, -184476.23, -184758.48, -184596.28, -187500.02, -154284.91, -187500.02, 0.00, 0.00, 0.00
2852.0, -184973.59, -187500.02, -184442.59, -184726.25, -184152.08, -187500.02, -154174.19, -187500.02, 0.00, 0.00, 0.00
2856.0, -185171.92, -187500.02, -184426.36, -184693.06, -184142.19, -187500.02, -154129.44, -187500.02, 0.00, 0.00, 0.00
2860.0, -185468.38, -187500.02, -184428.75, -184701.72, -184375.98, -187500.02, -154201.34, -187500.02, 0.00, 0.00, 0.00
2864.0, -185426.89, -187500.02, -184439.53, -184733.97, -184558.44, -187500.02, -154222.31, -187500.02, 0.00, 0.00, 0.00
2868.0, -185273.94, -187500.02, -184426.00, -184719.53, -184630.28, -187500.02, -154128.77, -187500.02, 0.00, 0.00, 0.00
2872.0, -185160.22, -187500.02, -184418.98, -184673.45, -184747.98, -187500.02, -154082.38, -187500.02, 0.00, 0.00, 0.00
2876.0, -185127.20, -187500.02, -184426.27, -184673.61, -185096.63, -187500.02, -154155.97, -187500.02, 0.00, 0.00, 0.00
2880.0, -185077.11, -187500.02, -184421.69, -184694.48, -185547.69, -187500.02, -154214.31, -187500.02, 0.00, 0.00, 0.00
2884.0, -184953.61, -187500.02, -184412.86, -184699.20, -185492.63, -187500.02, -154157.77, -187500.02, 0.00, 0.00, 0.00
2888.0, -184850.70, -187500.02, -184370.55, -184649.77, -185385.25, -187500.02, -154117.94, -187500.02, 0.00, 0.00, 0.00
2892.0, -184829.23, -187500.02, -184379.78, -184655.67, -185396.66, -187500.02, -154201.70, -187500.02, 0.00, 0.00, 0.00
2896.0, -184683.30, -187500.02, -184408.02, -184695.66, -185405.88, -187500.02, -154283.45, -187500.02, 0.00, 0.00, 0.00
2900.0, -184465.16, -187500.02, -184402.72, -184700.19, -185281.14, -187500.02, -154225.05, -187500.02, 0.00, 0.00, 0.00
2904.0, -184518.31, -187500.02, -184388.00, -184656.72, -185131.31, -187500.02, -154140.67, -187500.02, 0.00, 0.00, 0.00
2908.0, -184683.00, -187500.02, -184393.19, -184628.47, -185100.75, -187500.02, -154178.75, -187500.02, 0.00, 0.00, 0.00
2912.0, -184863.47, -187500.02, -184395.83, -184656.11, -185104.09, -187500.02, -154251.31, -187500.02, 0.00, 0.00, 0.00
2916.0, -184960.45, -187500.02, -184383.58, -184675.34, -184991.95, -187500.02, -154205.63, -187500.02, 0.00, 0.00, 0.00
2920.0, -185147.97, -187500.02, -184373.09, -184641.88, -184834.33, -187500.02, -154114.38, -187500.02, 0.00, 0.00, 0.00
2924.0, -185398.91, -187500.02, -184408.17, -184612.70, -184797.48, -187500.02, -154149.05, -187500.02, 0.00, 0.00, 0.00
2928.0, -185413.95, -187500.02, -184436.67, -184651.02, -184831.84, -187500.02, -154256.17, -187500.02, 0.00, 0.00, 0.00
2932.0, -185332.95, -187500.02, -184387.73, -184644.30, -184769.81, -187500.02, -154263.28, -187500.02, 0.00, 0.00, 0.00
2936.0, -185202.45, -187500.02, -184357.41, -184628.89, -184630.97, -187500.02, -154188.19, -187500.02, 0.00, 0.00, 0.00
2940.0, -185138.98, -187500.02, -184367.06, -184605.16, -184580.70, -187500.02, -154205.50, -187500.02, 0.00, 0.00, 0.00
2944.0, -185129.69, -187500.02, -184393.09, -184639.48, -184614.00, -187500.02, -154310.77, -187500.02, 0.00, 0.00, 0.00
2948.0, -185062.92, -187500.02, -184362.33, -184632.31, -184542.39, -187500.02, -154339.27, -187500.02, 0.00, 0.00, 0.00
2952.0, -184924.80, -187500.02, -184340.95, -184615.95, -184135.05, -187500.02, -154258.53, -187500.02, 0.00, 0.00, 0.00
2956.0, -184827.70, -187500.02, -184325.48, -184582.36, -184055.52, -187500.02, -154232.94, -187500.02, 0.00, 0.00, 0.00
2960.0, -184793.69, -187500.02, -184333.33, -184592.67, -184296.66, -187500.02, -154314.41, -187500.02, 0.00, 0.00, 0.00
2964.0, -184570.44, -187500.02, -184332.06, -184620.47, -184479.25, -187500.02, -154334.66, -187500.02, 0.00, 0.00, 0.00
2968.0, -184365.94, -187500.02, -184316.55, -184601.69, -184532.91, -187500.02, -154224.03, -187500.02, 0.00, 0.00, 0.00
2972.0, -184431.36, -187500.02, -184310.11, -184570.86, -184618.08, -187500.02, -154146.83, -187500.02, 0.00, 0.00, 0.00
2976.0, -184589.39, -187500.02, -184308.08, -184562.92, -184861.33, -187500.02, -154191.36, -187500.02, 0.00, 0.00, 0.00
2980.0, -184732.78, -187500.02, -184307.88, -184590.69, -185320.78, -187500.02, -154221.64, -187500.02, 0.00, 0.00, 0.00
2984.0, -184803.14, -187500.02, -184300.94, -184597.94, -185363.75, -187500.02, -154136.86, -187500.02, 0.00, 0.00, 0.00
2988.0, -184960.48, -187500.02, -184294.06, -184551.13, -185228.59, -187500.02, -154066.09, -187500.02, 0.00, 0.00, 0.00
2992.0, -185299.73, -187500.02, -184317.03, -184543.53, -185226.08, -187500.02, -154136.64, -187500.02, 0.00, 0.00, 0.00
2996.0, -185338.73, -187500.02, -184325.64, -184572.70, -185241.91, -187500.02, -154226.72, -187500.02, 0.00, 0.00, 0.00
3000.0, -185230.17, -187500.02, -184284.92, -184563.22, -185141.22, -187500.02, -154193.95, -187500.02, 0.00, 0.00, 0.00
3004.0, -185109.75, -187500.02, -184275.36, -184534.47, -185013.05, -187500.02, -154132.08, -187500.02, 0.00, 0.00, 0.00
3008.0, -185074.06, -187500.02, -184279.44, -184517.13, -185001.73, -187500.02, -154194.02, -187500.02, 0.00, 0.00, 0.00
3012.0, -185058.05, -187500.02, -184298.86, -184556.52, -185028.77, -187500.02, -154295.92, -187500.02, 0.00, 0.00, 0.00
3016.0, -184962.11, -187500.02, -184278.59, -184555.28, -184945.66, -187500.02, -154282.75, -187500.02, 0.00, 0.00, 0.00
3020.0, -184835.00, -187500.02, -184266.86, -184529.38, -184808.59, -187500.02, -154211.16, -187500.02, 0.00, 0.00, 0.00
3024.0, -184789.67, -187500.02, -184257.84, -184495.00, -184781.02, -187500.02, -154254.13, -187500.02, 0.00, 0.00, 0.00
3028.0, -184780.69, -187500.02, -184284.00, -184538.95, -184815.59, -187500.02, -154360.94, -187500.02, 0.00, 0.00, 0.00
3032.0, -184648.47, -187500.02, -184260.83, -184541.78, -184754.42, -187500.02, -154369.30, -187500.02, 0.00, 0.00, 0.00
3036.0, -184339.13, -187500.02, -184234.34, -184533.30, -184602.16, -187500.02, -154281.84, -187500.02, 0.00, 0.00, 0.00
3040.0, -184381.34, -187500.02, -184249.84, -184500.05, -184523.09, -187500.02, -154270.33, -187500.02, 0.00, 0.00, 0.00
3044.0, -184571.73, -187500.02, -184274.84, -184512.22, -184534.23, -187500.02, -154351.98, -187500.02, 0.00, 0.00, 0.00
3048.0, -184702.16, -187500.02, -184255.53, -184535.34, -184426.78, -187500.02, -154356.94, -187500.02, 0.00, 0.00, 0.00
3052.0, -184760.05, -187500.02, -184230.02, -184512.22, -183986.08, -187500.02, -154249.81, -187500.02, 0.00, 0.00, 0.00
3056.0, -184963.83, -187500.02, -184222.95, -184476.09, -183921.38, -187500.02, -154199.00, -187500.02, 0.00, 0.00, 0.00
3060.0, -185251.67, -187500.02, -184226.52, -184477.02, -184153.28, -187500.02, -154270.22, -187500.02, 0.00, 0.00, 0.00
3064.0, -185210.73, -187500.02, -184219.86, -184505.22, -184345.69, -187500.02, -154298.53, -187500.02, 0.00, 0.00, 0.00
3068.0, -185058.44, -187500.02, -184202.64, -184501.00, -184421.02, -187500.02, -154207.11, -187500.02, 0.00, 0.00, 0.00
3072.0, -184935.80, -187500.02, -184207.17, -184457.03, -184529.27, -187500.02, -154148.47, -187500.02, 0.00, 0.00, 0.00
3076.0, -184899.14, -187500.02, -184220.88, -184453.55, -184865.66, -187500.02, -154217.52, -187500.02, 0.00, 0.00, 0.00
3080.0, -184856.20, -187500.02, -184215.27, -184475.27, -185332.70, -187500.02, -154281.55, -187500.02, 0.00, 0.00, 0.00
3084.0, -184737.42, -187500.02, -184190.64, -184479.52, -185293.11, -187500.02, -154228.86, -187500.02, 0.00, 0.00, 0.00
3088.0, -184630.64, -187500.02, -184152.19, -184429.92, -185180.00, -187500.02, -154182.58, -187500.02, 0.00, 0.00, 0.00
3092.0, -184607.05, -187500.02, -184158.45, -184429.48, -185184.98, -187500.02, -154260.36, -187500.02, 0.00, 0.00, 0.00
3096.0, -184477.02, -187500.02, -184182.70, -184471.88, -185199.33, -187500.02, -154347.22, -187500.02, 0.00, 0.00, 0.00
3100.0, -184244.23, -187500.02, -184180.48, -184477.84, -185081.41, -187500.02, -154296.52, -187500.02, 0.00, 0.00, 0.00
3104.0, -184283.80, -187500.02, -184166.31, -184444.48, -184926.64, -187500.02, -154205.39, -187500.02, 0.00, 0.00, 0.00
3108.0, -184443.39, -187500.02, -184175.38, -184421.02, -184888.50, -187500.02, -154236.33, -187500.02, 0.00, 0.00, 0.00
3112.0, -184629.27, -187500.02, -184179.50, -184442.70, -184895.45, -187500.02, -154315.13, -187500.02, 0.00, 0.00, 0.00
3116.0, -184732.69, -187500.02, -184160.20, -184454.02, -184792.13, -187500.02, -154279.58, -187500.02, 0.00, 0.00, 0.00
3120.0, -184899.59, -187500.02, -184144.53, -184428.59, -184633.31, -187500.02, -154182.91, -187500.02, 0.00, 0.00, 0.00
3124.0, -185170.88, -187500.02, -184181.41, -184398.17, -184588.02, -187500.02, -154204.97, -187500.02, 0.00, 0.00, 0.00
3128.0, -185197.88, -187500.02, -184212.88, -184432.66, -184622.61, -187500.02, -154311.72, -187500.02, 0.00, 0.00, 0.00
3132.0, -185120.88, -187500.02, -184170.17, -184427.08, -184568.67, -187500.02, -154325.31, -187500.02, 0.00, 0.00, 0.00
3136.0, -184989.25, -187500.02, -184138.61, -184412.19, -184428.31, -187500.02, -154248.78, -187500.02, 0.00, 0.00, 0.00
3140.0, -184921.20, -187500.02, -184143.44, -184377.61, -184370.64, -187500.02, -154258.33, -187500.02, 0.00, 0.00, 0.00
3144.0, -184913.22, -187500.02, -184169.92, -184412.80, -184405.27, -187500.02, -154365.52, -187500.02, 0.00, 0.00, 0.00
3148.0, -184851.58, -187500.02, -184148.30, -184418.94, -184354.41, -187500.02, -154403.30, -187500.02, 0.00, 0.00, 0.00
3152.0, -184719.25, -187500.02, -184112.56, -184410.52, -183973.80, -187500.02, -154328.55, -187500.02, 0.00, 0.00, 0.00
3156.0, -184619.17, -187500.02, -184096.38, -184368.09, -183831.67, -187500.02, -154296.52, -187500.02, 0.00, 0.00, 0.00
3160.0, -184582.33, -187500.02, -184143.36, -184373.66, -184061.52, -187500.02, -154369.86, -187500.02, 0.00, 0.00, 0.00
3164.0, -184387.88, -187500.02, -184133.80, -184399.58, -184253.69, -187500.02, -154399.72, -187500.02, 0.00, 0.00, 0.00
3168.0, -184145.06, -187500.02, -184105.41, -184384.45, -184313.75, -187500.02, -154294.73, -187500.02, 0.00, 0.00, 0.00
3172.0, -184198.08, -187500.02, -184088.77, -184351.50, -184395.31, -187500.02, -154211.31, -187500.02, 0.00, 0.00, 0.00
3176.0, -184355.75, -187500.02, -184086.48, -184342.00, -184644.72, -187500.02, -154251.00, -187500.02, 0.00, 0.00, 0.00
3180.0, -184506.48, -187500.02, -184091.08, -184377.14, -185113.56, -187500.02, -154286.27, -187500.02, 0.00, 0.00, 0.00
3184.0, -184581.91, -187500.02, -184086.09, -184387.06, -185136.44, -187500.02, -154209.78, -187500.02, 0.00, 0.00, 0.00
3188.0, -184717.80, -187500.02, -184070.16, -184335.97, -184995.91, -187500.02, -154135.17, -187500.02, 0.00, 0.00, 0.00
3192.0, -185063.55, -187500.02, -184089.31, -184325.91, -184984.50, -187500.02, -154195.30, -187500.02, 0.00, 0.00, 0.00
3196.0, -185127.11, -187500.02, -184101.30, -184356.78, -185003.42, -187500.02, -154286.48, -187500.02, 0.00, 0.00, 0.00
3200.0, -185021.13, -187500.02, -184068.83, -184348.83, -184907.84, -187500.02, -154256.73, -187500.02, 0.00, 0.00, 0.00
3204.0, -184897.64, -187500.02, -184060.39, -184327.39, -184775.55, -187500.02, -154190.23, -187500.02, 0.00, 0.00, 0.00
3208.0, -184859.05, -187500.02, -184060.70, -184307.81, -184758.59, -187500.02, -154246.05, -187500.02, 0.00, 0.00, 0.00
3212.0, -184845.56, -187500.02, -184083.58, -184348.27, -184788.70, -187500.02, -154350.23, -187500.02, 0.00, 0.00, 0.00
3216.0, -184757.14, -187500.02, -184059.45, -184346.19, -184715.50, -187500.02, -154345.34, -187500.02, 0.00, 0.00, 0.00
3220.0, -184629.53, -187500.02, -184030.52, -184315.66, -184578.86, -187500.02, -154274.44, -187500.02, 0.00, 0.00, 0.00
3224.0, -184577.92, -187500.02, -184012.66, -184274.28, -184543.23, -187500.02, -154308.38, -187500.02, 0.00, 0.00, 0.00
3228.0, -184569.20, -187500.02, -184039.83, -184319.94, -184577.77, -187500.02, -154414.27, -187500.02, 0.00, 0.00, 0.00
3232.0, -184451.39, -187500.02, -184043.00, -184335.92, -184520.28, -187500.02, -154425.45, -187500.02, 0.00, 0.00, 0.00
3236.0, -184135.72, -187500.02, -184022.84, -184321.06, -184370.25, -187500.02, -154338.55, -187500.02, 0.00, 0.00, 0.00
3240.0, -184150.45, -187500.02, -184031.05, -184269.27, -184287.59, -187500.02, -154319.14, -187500.02, 0.00, 0.00, 0.00
3244.0, -184341.67, -187500.02, -184051.67, -184280.45, -184299.09, -187500.02, -154399.30, -187500.02, 0.00, 0.00, 0.00
3248.0, -184480.52, -187500.02, -184040.22, -184314.56, -184200.70, -187500.02, -154413.69, -187500.02, 0.00, 0.00, 0.00
3252.0, -184538.56, -187500.02, -184014.39, -184301.17, -183762.42, -187500.02, -154307.56, -187500.02, 0.00, 0.00, 0.00
3256.0, -184707.41, -187500.02, -184003.52, -184262.80, -183687.30, -187500.02, -154243.44, -187500.02, 0.00, 0.00, 0.00
3260.0, -185021.50, -187500.02, -184008.73, -184263.17, -183911.20, -187500.02, -154308.25, -187500.02, 0.00, 0.00, 0.00
3264.0, -185003.80, -187500.02, -184004.30, -184285.88, -184108.09, -187500.02, -154344.22, -187500.02, 0.00, 0.00, 0.00
3268.0, -184855.27, -187500.02, -183988.22, -184284.97, -184186.75, -187500.02, -154259.13, -187500.02, 0.00, 0.00, 0.00
3272.0, -184730.64, -187500.02, -183984.78, -184243.13, -184288.77, -187500.02, -154196.67, -187500.02, 0.00, 0.00, 0.00
3276.0, -184690.88, -187500.02, -184004.05, -184232.38, -184603.66, -187500.02, -154260.67, -187500.02, 0.00, 0.00, 0.00
3280.0, -184651.91, -187500.02, -184002.77, -184255.69, -185091.08, -187500.02, -154332.39, -187500.02, 0.00, 0.00, 0.00
3284.0, -184537.16, -187500.02, -183982.05, -184258.13, -185075.39, -187500.02, -154288.70, -187500.02, 0.00, 0.00, 0.00
3288.0, -184425.06, -187500.02, -183948.84, -184222.67, -184955.00, -187500.02, -154234.91, -187500.02, 0.00, 0.00, 0.00
3292.0, -184396.86, -187500.02, -183950.38, -184218.09, -184954.08, -187500.02, -154306.20, -187500.02, 0.00, 0.00, 0.00
3296.0, -184288.83, -187500.02, -183967.61, -184257.06, -184972.03, -187500.02, -154399.52, -187500.02, 0.00, 0.00, 0.00
3300.0, -184039.16, -187500.02, -183953.55, -184258.55, -184863.78, -187500.02, -154360.16, -187500.02, 0.00, 0.00, 0.00
3304.0, -184064.42, -187500.02, -183943.63, -184227.45, -184707.36, -187500.02, -154267.73, -187500.02, 0.00, 0.00, 0.00
3308.0, -184217.45, -187500.02, -183971.61, -184194.14, -184662.86, -187500.02, -154288.75, -187500.02, 0.00, 0.00, 0.00
3312.0, -184405.48, -187500.02, -183980.11, -184218.13, -184673.81, -187500.02, -154369.36, -187500.02, 0.00, 0.00, 0.00
3316.0, -184515.59, -187500.02, -183945.91, -184235.14, -184579.78, -187500.02, -154343.28, -187500.02, 0.00, 0.00, 0.00
3320.0, -184681.30, -187500.02, -183925.22, -184209.92, -184417.84, -187500.02, -154247.69, -187500.02, 0.00, 0.00, 0.00
3324.0, -184947.38, -187500.02, -183959.00, -184175.73, -184363.78, -187500.02, -154262.38, -187500.02, 0.00, 0.00, 0.00
3328.0, -184972.86, -187500.02, -183991.19, -184209.22, -184396.97, -187500.02, -154367.67, -187500.02, 0.00, 0.00, 0.00
3332.0, -184901.31, -187500.02, -183953.00, -184210.47, -184350.09, -187500.02, -154391.92, -187500.02, 0.00, 0.00, 0.00
3336.0, -184771.00, -187500.02, -183917.33, -184197.64, -184212.03, -187500.02, -154321.95, -187500.02, 0.00, 0.00, 0.00
3340.0, -184698.73, -187500.02, -183913.92, -184159.08, -184147.75, -187500.02, -154326.94, -187500.02, 0.00, 0.00, 0.00
3344.0, -184692.14, -187500.02, -183941.48, -184191.58, -184182.28, -187500.02, -154433.36, -187500.02, 0.00, 0.00, 0.00
3348.0, -184636.06, -187500.02, -183928.19, -184204.16, -184138.17, -187500.02, -154477.13, -187500.02, 0.00, 0.00, 0.00
3352.0, -184501.94, -187500.02, -183896.33, -184198.80, -183757.69, -187500.02, -154402.92, -187500.02, 0.00, 0.00, 0.00
3356.0, -184393.09, -187500.02, -183900.52, -184156.78, -183602.92, -187500.02, -154361.44, -187500.02, 0.00, 0.00, 0.00
3360.0, -184351.27, -187500.02, -183918.11, -184155.14, -183828.55, -187500.02, -154433.03, -187500.02, 0.00, 0.00, 0.00
3364.0, -184143.31, -187500.02, -183915.83, -184191.08, -184026.02, -187500.02, -154468.88, -187500.02, 0.00, 0.00, 0.00
3368.0, -183935.56, -187500.02, -183893.36, -184182.81, -184090.80, -187500.02, -154368.56, -187500.02, 0.00, 0.00, 0.00
3372.0, -183994.33, -187500.02, -183877.16, -184139.81, -184168.53, -187500.02, -154282.36, -187500.02, 0.00, 0.00, 0.00
3376.0, -184153.05, -187500.02, -183869.11, -184124.52, -184406.38, -187500.02, -154322.08, -187500.02, 0.00, 0.00, 0.00
3380.0, -184308.08, -187500.02, -183871.30, -184155.19, -184877.02, -187500.02, -154366.08, -187500.02, 0.00, 0.00, 0.00
3384.0, -184385.95, -187500.02, -183871.80, -184173.23, -184929.88, -187500.02, -154293.45, -187500.02, 0.00, 0.00, 0.00
3388.0, -184532.80, -187500.02, -183859.05, -184125.02, -184783.92, -187500.02, -154210.64, -187500.02, 0.00, 0.00, 0.00
3392.0, -184860.55, -187500.02, -183871.20, -184106.97, -184766.58, -187500.02, -154264.36, -187500.02, 0.00, 0.00, 0.00
3396.0, -184906.19, -187500.02, -183886.23, -184140.58, -184789.78, -187500.02, -154361.72, -187500.02, 0.00, 0.00, 0.00
3400.0, -184806.88, -187500.02, -183854.58, -184137.83, -184701.72, -187500.02, -154343.91, -187500.02, 0.00, 0.00, 0.00
3404.0, -184682.05, -187500.02, -183834.86, -184109.97, -184569.13, -187500.02, -154276.86, -187500.02, 0.00, 0.00, 0.00
3408.0, -184640.84, -187500.02, -183829.61, -184084.80, -184548.27, -187500.02, -154326.78, -187500.02, 0.00, 0.00, 0.00
3412.0, -184630.08, -187500.02, -183854.88, -184127.23, -184581.19, -187500.02, -154432.27, -187500.02, 0.00, 0.00, 0.00
3416.0, -184544.56, -187500.02, -183837.45, -184128.61, -184513.39, -187500.02, -154434.09, -187500.02, 0.00, 0.00, 0.00
3420.0, -184415.88, -187500.02, -183804.06, -184099.17, -184375.16, -187500.02, -154361.08, -187500.02, 0.00, 0.00, 0.00
3424.0, -184357.52, -187500.02, -183776.23, -184059.23, -184330.69, -187500.02, -154385.11, -187500.02, 0.00, 0.00, 0.00
3428.0, -184348.63, -187500.02, -183812.97, -184101.34, -184365.14, -187500.02, -154491.36, -187500.02, 0.00, 0.00, 0.00
3432.0, -184235.19, -187500.02, -183849.03, -184120.16, -184314.56, -187500.02, -154509.45, -187500.02, 0.00, 0.00, 0.00
3436.0, -183921.08, -187500.02, -183815.91, -184106.28, -184166.75, -187500.02, -154425.77, -187500.02, 0.00, 0.00, 0.00
3440.0, -183931.52, -187500.02, -183812.78, -184058.58, -184077.81, -187500.02, -154402.00, -187500.02, 0.00, 0.00, 0.00
3444.0, -184122.69, -187500.02, -183822.84, -184067.03, -184088.53, -187500.02, -154481.89, -187500.02, 0.00, 0.00, 0.00
3448.0, -184265.63, -187500.02, -183814.55, -184093.61, -184015.17, -187500.02, -154502.61, -187500.02, 0.00, 0.00, 0.00
3452.0, -184324.92, -187500.02, -183799.08, -184082.45, -183592.34, -187500.02, -154401.84, -187500.02, 0.00, 0.00, 0.00
3456.0, -184479.88, -187500.02, -183795.84, -184048.44, -183452.50, -187500.02, -154331.91, -187500.02, 0.00, 0.00, 0.00
3460.0, -184798.16, -187500.02, -183799.86, -184042.09, -183670.78, -187500.02, -154392.34, -187500.02, 0.00, 0.00, 0.00
3464.0, -184793.63, -187500.02, -183795.59, -184067.25, -183877.16, -187500.02, -154435.89, -187500.02, 0.00, 0.00, 0.00
3468.0, -184648.25, -187500.02, -183780.11, -184073.41, -183963.44, -187500.02, -154353.83, -187500.02, 0.00, 0.00, 0.00
3472.0, -184520.75, -187500.02, -183772.50, -184029.86, -184061.89, -187500.02, -154284.16, -187500.02, 0.00, 0.00, 0.00
3476.0, -184478.44, -187500.02, -183789.14, -184012.81, -184347.66, -187500.02, -154340.69, -187500.02, 0.00, 0.00, 0.00
3480.0, -184441.83, -187500.02, -183787.25, -184040.23, -184850.06, -187500.02, -154415.45, -187500.02, 0.00, 0.00, 0.00
3484.0, -184330.38, -187500.02, -183761.73, -184049.42, -184871.23, -187500.02, -154375.38, -187500.02, 0.00, 0.00, 0.00
3488.0, -184211.66, -187500.02, -183739.45, -184013.48, -184743.75, -187500.02, -154313.95, -187500.02, 0.00, 0.00, 0.00
3492.0, -184179.06, -187500.02, -183739.27, -184001.28, -184736.17, -187500.02, -154377.39, -187500.02, 0.00, 0.00, 0.00
3496.0, -184081.63, -187500.02, -183759.66, -184042.33, -184760.39, -187500.02, -154472.39, -187500.02, 0.00, 0.00, 0.00
3500.0, -183831.06, -187500.02, -183749.17, -184044.13, -184660.06, -187500.02, -154439.38, -187500.02, 0.00, 0.00, 0.00
3504.0, -183852.64, -187500.02, -183717.28, -184012.20, -184503.41, -187500.02, -154345.14, -187500.02, 0.00, 0.00, 0.00
3508.0, -184001.36, -187500.02, -183738.06, -183985.27, -184451.27, -187500.02, -154358.75, -187500.02, 0.00, 0.00, 0.00
3512.0, -184188.78, -187500.02, -183760.70, -184005.75, -184461.97, -187500.02, -154438.23, -187500.02, 0.00, 0.00, 0.00
3516.0, -184301.89, -187500.02, -183732.81, -184022.67, -184375.38, -187500.02, -154417.58, -187500.02, 0.00, 0.00, 0.00
3520.0, -184444.84, -187500.02, -183710.28, -183999.27, -184211.84, -187500.02, -154318.52, -187500.02, 0.00, 0.00, 0.00
3524.0, -184726.67, -187500.02, -183743.78, -183961.58, -184148.78, -187500.02, -154323.50, -187500.02, 0.00, 0.00, 0.00
3528.0, -184768.63, -187500.02, -183778.86, -183992.78, -184182.34, -187500.02, -154430.56, -187500.02, 0.00, 0.00, 0.00
3532.0, -184703.59, -187500.02, -183744.70, -183994.48, -184142.98, -187500.02, -154461.50, -187500.02, 0.00, 0.00, 0.00
3536.0, -184498.58, -187500.02, -183713.16, -183953.95, -183935.61, -187500.02, -154388.86, -187500.02, 0.00, 0.00, 0.00
3540.0, -184488.44, -187500.02, -183739.63, -183983.70, -183966.78, -187500.02, -154492.23, -187500.02, 0.00, 0.00, 0.00
3544.0, -184437.63, -187500.02, -183724.78, -183990.77, -183936.09, -187500.02, -154542.58, -187500.02, 0.00, 0.00, 0.00
3548.0, -184306.58, -187500.02, -183690.73, -183975.86, -183573.58, -187500.02, -154470.67, -187500.02, 0.00, 0.00, 0.00
3552.0, -184197.08, -187500.02, -183653.38, -183927.89, -183389.63, -187500.02, -154423.25, -187500.02, 0.00, 0.00, 0.00
3556.0, -184160.84, -187500.02, -183654.27, -183929.70, -183611.39, -187500.02, -154491.86, -187500.02, 0.00, 0.00, 0.00
3560.0, -183986.19, -187500.02, -183686.77, -183975.59, -183813.19, -187500.02, -154533.27, -187500.02, 0.00, 0.00, 0.00
3564.0, -183731.83, -187500.02, -183670.14, -183963.50, -183883.45, -187500.02, -154439.28, -187500.02, 0.00, 0.00, 0.00
3568.0, -183770.09, -187500.02, -183650.17, -183924.77, -183953.91, -187500.02, -154344.02, -187500.02, 0.00, 0.00, 0.00
3572.0, -183921.72, -187500.02, -183631.27, -183911.11, -184181.00, -187500.02, -154374.00, -187500.02, 0.00, 0.00, 0.00
3576.0, -184075.95, -187500.02, -183666.88, -183945.03, -184650.23, -187500.02, -154416.06, -187500.02, 0.00, 0.00, 0.00
3580.0, -184156.75, -187500.02, -183654.08, -183944.17, -184722.67, -187448.77, -154349.20, -187500.02, 0.00, 0.00, 0.00
3584.0, -184284.30, -187500.02, -183645.23, -183902.09, -184572.97, -187285.13, -154262.86, -187500.02, 0.00, 0.00, 0.00
3588.0, -184620.89, -187500.02, -183654.94, -183883.44, -184549.56, -187258.86, -154309.48, -187500.02, 0.00, 0.00, 0.00
3592.0, -184691.72, -187500.02, -183674.25, -183918.89, -184576.94, -187291.67, -154409.75, -187500.02, 0.00, 0.00, 0.00
3596.0, -184599.91, -187500.02, -183636.56, -183910.70, -184498.42, -187209.78, -154400.23, -187500.02, 0.00, 0.00, 0.00
3600.0, -184472.27, -187500.02, -183624.41, -183890.28, -184360.44, -187059.83, -154328.33, -187500.02, 0.00, 0.00, 0.00
3604.0, -184423.33, -187500.02, -183622.22, -183863.08, -184329.72, -187023.23, -154365.66, -187500.02, 0.00, 0.00, 0.00
3608.0, -184413.78, -187500.02, -183647.94, -183905.61, -184364.16, -187063.33, -154471.20, -187500.02, 0.00, 0.00, 0.00
3612.0, -184332.27, -187500.02, -183628.69, -183914.55, -184303.22, -187000.47, -154478.95, -187500.02, 0.00, 0.00, 0.00
3616.0, -184201.45, -187500.02, -183604.23, -183893.56, -184162.75, -186847.30, -154403.66, -187500.02, 0.00, 0.00, 0.00
3620.0, -184136.22, -187500.02, -183625.36, -183852.08, -184108.20, -186784.48, -154414.66, -187500.02, 0.00, 0.00, 0.00
3624.0, -184128.36, -187500.02, -183665.31, -183889.27, -184142.77, -186823.08, -154519.73, -187500.02, 0.00, 0.00, 0.00
3628.0, -184042.06, -187500.02, -183635.41, -183889.47, -184107.83, -186789.31, -154554.63, -187500.02, 0.00, 0.00, 0.00
3632.0, -183734.06, -187500.02, -183594.86, -183872.73, -183965.67, -186635.56, -154476.97, -187500.02, 0.00, 0.00, 0.00
3636.0, -183700.17, -187500.02, -183581.08, -183844.98, -183869.69, -186529.86, -154443.91, -187500.02, 0.00, 0.00, 0.00
3640.0, -183886.91, -187500.02, -183587.08, -183853.31, -183876.83, -186538.67, -154520.42, -187500.02, 0.00, 0.00, 0.00
3644.0, -184029.33, -187500.02, -183600.22, -183889.19, -183813.39, -186499.06, -154546.23, -187500.02, 0.00, 0.00, 0.00
3648.0, -184090.02, -187500.02, -183585.33, -183867.61, -183405.38, -186330.59, -154448.25, -187500.02, 0.00, 0.00, 0.00
3652.0, -184216.17, -187500.02, -183571.23, -183832.30, -183234.20, -186181.83, -154371.69, -187500.02, 0.00, 0.00, 0.00
3656.0, -184555.44, -187500.02, -183566.13, -183823.67, -183444.06, -186170.47, -154427.91, -187500.02, 0.00, 0.00, 0.00
3660.0, -184594.80, -187500.02, -183568.08, -183852.13, -183655.50, -186157.09, -154477.75, -187500.02, 0.00, 0.00, 0.00
3664.0, -184452.31, -187500.02, -183560.31, -183861.38, -183744.91, -186010.19, -154401.91, -187500.02, 0.00, 0.00, 0.00
3668.0, -184318.06, -187500.02, -183558.02, -183817.36, -183834.78, -185858.14, -154326.45, -187500.02, 0.00, 0.00, 0.00
3672.0, -184269.72, -187500.02, -183580.86, -183799.11, -184107.22, -185838.25, -154377.97, -187500.02, 0.00, 0.00, 0.00
3676.0, -184234.30, -187500.02, -183582.30, -183826.94, -184612.64, -185850.14, -154454.64, -187500.02, 0.00, 0.00, 0.00
3680.0, -184125.66, -187500.02, -183551.38, -183839.97, -184651.47, -185745.05, -154421.92, -187500.02, 0.00, 0.00, 0.00
3684.0, -184005.19, -187500.02, -183526.02, -183808.14, -184522.08, -185602.86, -154359.05, -187500.02, 0.00, 0.00, 0.00
3688.0, -183966.27, -187500.02, -183573.48, -183793.16, -184505.44, -185582.19, -154412.31, -187500.02, 0.00, 0.00, 0.00
3692.0, -183890.67, -187500.02, -183602.00, -183831.33, -184533.97, -185617.38, -154513.92, -187500.02, 0.00, 0.00, 0.00
3696.0, -183632.27, -187500.02, -183550.89, -183823.44, -184445.84, -185527.20, -154494.41, -187500.02, 0.00, 0.00, 0.00
3700.0, -183631.94, -187500.02, -183512.55, -183795.48, -184286.80, -185355.72, -154400.34, -187500.02, 0.00, 0.00, 0.00
3704.0, -183779.09, -187500.02, -183485.02, -183756.84, -184230.33, -185293.23, -154411.36, -187500.02, 0.00, 0.00, 0.00
3708.0, -183965.38, -187500.02, -183507.91, -183786.59, -184240.42, -185308.58, -154491.28, -187500.02, 0.00, 0.00, 0.00
3712.0, -184078.48, -187500.02, -183523.11, -183810.53, -184156.59, -185224.45, -154474.44, -187500.02, 0.00, 0.00, 0.00
3716.0, -184221.39, -187500.02, -183511.75, -183781.53, -183993.97, -185050.00, -154373.92, -187500.02, 0.00, 0.00, 0.00
3720.0, -184502.00, -187500.02, -183505.64, -183743.00, -183928.14, -184976.30, -154375.36, -187500.02, 0.00, 0.00, 0.00
3724.0, -184547.08, -187500.02, -183534.23, -183775.83, -183964.63, -185015.47, -154483.14, -187500.02, 0.00, 0.00, 0.00
3728.0, -184485.84, -187500.02, -183514.56, -183784.55, -183932.52, -184984.59, -154521.14, -187500.02, 0.00, 0.00, 0.00
3732.0, -184355.95, -187500.02, -183496.34, -183776.30, -183795.64, -184837.47, -154450.55, -187500.02, 0.00, 0.00, 0.00
3736.0, -184273.52, -187500.02, -183478.73, -183729.70, -183717.56, -184748.06, -154439.28, -187500.02, 0.00, 0.00, 0.00
3740.0, -184261.98, -187500.02, -183500.63, -183754.59, -183745.64, -184777.44, -154537.75, -187500.02, 0.00, 0.00, 0.00
3744.0, -184215.27, -187500.02, -183499.17, -183775.80, -183721.81, -184767.00, -154593.53, -187500.02, 0.00, 0.00, 0.00
3748.0, -184086.08, -187500.02, -183480.30, -183769.13, -183369.33, -184625.78, -154526.09, -187500.02, 0.00, 0.00, 0.00
3752.0, -183970.97, -187500.02, -183455.31, -183729.92, -183161.13, -184497.64, -154472.44, -187500.02, 0.00, 0.00, 0.00
3756.0, -183929.30, -187500.02, -183508.67, -183724.20, -183370.52, -184493.28, -154533.97, -187500.02, 0.00, 0.00, 0.00
3760.0, -183757.70, -187500.02, -183498.63, -183753.28, -183582.89, -184480.98, -154585.80, -187500.02, 0.00, 0.00, 0.00
3764.0, -183516.00, -187500.02, -183462.33, -183747.56, -183661.03, -184324.45, -154497.53, -187500.02, 0.00, 0.00, 0.00
3768.0, -183551.47, -187500.02, -183438.33, -183714.55, -183725.09, -184151.36, -154395.70, -187500.02, 0.00, 0.00, 0.00
3772.0, -183692.78, -187500.02, -183469.13, -183705.61, -183924.83, -184102.63, -154413.63, -187500.02, 0.00, 0.00, 0.00
3776.0, -183850.77, -187500.02, -183462.91, -183719.94, -184382.39, -184091.33, -154465.80, -187500.02, 0.00, 0.00, 0.00
3780.0, -183936.61, -187500.02, -183443.23, -183740.34, -184520.03, -183963.88, -154407.34, -187500.02, 0.00, 0.00, 0.00
3784.0, -184043.41, -187500.02, -183427.78, -183701.73, -184370.70, -183797.30, -154315.03, -187500.02, 0.00, 0.00, 0.00
3788.0, -184381.59, -187500.02, -183459.22, -183677.17, -184338.67, -183762.06, -154350.88, -187500.02, 0.00, 0.00, 0.00
3792.0, -184489.97, -187500.02, -183482.64, -183712.02, -184368.11, -183796.88, -154452.94, -187500.02, 0.00, 0.00, 0.00
3796.0, -184402.83, -187500.02, -183435.59, -183702.19, -184295.53, -183718.13, -154450.53, -187500.02, 0.00, 0.00, 0.00
3800.0, -184263.97, -187500.02, -183411.39, -183683.77, -184147.23, -183579.77, -154368.03, -187500.02, 0.00, 0.00, 0.00
3804.0, -184188.41, -187500.02, -183396.45, -183653.81, -184088.00, -183681.31, -154377.23, -187500.02, 0.00, 0.00, 0.00
3808.0, -184172.25, -187500.02, -183415.92, -183688.53, -184116.03, -183824.92, -154477.59, -187500.02, 0.00, 0.00, 0.00
3812.0, -184097.56, -187500.02, -183401.56, -183693.06, -184063.69, -183778.41, -154495.72, -187500.02, 0.00, 0.00, 0.00
3816.0, -183964.27, -187500.02, -183389.67, -183680.64, -183920.73, -183616.05, -154417.38, -187500.02, 0.00, 0.00, 0.00
3820.0, -183882.98, -187500.02, -183351.95, -183633.55, -183848.23, -183623.28, -154408.95, -187500.02, 0.00, 0.00, 0.00
3824.0, -183864.86, -187500.02, -183371.52, -183659.11, -183871.61, -183792.55, -154503.17, -187500.02, 0.00, 0.00, 0.00
3828.0, -183696.75, -187500.02, -183394.56, -183680.45, -183834.47, -183776.47, -154537.88, -187500.02, 0.00, 0.00, 0.00
3832.0, -183441.41, -187500.02, -183381.78, -183664.08, -183679.91, -183604.06, -154447.47, -187500.02, 0.00, 0.00, 0.00
3836.0, -183500.31, -187500.02, -183374.28, -183633.20, -183554.95, -183562.00, -154385.86, -187500.02, 0.00, 0.00, 0.00
3840.0, -183671.66, -187500.02, -183368.47, -183626.45, -183541.08, -183727.09, -154443.42, -187500.02, 0.00, 0.00, 0.00
3844.0, -183817.08, -187500.02, -183372.78, -183661.53, -183315.52, -183735.41, -154472.94, -187500.02, 0.00, 0.00, 0.00
3848.0, -183869.20, -187500.02, -183359.69, -183649.06, -182994.89, -183550.89, -154366.16, -187500.02, 0.00, 0.00, 0.00
3852.0, -183954.45, -187500.02, -183344.09, -183609.84, -183014.36, -183469.70, -154266.06, -187500.02, 0.00, 0.00, 0.00
3856.0, -184275.75, -187500.02, -183330.16, -183597.64, -183180.39, -183613.14, -154295.34, -187500.02, 0.00, 0.00, 0.00
3860.0, -184367.44, -187500.02, -183341.73, -183630.80, -183377.59, -183713.70, -154341.63, -187500.02, 0.00, 0.00, 0.00
3864.0, -184227.23, -187500.02, -183336.42, -183635.38, -183465.22, -183569.66, -154268.38, -187500.02, 0.00, 0.00, 0.00
3868.0, -184078.34, -187500.02, -183317.31, -183592.06, -183519.19, -183458.11, -154176.47, -187500.02, 0.00, 0.00, 0.00
3872.0, -184012.42, -187500.02, -183311.77, -183572.25, -183683.98, -183590.55, -154206.48, -187500.02, 0.00, 0.00, 0.00
3876.0, -183967.25, -187500.02, -183318.11, -183598.86, -183981.47, -183709.77, -154272.98, -187500.02, 0.00, 0.00, 0.00
3880.0, -183851.55, -187500.02, -183319.45, -183614.52, -184365.36, -183603.56, -154232.98, -187500.02, 0.00, 0.00, 0.00
3884.0, -183701.63, -187500.02, -183293.03, -183579.14, -184328.73, -183472.88, -154155.53, -187500.02, 0.00, 0.00, 0.00
3888.0, -183468.05, -187500.02, -183294.56, -183542.59, -184282.42, -183590.36, -154178.11, -187500.02, 0.00, 0.00, 0.00
3892.0, -183466.69, -187500.02, -183300.14, -183568.88, -184289.02, -183698.75, -154256.05, -187500.02, 0.00, 0.00, 0.00
3896.0, -183568.83, -187500.02, -183297.52, -183589.75, -184191.88, -183600.02, -154224.80, -187500.02, 0.00, 0.00, 0.00
3900.0, -183621.86, -187500.02, -183274.39, -183560.56, -184018.48, -183435.75, -154111.89, -187500.02, 0.00, 0.00, 0.00
3904.0, -183735.84, -187500.02, -183276.41, -183529.78, -183931.16, -183506.97, -154088.63, -187500.02, 0.00, 0.00, 0.00
3908.0, -183994.61, -187500.02, -183281.58, -183536.56, -183935.31, -183667.91, -154162.66, -187500.02, 0.00, 0.00, 0.00
3912.0, -184268.95, -187500.02, -183281.11, -183563.72, -183875.13, -183627.31, -154170.53, -187500.02, 0.00, 0.00, 0.00
3916.0, -184186.34, -187500.02, -183255.91, -183553.50, -183733.25, -183467.19, -154091.11, -187500.02, 0.00, 0.00, 0.00
3920.0, -184095.13, -187500.02, -183266.48, -183504.63, -183650.58, -183480.81, -154073.47, -187500.02, 0.00, 0.00, 0.00
3924.0, -184075.86, -187500.02, -183294.78, -183524.56, -183672.56, -183654.02, -154166.02, -187500.02, 0.00, 0.00, 0.00
3928.0, -184019.73, -187500.02, -183277.17, -183537.80, -183646.31, -183649.55, -154210.09, -187500.02, 0.00, 0.00, 0.00
3932.0, -183888.83, -187500.02, -183250.28, -183532.67, -183510.55, -183495.23, -154140.19, -187500.02, 0.00, 0.00, 0.00
3936.0, -183787.97, -187500.02, -183212.50, -183488.06, -183411.53, -183451.42, -154108.14, -187500.02, 0.00, 0.00, 0.00
3940.0, -183763.72, -187500.02, -183220.58, -183502.52, -183424.20, -183624.17, -154192.16, -187500.02, 0.00, 0.00, 0.00
3944.0, -183703.86, -187500.02, -183247.53, -183530.92, -183325.36, -183652.19, -154251.75, -187500.02, 0.00, 0.00, 0.00
3948.0, -183398.20, -187500.02, -183233.31, -183522.36, -182925.98, -183493.72, -154172.94, -187500.02, 0.00, 0.00, 0.00
3952.0, -183265.48, -187500.02, -183207.50, -183485.03, -182884.56, -183370.27, -154078.27, -187500.02, 0.00, 0.00, 0.00
3956.0, -183401.56, -187500.02, -183188.83, -183461.95, -183043.95, -183494.89, -154101.66, -187500.02, 0.00, 0.00, 0.00
3960.0, -183538.70, -187500.02, -183216.84, -183502.81, -183221.69, -183565.84, -154129.67, -187500.02, 0.00, 0.00, 0.00
3964.0, -183590.88, -187500.02, -183216.39, -183491.03, -183283.00, -183399.56, -154033.16, -187500.02, 0.00, 0.00, 0.00
