%OpenBCI Raw EEG Data
%
%Sample Rate = 250.0 Hz
%First Column = Time (ms)
%Other Columns = EEG data in microvolts followed by Accel Data (in G) interleaved with Aux Data
0.0, -155065.31, -162235.14, -162175.84, -162313.28, -162005.08, -162272.78, -162211.95, -162443.67, 0.00, 0.00, 0.00
4.0, -155078.56, -162178.31, -162201.59, -162277.08, -161758.16, -162303.59, -162340.98, -162443.44, 0.00, 0.00, 0.00
8.0, -155561.45, -162418.14, -162711.91, -162376.52, -162465.27, -162789.11, -162996.42, -162631.80, 0.00, 0.00, 0.00
12.0, -155835.22, -162498.86, -162766.58, -162447.05, -162987.53, -162793.97, -162908.73, -162632.53, 0.00, 0.00, 0.00
16.0, -155618.19, -162248.30, -162231.61, -162313.80, -162568.03, -162296.03, -162252.36, -162431.06, 0.00, 0.00, 0.00
20.0, -155543.92, -162136.23, -162135.09, -162261.81, -162381.28, -162223.69, -162229.84, -162430.95, 0.00, 0.00, 0.00
24.0, -155991.70, -162371.72, -162641.23, -162355.11, -162795.70, -162723.47, -162895.19, -162587.19, 0.00, 0.00, 0.00
28.0, -156358.38, -162516.02, -162832.81, -162460.20, -162954.98, -162850.83, -163001.03, -162668.22, 0.00, 0.00, 0.00
32.0, -156193.56, -162300.39, -162332.38, -162341.14, -162442.13, -162386.80, -162350.91, -162435.44, 0.00, 0.00, 0.00
36.0, -156040.72, -162114.67, -162077.70, -162253.41, -161856.59, -162166.77, -162174.38, -162401.44, 0.00, 0.00, 0.00
40.0, -156413.86, -162302.42, -162520.80, -162312.81, -162260.41, -162615.33, -162781.52, -162508.47, 0.00, 0.00, 0.00
44.0, -156844.80, -162483.75, -162820.27, -162431.44, -163016.66, -162846.00, -163050.81, -162663.92, 0.00, 0.00, 0.00
48.0, -156756.38, -162322.77, -162401.78, -162346.33, -162768.22, -162448.78, -162443.78, -162438.39, 0.00, 0.00, 0.00
52.0, -156547.41, -162095.20, -162050.05, -162236.16, -162371.77, -162124.13, -162120.58, -162381.66, 0.00, 0.00, 0.00
56.0, -156845.50, -162248.38, -162430.77, -162285.61, -162641.28, -162528.42, -162647.42, -162474.53, 0.00, 0.00, 0.00
60.0, -157336.20, -162478.09, -162832.20, -162419.44, -162992.80, -162867.80, -163082.59, -162667.66, 0.00, 0.00, 0.00
64.0, -157336.63, -162379.09, -162515.48, -162374.78, -162686.92, -162557.06, -162564.41, -162473.89, 0.00, 0.00, 0.00
68.0, -157091.16, -162115.77, -162055.17, -162241.94, -162107.23, -162135.23, -162109.28, -162377.64, 0.00, 0.00, 0.00
72.0, -157289.64, -162197.38, -162314.14, -162264.63, -162007.61, -162423.28, -162511.77, -162428.13, 0.00, 0.00, 0.00
76.0, -157795.33, -162435.31, -162773.94, -162387.56, -162757.39, -162828.88, -163052.53, -162634.80, 0.00, 0.00, 0.00
80.0, -157893.81, -162399.77, -162581.31, -162384.75, -162915.63, -162620.48, -162660.64, -162485.83, 0.00, 0.00, 0.00
84.0, -157637.77, -162124.27, -162065.05, -162240.69, -162418.94, -162144.27, -162107.78, -162357.17, 0.00, 0.00, 0.00
88.0, -157741.00, -162144.88, -162217.84, -162233.47, -162462.84, -162328.47, -162376.13, -162396.19, 0.00, 0.00, 0.00
92.0, -158259.38, -162404.33, -162730.73, -162356.73, -162905.39, -162807.33, -163013.77, -162604.17, 0.00, 0.00, 0.00
96.0, -158461.39, -162439.44, -162674.47, -162400.81, -162837.45, -162716.92, -162786.78, -162534.23, 0.00, 0.00, 0.00
100.0, -158218.09, -162164.63, -162126.97, -162252.14, -162243.69, -162211.77, -162158.97, -162365.50, 0.00, 0.00, 0.00
104.0, -158220.81, -162101.89, -162131.25, -162213.53, -161869.11, -162235.13, -162267.63, -162369.44, 0.00, 0.00, 0.00
108.0, -158704.06, -162343.02, -162639.56, -162310.34, -162509.38, -162722.91, -162928.20, -162547.20, 0.00, 0.00, 0.00
112.0, -158999.28, -162434.72, -162716.77, -162387.70, -163014.59, -162747.16, -162872.70, -162557.61, 0.00, 0.00, 0.00
116.0, -158792.63, -162187.58, -162182.20, -162256.09, -162559.41, -162252.88, -162214.47, -162348.73, 0.00, 0.00, 0.00
120.0, -158709.81, -162064.36, -162050.48, -162197.03, -162354.33, -162150.86, -162168.88, -162346.34, 0.00, 0.00, 0.00
124.0, -159153.64, -162296.48, -162547.47, -162283.53, -162761.53, -162652.08, -162826.50, -162497.33, 0.00, 0.00, 0.00
128.0, -159537.61, -162449.09, -162757.28, -162394.11, -162938.33, -162799.23, -162953.17, -162591.33, 0.00, 0.00, 0.00
132.0, -159390.42, -162242.70, -162271.30, -162279.83, -162474.11, -162346.69, -162300.89, -162369.48, 0.00, 0.00, 0.00
136.0, -159233.28, -162053.30, -162013.06, -162189.34, -162158.92, -162117.44, -162098.05, -162333.77, 0.00, 0.00, 0.00
140.0, -159610.30, -162245.03, -162462.53, -162253.81, -162504.70, -162576.38, -162701.34, -162450.95, 0.00, 0.00, 0.00
144.0, -160065.69, -162441.16, -162788.13, -162383.70, -162787.45, -162832.72, -162997.75, -162614.72, 0.00, 0.00, 0.00
148.0, -159996.44, -162288.81, -162383.67, -162302.09, -162349.50, -162450.02, -162402.11, -162391.28, 0.00, 0.00, 0.00
152.0, -159786.05, -162046.28, -161996.98, -162182.20, -161644.55, -162083.77, -162055.11, -162331.19, 0.00, 0.00, 0.00
156.0, -160064.88, -162175.33, -162342.55, -162223.14, -161935.45, -162440.58, -162554.44, -162412.39, 0.00, 0.00, 0.00
160.0, -160553.22, -162396.17, -162746.23, -162349.05, -162740.28, -162785.95, -162990.64, -162597.20, 0.00, 0.00, 0.00
164.0, -160570.67, -162304.14, -162446.27, -162309.16, -162757.06, -162487.61, -162492.02, -162405.00, 0.00, 0.00, 0.00
168.0, -160324.72, -162039.80, -161980.89, -162175.11, -162287.30, -162057.86, -162030.06, -162304.69, 0.00, 0.00, 0.00
172.0, -160515.61, -162122.25, -162236.80, -162196.64, -162433.45, -162348.63, -162416.94, -162359.52, 0.00, 0.00, 0.00
176.0, -161040.16, -162379.19, -162717.61, -162331.53, -162854.16, -162781.53, -162988.16, -162578.11, 0.00, 0.00, 0.00
180.0, -161163.02, -162356.30, -162547.22, -162337.55, -162679.88, -162592.70, -162622.50, -162449.92, 0.00, 0.00, 0.00
184.0, -160912.91, -162076.22, -162022.45, -162179.20, -162000.92, -162104.55, -162052.91, -162312.38, 0.00, 0.00, 0.00
188.0, -160999.03, -162075.09, -162140.55, -162171.02, -161793.59, -162242.97, -162288.45, -162322.50, 0.00, 0.00, 0.00
192.0, -161506.80, -162323.09, -162640.42, -162284.97, -162559.16, -162710.33, -162920.73, -162522.23, 0.00, 0.00, 0.00
196.0, -161724.20, -162361.84, -162600.67, -162329.58, -162924.25, -162632.61, -162715.52, -162469.06, 0.00, 0.00, 0.00
200.0, -161489.36, -162092.08, -162055.22, -162183.48, -162433.27, -162127.92, -162083.77, -162298.52, 0.00, 0.00, 0.00
204.0, -161486.45, -162028.23, -162053.72, -162147.78, -162332.13, -162152.11, -162172.47, -162309.53, 0.00, 0.00, 0.00
208.0, -161981.44, -162279.30, -162576.66, -162255.38, -162770.97, -162660.34, -162846.69, -162489.70, 0.00, 0.00, 0.00
212.0, -162300.23, -162383.23, -162678.27, -162341.42, -162848.23, -162708.73, -162824.45, -162509.84, 0.00, 0.00, 0.00
216.0, -162105.16, -162141.16, -162148.75, -162201.73, -162341.31, -162219.13, -162162.59, -162294.88, 0.00, 0.00, 0.00
220.0, -162014.63, -162007.25, -161995.83, -162136.13, -162118.78, -162096.50, -162090.98, -162293.03, 0.00, 0.00, 0.00
224.0, -162566.22, -162234.97, -162487.47, -162226.75, -162518.83, -162591.09, -162745.30, -162441.88, 0.00, 0.00, 0.00
228.0, -163083.59, -162405.89, -162727.69, -162351.02, -162723.91, -162766.50, -162912.98, -162554.38, 0.00, 0.00, 0.00
232.0, -162788.84, -162221.17, -162265.03, -162244.25, -162222.81, -162341.47, -162280.52, -162331.95, 0.00, 0.00, 0.00
236.0, -162449.39, -162028.70, -161968.31, -162135.91, -161610.50, -162070.91, -162066.23, -162309.80, 0.00, 0.00, 0.00
240.0, -162632.53, -162206.42, -162388.64, -162198.16, -162045.11, -162499.34, -162660.39, -162422.13, 0.00, 0.00, 0.00
244.0, -162900.00, -162407.69, -162734.97, -162337.61, -162842.09, -162777.09, -162988.42, -162605.53, 0.00, 0.00, 0.00
248.0, -162643.41, -162279.84, -162358.86, -162270.84, -162690.91, -162422.33, -162410.58, -162368.97, 0.00, 0.00, 0.00
252.0, -162081.02, -162035.03, -161962.44, -162139.23, -162285.70, -162064.58, -162049.78, -162314.72, 0.00, 0.00, 0.00
256.0, -162177.64, -162146.92, -162291.42, -162174.47, -162530.19, -162419.59, -162549.86, -162375.97, 0.00, 0.00, 0.00
260.0, -162871.97, -162377.73, -162725.34, -162320.98, -162913.28, -162786.61, -163016.39, -162627.80, 0.00, 0.00, 0.00
264.0, -162861.94, -162313.28, -162461.66, -162300.39, -162657.13, -162524.38, -162537.80, -162402.88, 0.00, 0.00, 0.00
268.0, -162442.22, -162055.06, -161972.33, -162144.94, -162190.20, -162092.77, -162053.47, -162308.66, 0.00, 0.00, 0.00
272.0, -162456.97, -162125.59, -162180.20, -162155.50, -162337.34, -162344.05, -162441.66, -162353.39, 0.00, 0.00, 0.00
276.0, -162801.56, -162378.33, -162682.00, -162307.67, -162780.69, -162788.73, -163022.53, -162641.38, 0.00, 0.00, 0.00
280.0, -162748.56, -162381.23, -162549.33, -162336.41, -162644.31, -162635.56, -162679.81, -162487.61, 0.00, 0.00, 0.00
284.0, -162218.27, -162102.67, -162019.34, -162161.05, -162030.42, -162160.27, -162097.13, -162318.83, 0.00, 0.00, 0.00
288.0, -161983.73, -162061.47, -162087.80, -162123.70, -161776.31, -162240.28, -162324.58, -162318.83, 0.00, 0.00, 0.00
292.0, -162596.23, -162297.00, -162593.48, -162242.64, -162527.27, -162700.39, -162951.19, -162589.83, 0.00, 0.00, 0.00
296.0, -162921.95, -162357.66, -162590.27, -162308.89, -162914.47, -162655.20, -162763.05, -162539.95, 0.00, 0.00, 0.00
300.0, -162526.66, -162105.00, -162054.70, -162161.47, -162438.59, -162168.09, -162130.56, -162314.66, 0.00, 0.00, 0.00
304.0, -162342.33, -162039.41, -162019.09, -162114.98, -162334.98, -162165.13, -162213.00, -162328.78, 0.00, 0.00, 0.00
308.0, -162652.72, -162283.06, -162549.69, -162230.81, -162787.23, -162674.02, -162891.66, -162560.55, 0.00, 0.00, 0.00
312.0, -162795.28, -162409.95, -162690.45, -162342.77, -162901.72, -162755.67, -162892.41, -162623.75, 0.00, 0.00, 0.00
316.0, -162370.59, -162186.84, -162176.08, -162207.14, -162421.31, -162294.88, -162230.81, -162319.33, 0.00, 0.00, 0.00
320.0, -161912.55, -162024.14, -161931.31, -162111.08, -162198.94, -162133.52, -162148.95, -162325.88, 0.00, 0.00, 0.00
324.0, -162342.75, -162220.75, -162370.78, -162193.73, -162600.36, -162597.63, -162798.61, -162503.91, 0.00, 0.00, 0.00
328.0, -162931.88, -162392.34, -162629.66, -162329.36, -162824.72, -162785.45, -162968.95, -162676.48, 0.00, 0.00, 0.00
332.0, -162687.25, -162217.42, -162184.16, -162229.64, -162399.77, -162373.34, -162326.67, -162358.50, 0.00, 0.00, 0.00
336.0, -162346.17, -162016.53, -161910.47, -162111.14, -162073.39, -162095.61, -162084.73, -162333.92, 0.00, 0.00, 0.00
340.0, -162533.31, -162191.05, -162352.83, -162174.50, -162412.22, -162510.61, -162683.08, -162456.36, 0.00, 0.00, 0.00
344.0, -162822.14, -162406.89, -162727.44, -162331.03, -162740.72, -162806.92, -163023.42, -162723.08, 0.00, 0.00, 0.00
348.0, -162580.69, -162289.94, -162370.08, -162272.36, -162375.11, -162469.33, -162449.25, -162407.64, 0.00, 0.00, 0.00
352.0, -162011.89, -162032.53, -161919.00, -162114.78, -161691.06, -162088.63, -162056.84, -162318.52, 0.00, 0.00, 0.00
356.0, -162098.56, -162117.67, -162165.23, -162125.95, -161894.59, -162389.31, -162538.58, -162374.56, 0.00, 0.00, 0.00
360.0, -162784.86, -162338.30, -162596.13, -162270.91, -162750.91, -162751.88, -163005.09, -162693.41, 0.00, 0.00, 0.00
364.0, -162819.63, -162282.48, -162350.91, -162258.61, -162776.94, -162505.36, -162542.63, -162450.80, 0.00, 0.00, 0.00
368.0, -162399.33, -162022.98, -161888.73, -162111.63, -162306.78, -162065.44, -162040.13, -162322.63, 0.00, 0.00, 0.00
372.0, -162397.16, -162082.17, -162129.69, -162118.34, -162432.83, -162299.14, -162403.34, -162361.28, 0.00, 0.00, 0.00
376.0, -162744.77, -162336.73, -162644.20, -162267.92, -162882.83, -162755.42, -163001.44, -162682.63, 0.00, 0.00, 0.00
380.0, -162709.56, -162351.52, -162535.23, -162306.53, -162767.23, -162621.55, -162685.00, -162531.94, 0.00, 0.00, 0.00
384.0, -162173.61, -162077.09, -162001.38, -162142.61, -162261.30, -162143.66, -162090.20, -162311.25, 0.00, 0.00, 0.00
388.0, -161942.45, -162035.39, -162061.97, -162111.75, -162263.64, -162225.95, -162305.36, -162316.58, 0.00, 0.00, 0.00
392.0, -162574.84, -162278.95, -162588.73, -162239.06, -162722.13, -162705.03, -162956.08, -162632.25, 0.00, 0.00, 0.00
396.0, -162926.23, -162357.98, -162616.56, -162320.70, -162732.73, -162688.38, -162802.08, -162601.38, 0.00, 0.00, 0.00
400.0, -162542.48, -162112.89, -162078.02, -162163.80, -162230.66, -162212.06, -162152.13, -162300.28, 0.00, 0.00, 0.00
404.0, -162355.91, -162033.09, -161952.89, -162096.08, -162119.92, -162166.08, -162219.83, -162312.31, 0.00, 0.00, 0.00
408.0, -162671.55, -162268.56, -162454.80, -162220.66, -162579.09, -162667.63, -162909.50, -162599.97, 0.00, 0.00, 0.00
412.0, -162834.58, -162408.08, -162623.70, -162345.88, -162719.89, -162773.73, -162937.63, -162701.97, 0.00, 0.00, 0.00
416.0, -162445.55, -162192.92, -162125.02, -162214.41, -162202.73, -162327.66, -162263.95, -162332.75, 0.00, 0.00, 0.00
420.0, -161978.27, -162009.91, -161932.64, -162091.05, -161685.92, -162124.42, -162153.89, -162290.80, 0.00, 0.00, 0.00
424.0, -162342.41, -162190.56, -162406.78, -162168.77, -162200.84, -162483.30, -162794.77, -162515.08, 0.00, 0.00, 0.00
428.0, -162939.81, -162367.52, -162685.13, -162309.13, -162936.17, -162677.17, -162983.03, -162730.84, 0.00, 0.00, 0.00
432.0, -162707.38, -162204.02, -162248.80, -162219.09, -162630.48, -162273.08, -162343.73, -162360.97, 0.00, 0.00, 0.00
436.0, -162356.00, -161995.42, -161916.72, -162090.42, -162286.41, -162005.97, -162070.53, -162296.09, 0.00, 0.00, 0.00
440.0, -162536.30, -162166.34, -162327.11, -162153.72, -162617.92, -162457.81, -162662.02, -162448.88, 0.00, 0.00, 0.00
444.0, -162839.45, -162392.95, -162721.95, -162317.98, -162966.98, -162783.72, -163028.97, -162762.84, 0.00, 0.00, 0.00
448.0, -162616.92, -162287.14, -162378.28, -162271.69, -162638.75, -162459.20, -162464.98, -162422.08, 0.00, 0.00, 0.00
452.0, -162064.53, -162023.00, -161914.69, -162099.30, -162212.50, -162069.97, -162052.38, -162282.64, 0.00, 0.00, 0.00
456.0, -162120.14, -162102.22, -162159.08, -162113.55, -162439.27, -162382.73, -162534.39, -162369.59, 0.00, 0.00, 0.00
460.0, -162829.33, -162340.30, -162619.03, -162275.33, -162852.48, -162781.48, -163027.67, -162739.38, 0.00, 0.00, 0.00
464.0, -162850.77, -162300.80, -162394.84, -162278.22, -162632.69, -162553.81, -162579.14, -162488.61, 0.00, 0.00, 0.00
468.0, -162420.27, -162030.41, -161902.19, -162109.03, -162143.14, -162097.22, -162044.13, -162301.98, 0.00, 0.00, 0.00
472.0, -162406.25, -162067.44, -162111.47, -162097.75, -162254.03, -162288.20, -162390.47, -162344.92, 0.00, 0.00, 0.00
476.0, -162760.66, -162321.73, -162638.66, -162253.47, -162715.02, -162748.48, -163004.61, -162704.02, 0.00, 0.00, 0.00
480.0, -162738.80, -162347.08, -162546.75, -162303.44, -162616.11, -162630.70, -162705.97, -162560.47, 0.00, 0.00, 0.00
484.0, -162210.00, -162069.83, -162001.22, -162131.33, -161979.11, -162140.11, -162079.88, -162282.58, 0.00, 0.00, 0.00
488.0, -161936.53, -162010.38, -162030.52, -162083.22, -161688.84, -162173.39, -162256.09, -162274.03, 0.00, 0.00, 0.00
492.0, -162541.67, -162244.80, -162545.86, -162195.86, -162431.08, -162646.69, -162905.34, -162594.70, 0.00, 0.00, 0.00
496.0, -162896.73, -162326.83, -162585.64, -162278.86, -162880.52, -162639.89, -162772.81, -162580.89, 0.00, 0.00, 0.00
500.0, -162503.45, -162076.22, -162044.75, -162131.48, -162409.72, -162146.70, -162106.72, -162294.00, 0.00, 0.00, 0.00
504.0, -162284.55, -161978.38, -161957.73, -162068.33, -162259.58, -162085.44, -162126.67, -162294.89, 0.00, 0.00, 0.00
508.0, -162584.38, -162219.50, -162481.44, -162174.58, -162704.17, -162592.23, -162807.53, -162529.05, 0.00, 0.00, 0.00
512.0, -162752.95, -162364.11, -162661.17, -162296.38, -162854.72, -162709.83, -162860.48, -162633.92, 0.00, 0.00, 0.00
516.0, -162337.11, -162148.88, -162156.22, -162169.59, -162377.50, -162249.94, -162184.50, -162300.55, 0.00, 0.00, 0.00
520.0, -161847.28, -161961.94, -161918.22, -162060.36, -162109.64, -162047.28, -162036.58, -162265.70, 0.00, 0.00, 0.00
524.0, -162241.70, -162152.22, -162380.48, -162129.84, -162490.42, -162504.95, -162677.13, -162431.94, 0.00, 0.00, 0.00
528.0, -162861.42, -162339.27, -162678.34, -162271.33, -162749.84, -162728.88, -162912.86, -162645.53, 0.00, 0.00, 0.00
532.0, -162648.00, -162177.92, -162246.88, -162184.97, -162319.08, -162329.09, -162287.22, -162314.00, 0.00, 0.00, 0.00
536.0, -162277.73, -161959.77, -161884.47, -162057.52, -161685.61, -162003.14, -161992.81, -162266.86, 0.00, 0.00, 0.00
540.0, -162427.02, -162109.63, -162261.08, -162106.72, -161972.41, -162392.39, -162551.64, -162363.00, 0.00, 0.00, 0.00
544.0, -162722.06, -162324.70, -162654.73, -162252.89, -162814.03, -162716.20, -162940.64, -162638.81, 0.00, 0.00, 0.00
548.0, -162498.11, -162222.61, -162324.27, -162208.39, -162676.08, -162398.14, -162395.30, -162346.02, 0.00, 0.00, 0.00
552.0, -161902.27, -161956.52, -161874.66, -162055.34, -162227.09, -161991.45, -161960.42, -162258.11, 0.00, 0.00, 0.00
556.0, -161978.80, -162037.09, -162155.91, -162077.70, -162422.33, -162295.41, -162405.88, -162318.45, 0.00, 0.00, 0.00
560.0, -162681.73, -162278.73, -162626.09, -162221.48, -162836.66, -162699.92, -162939.16, -162612.94, 0.00, 0.00, 0.00
564.0, -162769.84, -162245.77, -162418.81, -162225.58, -162631.27, -162484.13, -162519.34, -162399.08, 0.00, 0.00, 0.00
568.0, -162338.77, -161979.08, -161903.94, -162067.83, -162132.64, -162019.34, -161971.84, -162247.19, 0.00, 0.00, 0.00
572.0, -162303.47, -162019.91, -162064.09, -162065.92, -162218.73, -162214.73, -162287.88, -162281.23, 0.00, 0.00, 0.00
576.0, -162651.09, -162279.22, -162585.08, -162209.67, -162677.69, -162688.78, -162915.75, -162583.55, 0.00, 0.00, 0.00
580.0, -162642.59, -162311.92, -162514.67, -162262.08, -162598.39, -162589.00, -162648.66, -162471.16, 0.00, 0.00, 0.00
584.0, -162090.94, -162038.47, -161968.05, -162092.55, -161969.86, -162096.39, -162027.50, -162243.34, 0.00, 0.00, 0.00
588.0, -161833.58, -161970.66, -161974.91, -162041.30, -161649.84, -162119.19, -162176.25, -162240.05, 0.00, 0.00, 0.00
592.0, -162423.75, -162197.17, -162487.28, -162147.69, -162380.92, -162595.88, -162830.03, -162500.17, 0.00, 0.00, 0.00
596.0, -162831.69, -162285.14, -162546.00, -162232.23, -162849.23, -162605.34, -162729.45, -162502.30, 0.00, 0.00, 0.00
600.0, -162462.17, -162041.53, -162013.42, -162089.72, -162385.63, -162118.31, -162068.72, -162236.11, 0.00, 0.00, 0.00
604.0, -162231.09, -161940.19, -161907.84, -162028.03, -162218.36, -162041.14, -162064.58, -162219.28, 0.00, 0.00, 0.00
608.0, -162519.44, -162179.06, -162420.53, -162131.97, -162653.33, -162546.22, -162741.97, -162435.28, 0.00, 0.00, 0.00
612.0, -162702.72, -162331.08, -162621.03, -162256.98, -162823.72, -162682.42, -162830.83, -162558.86, 0.00, 0.00, 0.00
616.0, -162307.20, -162125.28, -162130.94, -162133.00, -162360.89, -162235.53, -162171.63, -162242.05, 0.00, 0.00, 0.00
620.0, -161806.78, -161928.09, -161859.22, -162020.06, -162080.67, -162013.73, -162008.33, -162217.13, 0.00, 0.00, 0.00
624.0, -162169.36, -162105.17, -162298.48, -162094.06, -162449.75, -162464.45, -162632.98, -162362.48, 0.00, 0.00, 0.00
628.0, -162803.31, -162295.70, -162611.58, -162233.05, -162721.30, -162703.95, -162884.69, -162581.13, 0.00, 0.00, 0.00
632.0, -162622.25, -162144.80, -162198.61, -162151.91, -162312.58, -162318.83, -162273.53, -162281.34, 0.00, 0.00, 0.00
636.0, -162245.83, -161925.03, -161838.22, -162023.45, -161682.95, -161977.92, -161959.19, -162224.38, 0.00, 0.00, 0.00
640.0, -162376.83, -162068.00, -162209.94, -162063.80, -161913.27, -162342.92, -162498.89, -162296.95, 0.00, 0.00, 0.00
644.0, -162678.92, -162287.14, -162617.05, -162208.25, -162758.45, -162678.66, -162920.45, -162579.00, 0.00, 0.00, 0.00
648.0, -162483.08, -162199.66, -162313.36, -162173.34, -162673.36, -162383.97, -162401.75, -162316.08, 0.00, 0.00, 0.00
652.0, -161899.56, -161936.58, -161857.42, -162026.31, -162226.20, -161976.36, -161952.11, -162228.08, 0.00, 0.00, 0.00
656.0, -161942.05, -162006.20, -162119.30, -162040.53, -162407.86, -162264.88, -162380.20, -162270.58, 0.00, 0.00, 0.00
660.0, -162647.25, -162246.41, -162598.91, -162188.19, -162830.98, -162678.69, -162918.02, -162576.66, 0.00, 0.00, 0.00
664.0, -162756.81, -162225.98, -162417.56, -162201.70, -162649.91, -162486.31, -162523.53, -162377.73, 0.00, 0.00, 0.00
668.0, -162335.16, -161961.16, -161885.63, -162039.23, -162157.14, -162024.38, -161974.34, -162209.48, 0.00, 0.00, 0.00
672.0, -162292.72, -161985.25, -161962.59, -162020.30, -162231.91, -162185.97, -162278.75, -162230.34, 0.00, 0.00, 0.00
676.0, -162641.92, -162238.70, -162475.97, -162169.23, -162697.27, -162659.72, -162910.50, -162563.61, 0.00, 0.00, 0.00
680.0, -162655.81, -162284.92, -162432.58, -162229.78, -162643.17, -162582.20, -162666.89, -162469.50, 0.00, 0.00, 0.00
684.0, -162155.39, -162018.38, -161901.77, -162064.16, -162134.23, -162100.48, -162037.56, -162213.80, 0.00, 0.00, 0.00
688.0, -161845.22, -161936.95, -161921.16, -162014.05, -162075.20, -162105.47, -162173.59, -162217.48, 0.00, 0.00, 0.00
692.0, -162428.38, -162174.94, -162449.64, -162131.86, -162527.08, -162590.97, -162837.30, -162503.23, 0.00, 0.00, 0.00
696.0, -162842.20, -162280.44, -162539.16, -162229.36, -162594.56, -162627.73, -162765.89, -162531.47, 0.00, 0.00, 0.00
700.0, -162479.56, -162046.09, -162014.05, -162085.28, -162021.23, -162153.11, -162094.73, -162224.84, 0.00, 0.00, 0.00
704.0, -162236.13, -161923.52, -161866.98, -162010.22, -161547.94, -162018.45, -162061.09, -162226.81, 0.00, 0.00, 0.00
708.0, -162505.73, -162140.98, -162360.52, -162107.45, -162150.44, -162494.31, -162722.50, -162434.48, 0.00, 0.00, 0.00
712.0, -162696.06, -162292.64, -162576.33, -162232.36, -162824.83, -162645.64, -162829.66, -162572.56, 0.00, 0.00, 0.00
716.0, -162323.41, -162097.38, -162100.30, -162115.70, -162472.91, -162211.39, -162179.33, -162229.42, 0.00, 0.00, 0.00
720.0, -161812.47, -161896.58, -161825.00, -161991.11, -162179.05, -161974.53, -161995.69, -162197.75, 0.00, 0.00, 0.00
724.0, -162150.08, -162068.52, -162261.30, -162055.59, -162536.05, -162417.72, -162612.38, -162348.22, 0.00, 0.00, 0.00
728.0, -162794.48, -162266.16, -162592.44, -162200.55, -162824.83, -162675.39, -162896.84, -162593.67, 0.00, 0.00, 0.00
732.0, -162622.41, -162127.67, -162198.05, -162128.34, -162449.48, -162307.66, -162293.91, -162264.41, 0.00, 0.00, 0.00
736.0, -162245.58, -161903.22, -161813.19, -161992.78, -162062.48, -161965.81, -161952.39, -162212.42, 0.00, 0.00, 0.00
740.0, -162378.31, -162042.41, -162171.64, -162039.23, -162342.39, -162334.91, -162489.80, -162309.25, 0.00, 0.00, 0.00
744.0, -162696.86, -162273.92, -162601.98, -162198.88, -162724.09, -162690.31, -162923.11, -162617.00, 0.00, 0.00, 0.00
748.0, -162521.45, -162197.97, -162316.66, -162171.98, -162448.30, -162412.52, -162416.08, -162326.72, 0.00, 0.00, 0.00
752.0, -161958.66, -161929.48, -161825.27, -162008.72, -161995.00, -161994.34, -161950.75, -162190.89, 0.00, 0.00, 0.00
756.0, -161948.27, -161983.75, -162003.81, -162020.77, -162161.77, -162238.09, -162362.48, -162241.19, 0.00, 0.00, 0.00
760.0, -162650.20, -162224.58, -162479.50, -162169.55, -162590.14, -162653.22, -162916.81, -162586.97, 0.00, 0.00, 0.00
764.0, -162763.75, -162214.36, -162318.61, -162189.33, -162424.80, -162476.92, -162542.13, -162396.23, 0.00, 0.00, 0.00
768.0, -162336.16, -161940.66, -161813.33, -162023.39, -161735.14, -162002.05, -161963.94, -162196.92, 0.00, 0.00, 0.00
772.0, -162262.89, -161938.25, -161959.50, -161997.95, -161590.66, -162116.50, -162224.47, -162200.44, 0.00, 0.00, 0.00
776.0, -162595.77, -162183.27, -162481.59, -162127.91, -162412.48, -162584.02, -162849.69, -162523.47, 0.00, 0.00, 0.00
780.0, -162620.83, -162234.97, -162454.97, -162190.94, -162765.70, -162520.63, -162628.58, -162448.09, 0.00, 0.00, 0.00
784.0, -162116.22, -161973.66, -161917.63, -162032.78, -162285.66, -162036.59, -161997.38, -162194.56, 0.00, 0.00, 0.00
788.0, -161792.06, -161892.83, -161892.41, -161985.36, -162203.39, -162037.63, -162104.20, -162197.95, 0.00, 0.00, 0.00
792.0, -162365.92, -162130.47, -162412.98, -162097.66, -162650.48, -162529.56, -162772.59, -162459.73, 0.00, 0.00, 0.00
796.0, -162803.00, -162242.81, -162523.58, -162198.13, -162736.05, -162584.06, -162733.97, -162503.02, 0.00, 0.00, 0.00
800.0, -162449.98, -162012.39, -162002.73, -162056.80, -162245.08, -162113.59, -162068.31, -162188.28, 0.00, 0.00, 0.00
804.0, -162198.98, -161884.42, -161838.88, -161969.39, -162047.58, -161983.16, -162018.36, -162194.88, 0.00, 0.00, 0.00
808.0, -162472.08, -162110.00, -162336.73, -162066.89, -162469.80, -162467.53, -162685.48, -162404.06, 0.00, 0.00, 0.00
812.0, -162682.77, -162277.81, -162579.91, -162204.08, -162678.69, -162640.98, -162823.36, -162566.63, 0.00, 0.00, 0.00
816.0, -162335.08, -162092.39, -162116.50, -162096.91, -162242.70, -162220.50, -162174.33, -162223.45, 0.00, 0.00, 0.00
820.0, -161819.92, -161878.97, -161780.63, -161975.36, -161936.23, -161961.98, -161962.28, -162191.41, 0.00, 0.00, 0.00
824.0, -162114.22, -162036.22, -162158.13, -162033.56, -162282.52, -162381.02, -162567.23, -162331.70, 0.00, 0.00, 0.00
828.0, -162767.61, -162237.00, -162502.27, -162181.70, -162586.30, -162652.03, -162869.94, -162589.44, 0.00, 0.00, 0.00
832.0, -162616.22, -162107.50, -162124.17, -162115.77, -162192.67, -162295.25, -162280.86, -162262.34, 0.00, 0.00, 0.00
836.0, -162227.09, -161873.72, -161751.83, -161977.56, -161508.05, -161925.63, -161916.59, -162177.23, 0.00, 0.00, 0.00
840.0, -162329.81, -161998.31, -162110.61, -162015.45, -161761.89, -162259.28, -162420.48, -162244.06, 0.00, 0.00, 0.00
844.0, -162642.38, -162225.63, -162544.03, -162161.09, -162616.22, -162621.70, -162869.69, -162563.20, 0.00, 0.00, 0.00
848.0, -162478.56, -162158.23, -162276.81, -162140.63, -162621.88, -162357.59, -162384.91, -162298.83, 0.00, 0.00, 0.00
852.0, -161895.00, -161886.22, -161800.72, -161977.81, -162160.02, -161927.83, -161903.22, -162172.36, 0.00, 0.00, 0.00
856.0, -161875.59, -161934.41, -162026.45, -161986.27, -162301.94, -162176.00, -162287.41, -162207.81, 0.00, 0.00, 0.00
860.0, -162570.31, -162181.80, -162520.13, -162128.66, -162735.25, -162607.55, -162852.06, -162530.45, 0.00, 0.00, 0.00
864.0, -162730.63, -162179.95, -162378.09, -162154.06, -162590.30, -162446.11, -162500.31, -162359.59, 0.00, 0.00, 0.00
868.0, -162307.00, -161912.41, -161847.05, -161991.52, -162084.70, -161969.34, -161923.23, -162162.84, 0.00, 0.00, 0.00
872.0, -162225.53, -161913.30, -161930.36, -161966.97, -162111.50, -162089.92, -162167.31, -162172.92, 0.00, 0.00, 0.00
876.0, -162568.45, -162166.33, -162457.88, -162104.52, -162576.17, -162577.42, -162819.33, -162488.84, 0.00, 0.00, 0.00
880.0, -162614.97, -162232.36, -162457.77, -162178.73, -162561.77, -162537.88, -162635.13, -162435.11, 0.00, 0.00, 0.00
884.0, -162133.11, -161971.39, -161914.25, -162016.19, -162052.02, -162053.81, -161993.50, -162164.83, 0.00, 0.00, 0.00
888.0, -161778.66, -161869.41, -161849.38, -161956.52, -161952.33, -162021.75, -162077.48, -162145.19, 0.00, 0.00, 0.00
892.0, -162322.30, -162101.86, -162364.66, -162067.27, -162395.75, -162505.41, -162743.84, -162416.33, 0.00, 0.00, 0.00
896.0, -162782.39, -162223.55, -162495.28, -162174.73, -162500.39, -162577.28, -162729.64, -162483.78, 0.00, 0.00, 0.00
900.0, -162441.61, -161999.09, -161982.53, -162037.36, -161914.31, -162111.36, -162062.34, -162160.20, 0.00, 0.00, 0.00
904.0, -162170.38, -161851.97, -161801.13, -161943.28, -161415.17, -161940.69, -161977.88, -162159.47, 0.00, 0.00, 0.00
908.0, -162419.06, -162057.42, -162282.75, -162026.20, -162011.77, -162404.81, -162626.86, -162342.75, 0.00, 0.00, 0.00
912.0, -162634.84, -162225.17, -162539.00, -162158.06, -162730.91, -162591.66, -162792.36, -162515.23, 0.00, 0.00, 0.00
916.0, -162287.41, -162044.73, -162085.19, -162057.16, -162419.11, -162172.34, -162148.58, -162191.77, 0.00, 0.00, 0.00
920.0, -161749.83, -161829.83, -161768.11, -161944.33, -162085.23, -161897.50, -161904.16, -162161.20, 0.00, 0.00, 0.00
924.0, -162036.38, -161988.83, -162171.78, -162000.00, -162412.16, -162321.84, -162490.27, -162272.45, 0.00, 0.00, 0.00
928.0, -162705.73, -162197.23, -162536.61, -162146.28, -162731.28, -162612.95, -162827.36, -162528.61, 0.00, 0.00, 0.00
932.0, -162590.36, -162080.45, -162177.30, -162090.64, -162388.70, -162275.67, -162262.17, -162224.06, 0.00, 0.00, 0.00
936.0, -162202.38, -161851.55, -161759.22, -161946.66, -161980.30, -161909.48, -161892.25, -162153.77, 0.00, 0.00, 0.00
940.0, -162307.91, -161978.89, -162082.31, -161988.23, -162229.78, -162252.63, -162399.16, -162230.19, 0.00, 0.00, 0.00
944.0, -162643.48, -162221.16, -162544.66, -162154.08, -162638.06, -162641.14, -162885.00, -162563.69, 0.00, 0.00, 0.00
948.0, -162506.92, -162170.17, -162303.92, -162147.91, -162403.88, -162401.75, -162420.16, -162305.02, 0.00, 0.00, 0.00
952.0, -161954.30, -161893.92, -161792.14, -161965.08, -161932.95, -161964.33, -161908.39, -162144.58, 0.00, 0.00, 0.00
956.0, -161884.72, -161924.61, -161933.06, -161956.52, -162066.14, -162164.92, -162281.84, -162192.80, 0.00, 0.00, 0.00
960.0, -162583.09, -162169.64, -162425.16, -162108.02, -162509.11, -162599.23, -162859.47, -162539.69, 0.00, 0.00, 0.00
964.0, -162738.58, -162177.33, -162305.98, -162140.11, -162379.47, -162454.89, -162526.84, -162375.22, 0.00, 0.00, 0.00
968.0, -162307.95, -161899.77, -161781.89, -161972.06, -161664.31, -161961.72, -161912.17, -162132.42, 0.00, 0.00, 0.00
972.0, -162199.23, -161876.67, -161879.86, -161942.78, -161484.80, -162034.73, -162114.00, -162150.97, 0.00, 0.00, 0.00
976.0, -162531.64, -162129.09, -162411.95, -162071.73, -162299.44, -162519.17, -162768.23, -162454.91, 0.00, 0.00, 0.00
980.0, -162593.89, -162205.58, -162435.64, -162151.55, -162725.98, -162498.30, -162613.94, -162422.05, 0.00, 0.00, 0.00
984.0, -162109.83, -161948.52, -161896.77, -161994.73, -162255.55, -162013.42, -161965.36, -162139.84, 0.00, 0.00, 0.00
988.0, -161745.39, -161841.52, -161819.84, -161929.39, -162136.91, -161976.67, -162024.06, -162124.06, 0.00, 0.00, 0.00
992.0, -162288.23, -162076.03, -162335.97, -162040.95, -162584.30, -162475.42, -162701.25, -162393.75, 0.00, 0.00, 0.00
996.0, -162775.44, -162209.64, -162492.77, -162157.41, -162714.44, -162571.09, -162722.17, -162486.61, 0.00, 0.00, 0.00
1000.0, -162448.31, -161991.45, -161984.77, -162021.55, -162235.69, -162111.97, -162053.09, -162154.80, 0.00, 0.00, 0.00
1004.0, -162176.34, -161840.28, -161775.69, -161916.72, -162004.61, -161941.16, -161955.28, -162140.11, 0.00, 0.00, 0.00
1008.0, -162440.94, -162055.59, -162265.17, -162015.55, -162418.97, -162421.31, -162621.41, -162351.00, 0.00, 0.00, 0.00
1012.0, -162680.73, -162240.58, -162553.19, -162164.92, -162669.67, -162636.11, -162817.30, -162561.58, 0.00, 0.00, 0.00
1016.0, -162363.42, -162069.08, -162110.58, -162064.47, -162251.39, -162234.39, -162177.55, -162185.61, 0.00, 0.00, 0.00
1020.0, -161842.53, -161847.03, -161747.20, -161920.45, -161918.80, -161940.38, -161925.52, -162107.03, 0.00, 0.00, 0.00
1024.0, -162095.41, -161999.38, -162112.59, -161984.47, -162255.42, -162255.89, -162522.80, -162272.11, 0.00, 0.00, 0.00
1028.0, -162766.78, -162215.39, -162496.95, -162147.69, -162597.17, -162544.88, -162872.81, -162586.67, 0.00, 0.00, 0.00
1032.0, -162626.97, -162102.47, -162149.06, -162090.53, -162251.58, -162211.08, -162303.59, -162249.52, 0.00, 0.00, 0.00
1036.0, -162225.53, -161846.83, -161726.28, -161931.61, -161579.75, -161826.52, -161888.52, -162124.63, 0.00, 0.00, 0.00
1040.0, -162310.58, -161946.08, -162046.16, -161960.11, -161728.19, -162166.42, -162370.80, -162203.67, 0.00, 0.00, 0.00
1044.0, -162640.66, -162181.13, -162509.66, -162116.45, -162607.13, -162563.98, -162866.86, -162558.16, 0.00, 0.00, 0.00
1048.0, -162512.42, -162131.45, -162278.89, -162106.89, -162630.55, -162326.45, -162414.19, -162300.64, 0.00, 0.00, 0.00
1052.0, -161955.23, -161854.45, -161767.80, -161936.02, -162146.08, -161872.61, -161881.55, -162116.58, 0.00, 0.00, 0.00
1056.0, -161852.81, -161887.80, -161943.39, -161933.80, -162258.61, -162096.48, -162230.08, -162161.39, 0.00, 0.00, 0.00
1060.0, -162549.80, -162141.69, -162459.64, -162086.08, -162714.41, -162562.91, -162838.17, -162514.31, 0.00, 0.00, 0.00
1064.0, -162733.61, -162159.70, -162362.55, -162124.50, -162609.52, -162438.08, -162535.02, -162369.53, 0.00, 0.00, 0.00
1068.0, -162309.02, -161887.52, -161821.39, -161953.63, -162093.22, -161949.63, -161911.84, -162113.31, 0.00, 0.00, 0.00
1072.0, -162208.03, -161872.20, -161878.72, -161926.38, -162090.53, -162042.41, -162115.56, -162136.70, 0.00, 0.00, 0.00
1076.0, -162561.91, -162141.30, -162429.66, -162078.95, -162574.41, -162549.91, -162791.53, -162482.69, 0.00, 0.00, 0.00
1080.0, -162642.28, -162228.86, -162478.48, -162168.38, -162603.22, -162549.86, -162658.88, -162468.77, 0.00, 0.00, 0.00
1084.0, -162186.06, -161969.88, -161930.78, -161995.63, -162091.30, -162065.14, -161984.67, -162138.30, 0.00, 0.00, 0.00
1088.0, -161804.61, -161847.64, -161789.50, -161905.92, -161965.47, -161986.53, -162029.36, -162129.88, 0.00, 0.00, 0.00
1092.0, -162350.34, -162076.72, -162292.30, -162038.45, -162426.59, -162474.25, -162720.31, -162433.63, 0.00, 0.00, 0.00
1096.0, -162818.53, -162220.02, -162476.17, -162165.97, -162581.05, -162592.16, -162764.89, -162553.55, 0.00, 0.00, 0.00
1100.0, -162479.39, -162000.70, -161970.75, -162025.05, -162070.73, -162134.47, -162085.22, -162164.19, 0.00, 0.00, 0.00
1104.0, -162195.25, -161834.17, -161747.47, -161907.06, -161543.00, -161927.56, -161959.73, -162125.75, 0.00, 0.00, 0.00
1108.0, -162450.11, -162040.48, -162235.08, -162008.36, -162035.91, -162384.80, -162620.45, -162366.00, 0.00, 0.00, 0.00
1112.0, -162699.34, -162229.16, -162540.22, -162161.03, -162790.97, -162614.55, -162836.91, -162604.73, 0.00, 0.00, 0.00
1116.0, -162392.53, -162057.63, -162101.53, -162055.86, -162472.66, -162208.59, -162190.05, -162197.59, 0.00, 0.00, 0.00
1120.0, -161866.13, -161828.64, -161712.67, -161906.22, -162115.16, -161897.45, -161896.36, -162103.25, 0.00, 0.00, 0.00
1124.0, -162080.97, -161983.88, -162073.55, -161980.61, -162448.36, -162312.16, -162489.84, -162287.22, 0.00, 0.00, 0.00
1128.0, -162763.31, -162211.23, -162481.00, -162152.94, -162812.02, -162645.95, -162867.44, -162623.27, 0.00, 0.00, 0.00
1132.0, -162629.63, -162099.16, -162141.66, -162092.05, -162484.45, -162320.00, -162302.06, -162267.38, 0.00, 0.00, 0.00
1136.0, -162223.05, -161835.91, -161710.13, -161922.20, -162042.08, -161913.66, -161864.22, -162097.33, 0.00, 0.00, 0.00
1140.0, -162318.23, -161946.78, -162044.69, -161959.48, -162279.52, -162219.86, -162358.19, -162218.00, 0.00, 0.00, 0.00
1144.0, -162677.31, -162208.02, -162545.56, -162144.94, -162723.47, -162643.80, -162888.42, -162622.72, 0.00, 0.00, 0.00
1148.0, -162561.38, -162162.91, -162329.14, -162134.28, -162508.16, -162416.58, -162442.91, -162359.80, 0.00, 0.00, 0.00
1152.0, -162029.53, -161874.61, -161786.08, -161937.84, -162003.30, -161945.17, -161878.23, -162105.11, 0.00, 0.00, 0.00
1156.0, -161897.69, -161899.80, -161905.89, -161933.69, -162118.16, -162132.48, -162229.92, -162164.16, 0.00, 0.00, 0.00
1160.0, -162607.23, -162160.89, -162437.75, -162112.53, -162601.94, -162608.63, -162855.83, -162584.27, 0.00, 0.00, 0.00
1164.0, -162771.67, -162186.08, -162359.83, -162153.08, -162514.52, -162497.16, -162563.09, -162444.36, 0.00, 0.00, 0.00
1168.0, -162338.64, -161902.27, -161808.66, -161956.69, -161984.89, -161997.25, -161914.72, -162110.14, 0.00, 0.00, 0.00
1172.0, -162233.19, -161872.27, -161869.52, -161912.14, -161974.50, -162047.27, -162108.09, -162142.72, 0.00, 0.00, 0.00
1176.0, -162602.92, -162151.03, -162447.69, -162087.48, -162480.44, -162565.38, -162807.02, -162545.17, 0.00, 0.00, 0.00
1180.0, -162698.47, -162244.94, -162516.42, -162179.33, -162527.00, -162579.66, -162691.25, -162547.95, 0.00, 0.00, 0.00
1184.0, -162266.33, -161974.80, -161954.61, -161993.34, -161913.94, -162074.81, -161989.36, -162135.66, 0.00, 0.00, 0.00
1188.0, -161880.25, -161846.77, -161790.02, -161895.22, -161483.13, -161973.55, -162002.05, -162106.00, 0.00, 0.00, 0.00
1192.0, -162338.19, -162072.47, -162296.91, -162029.89, -162192.59, -162464.45, -162702.41, -162452.89, 0.00, 0.00, 0.00
1196.0, -162811.00, -162216.45, -162495.08, -162155.63, -162811.73, -162591.50, -162769.08, -162590.09, 0.00, 0.00, 0.00
1200.0, -162465.86, -161987.13, -161981.13, -162003.16, -162377.50, -162115.94, -162068.14, -162157.36, 0.00, 0.00, 0.00
1204.0, -162167.36, -161814.91, -161743.14, -161897.86, -162104.95, -161906.06, -161908.56, -162099.30, 0.00, 0.00, 0.00
1208.0, -162440.50, -162043.33, -162250.95, -162020.22, -162533.03, -162409.20, -162593.84, -162375.27, 0.00, 0.00, 0.00
1212.0, -162714.88, -162250.39, -162586.89, -162186.08, -162827.98, -162666.89, -162850.73, -162646.23, 0.00, 0.00, 0.00
1216.0, -162409.53, -162069.72, -162144.67, -162064.83, -162404.02, -162251.44, -162191.61, -162216.33, 0.00, 0.00, 0.00
1220.0, -161883.83, -161825.19, -161736.19, -161899.77, -162026.66, -161913.48, -161866.64, -162078.84, 0.00, 0.00, 0.00
1224.0, -162100.03, -161987.83, -162105.00, -161983.78, -162369.86, -162321.77, -162472.86, -162287.50, 0.00, 0.00, 0.00
1228.0, -162796.47, -162234.23, -162544.27, -162174.44, -162763.31, -162683.25, -162891.70, -162664.19, 0.00, 0.00, 0.00
1232.0, -162656.86, -162121.59, -162212.91, -162103.70, -162439.80, -162358.31, -162327.97, -162295.72, 0.00, 0.00, 0.00
1236.0, -162245.52, -161848.44, -161721.39, -161903.80, -161981.50, -161940.91, -161863.61, -162087.47, 0.00, 0.00, 0.00
1240.0, -162361.41, -161963.03, -161990.66, -161962.88, -162234.80, -162190.33, -162374.38, -162248.88, 0.00, 0.00, 0.00
1244.0, -162752.72, -162243.80, -162519.39, -162181.25, -162714.23, -162614.09, -162938.13, -162697.56, 0.00, 0.00, 0.00
1248.0, -162652.47, -162204.91, -162319.75, -162169.05, -162512.11, -162395.86, -162501.69, -162426.48, 0.00, 0.00, 0.00
1252.0, -162214.20, -161904.98, -161767.92, -161935.20, -161996.66, -161910.31, -161903.05, -162045.88, 0.00, 0.00, 0.00
1256.0, -162224.78, -161928.89, -161899.78, -161924.56, -162124.14, -162133.61, -162263.64, -162167.00, 0.00, 0.00, 0.00
1260.0, -162635.05, -162220.13, -162476.97, -162153.39, -162651.66, -162663.61, -162934.69, -162688.02, 0.00, 0.00, 0.00
1264.0, -162644.05, -162256.02, -162424.58, -162199.67, -162583.59, -162568.88, -162662.16, -162556.77, 0.00, 0.00, 0.00
1268.0, -162206.42, -161957.03, -161849.48, -161971.64, -162042.47, -162061.25, -161975.89, -162051.70, 0.00, 0.00, 0.00
1272.0, -162122.14, -161899.56, -161848.80, -161909.02, -162046.31, -162084.52, -162178.31, -162124.39, 0.00, 0.00, 0.00
1276.0, -162530.06, -162189.59, -162443.94, -162136.75, -162593.42, -162586.41, -162910.89, -162665.63, 0.00, 0.00, 0.00
1280.0, -162647.64, -162297.52, -162541.98, -162239.55, -162664.81, -162620.56, -162816.05, -162695.33, 0.00, 0.00, 0.00
1284.0, -162190.20, -162021.06, -161976.45, -162030.38, -162129.36, -162111.78, -162078.78, -162075.09, 0.00, 0.00, 0.00
1288.0, -161819.38, -161877.78, -161824.52, -161910.75, -161993.19, -162003.72, -162092.34, -161982.02, 0.00, 0.00, 0.00
1292.0, -162428.83, -162128.31, -162386.11, -162110.33, -162512.31, -162486.47, -162837.39, -162582.19, 0.00, 0.00, 0.00
1296.0, -162911.84, -162299.98, -162628.31, -162263.41, -162719.39, -162646.86, -162928.52, -162772.86, 0.00, 0.00, 0.00
1300.0, -162561.64, -162065.00, -162110.06, -162086.33, -162223.66, -162165.03, -162199.73, -162173.39, 0.00, 0.00, 0.00
1304.0, -162277.03, -161869.81, -161821.33, -161918.78, -161958.77, -161948.13, -162027.03, -161910.11, 0.00, 0.00, 0.00
1308.0, -162586.83, -162103.05, -162325.14, -162089.28, -162427.38, -162472.45, -162745.69, -162484.34, 0.00, 0.00, 0.00
1312.0, -162890.17, -162330.34, -162697.89, -162286.41, -162757.91, -162761.91, -163018.42, -162824.98, 0.00, 0.00, 0.00
1316.0, -162595.80, -162146.48, -162258.73, -162150.30, -162333.42, -162342.45, -162340.36, -162301.23, 0.00, 0.00, 0.00
1320.0, -162236.78, -161887.89, -161852.03, -161943.05, -161955.14, -162002.23, -161987.48, -161921.22, 0.00, 0.00, 0.00
1324.0, -162471.05, -162053.20, -162264.52, -162070.30, -162342.22, -162375.20, -162632.05, -162389.28, 0.00, 0.00, 0.00
1328.0, -162842.98, -162321.36, -162747.98, -162299.91, -162778.05, -162755.27, -163065.05, -162856.45, 0.00, 0.00, 0.00
1332.0, -162636.50, -162201.89, -162417.50, -162213.52, -162450.95, -162421.42, -162484.80, -162431.70, 0.00, 0.00, 0.00
1336.0, -162218.83, -161904.56, -161913.55, -161974.66, -161977.75, -161986.53, -161965.47, -161904.05, 0.00, 0.00, 0.00
1340.0, -162351.91, -162004.91, -162201.86, -162043.34, -162249.55, -162255.75, -162489.48, -162265.14, 0.00, 0.00, 0.00
1344.0, -162761.06, -162296.84, -162760.75, -162288.92, -162758.63, -162709.19, -163064.22, -162833.39, 0.00, 0.00, 0.00
1348.0, -162656.67, -162248.38, -162562.05, -162257.83, -162554.16, -162484.80, -162619.98, -162546.06, 0.00, 0.00, 0.00
1352.0, -162202.25, -161931.00, -161988.92, -161998.86, -162013.53, -161971.94, -161969.50, -162004.86, 0.00, 0.00, 0.00
1356.0, -162217.31, -161955.48, -162124.47, -161996.70, -162144.11, -162175.42, -162327.59, -162179.61, 0.00, 0.00, 0.00
1360.0, -162641.70, -162257.47, -162726.78, -162246.81, -162697.11, -162724.69, -163012.19, -162778.66, 0.00, 0.00, 0.00
1364.0, -162646.17, -162283.61, -162682.67, -162278.11, -162636.83, -162634.84, -162746.84, -162654.38, 0.00, 0.00, 0.00
1368.0, -162126.61, -161968.02, -162096.13, -162026.36, -162081.64, -162113.27, -162034.25, -162027.39, 0.00, 0.00, 0.00
1372.0, -161871.11, -161911.41, -162077.09, -161962.13, -162066.30, -162116.77, -162210.50, -162064.69, 0.00, 0.00, 0.00
1376.0, -162567.50, -162196.25, -162657.02, -162186.53, -162598.30, -162601.98, -162927.16, -162668.38, 0.00, 0.00, 0.00
1380.0, -162879.34, -162285.73, -162753.47, -162268.36, -162668.59, -162632.14, -162834.58, -162695.03, 0.00, 0.00, 0.00
1384.0, -162449.92, -161992.36, -162181.06, -162037.09, -162123.88, -162107.20, -162089.44, -162154.55, 0.00, 0.00, 0.00
1388.0, -162244.53, -161881.78, -162011.86, -161926.33, -161968.58, -162007.05, -162074.61, -162105.50, 0.00, 0.00, 0.00
1392.0, -162611.63, -162158.30, -162565.50, -162132.13, -162478.41, -162548.20, -162805.66, -162573.48, 0.00, 0.00, 0.00
1396.0, -162816.67, -162317.67, -162805.72, -162267.92, -162684.16, -162709.42, -162901.72, -162756.95, 0.00, 0.00, 0.00
1400.0, -162432.20, -162060.73, -162289.91, -162069.23, -162192.05, -162235.69, -162185.17, -162208.64, 0.00, 0.00, 0.00
1404.0, -162138.19, -161876.27, -161993.81, -161922.05, -161917.75, -161997.09, -162003.58, -162037.94, 0.00, 0.00, 0.00
1408.0, -162440.33, -162123.28, -162474.58, -162093.77, -162362.81, -162412.89, -162696.59, -162471.45, 0.00, 0.00, 0.00
1412.0, -162726.11, -162335.97, -162836.25, -162272.67, -162682.09, -162677.27, -162972.17, -162788.44, 0.00, 0.00, 0.00
1416.0, -162399.41, -162132.06, -162407.34, -162118.34, -162268.16, -162268.41, -162319.69, -162307.33, 0.00, 0.00, 0.00
1420.0, -161845.41, -161871.64, -161989.56, -161922.84, -161878.97, -161921.13, -161960.16, -162040.95, 0.00, 0.00, 0.00
1424.0, -162114.61, -162042.47, -162358.19, -162038.98, -162221.16, -162337.14, -162551.64, -162358.34, 0.00, 0.00, 0.00
1428.0, -162824.08, -162291.16, -162812.38, -162242.83, -162629.52, -162710.44, -162975.09, -162774.42, 0.00, 0.00, 0.00
1432.0, -162671.45, -162152.20, -162491.61, -162140.70, -162304.77, -162392.13, -162424.41, -162389.28, 0.00, 0.00, 0.00
1436.0, -162235.27, -161866.34, -161983.64, -161944.13, -161597.27, -161948.27, -161919.81, -162070.80, 0.00, 0.00, 0.00
1440.0, -162336.00, -161994.83, -162224.94, -162020.64, -161745.63, -162235.03, -162387.34, -162268.23, 0.00, 0.00, 0.00
1444.0, -162713.41, -162272.63, -162746.44, -162237.06, -162703.28, -162687.84, -162944.92, -162735.94, 0.00, 0.00, 0.00
1448.0, -162591.67, -162207.59, -162557.19, -162191.52, -162718.44, -162478.30, -162529.55, -162474.53, 0.00, 0.00, 0.00
1452.0, -162019.98, -161893.33, -161994.70, -161957.47, -162190.05, -161980.67, -161919.20, -162090.83, 0.00, 0.00, 0.00
1456.0, -161912.17, -161941.94, -162101.75, -161975.33, -162291.41, -162150.48, -162244.11, -162205.31, 0.00, 0.00, 0.00
1460.0, -162659.88, -162235.39, -162666.20, -162206.30, -162808.56, -162661.59, -162908.42, -162692.44, 0.00, 0.00, 0.00
1464.0, -162816.06, -162249.25, -162624.05, -162228.27, -162752.91, -162577.52, -162663.41, -162580.81, 0.00, 0.00, 0.00
1468.0, -162355.84, -161935.48, -162045.53, -161988.42, -162205.80, -162065.81, -161978.53, -162091.50, 0.00, 0.00, 0.00
1472.0, -162252.27, -161917.55, -162017.98, -161960.31, -162183.16, -162064.09, -162144.36, -162134.61, 0.00, 0.00, 0.00
1476.0, -162641.88, -162219.03, -162592.17, -162191.66, -162713.97, -162549.70, -162867.14, -162643.67, 0.00, 0.00, 0.00
1480.0, -162734.27, -162302.11, -162692.23, -162267.72, -162791.08, -162588.06, -162796.16, -162681.83, 0.00, 0.00, 0.00
1484.0, -162253.70, -161997.13, -162122.16, -162033.88, -162250.55, -162066.55, -162068.61, -162156.02, 0.00, 0.00, 0.00
1488.0, -161841.53, -161871.06, -161932.48, -161939.45, -162075.98, -161972.30, -162034.42, -162107.67, 0.00, 0.00, 0.00
1492.0, -162385.00, -162129.77, -162453.08, -162131.19, -162559.92, -162510.16, -162748.33, -162529.08, 0.00, 0.00, 0.00
1496.0, -162852.56, -162272.23, -162683.72, -162253.75, -162761.11, -162669.98, -162856.95, -162709.77, 0.00, 0.00, 0.00
1500.0, -162472.70, -162005.23, -162162.27, -162049.72, -162263.78, -162184.77, -162145.50, -162217.28, 0.00, 0.00, 0.00
1504.0, -162146.75, -161831.55, -161834.47, -161928.41, -161959.27, -161937.38, -161934.61, -162119.00, 0.00, 0.00, 0.00
1508.0, -162415.80, -162087.94, -162289.73, -162091.53, -162385.73, -162436.53, -162609.19, -162424.69, 0.00, 0.00, 0.00
1512.0, -162682.30, -162292.55, -162645.72, -162260.94, -162705.70, -162718.23, -162897.08, -162731.73, 0.00, 0.00, 0.00
1516.0, -162333.11, -162076.72, -162211.70, -162096.95, -162281.28, -162305.27, -162248.77, -162273.80, 0.00, 0.00, 0.00
1520.0, -161741.55, -161814.98, -161770.28, -161921.64, -161661.27, -161925.38, -161871.86, -162093.53, 0.00, 0.00, 0.00
1524.0, -161984.92, -161989.61, -162105.50, -162023.92, -161877.36, -162299.72, -162440.33, -162306.45, 0.00, 0.00, 0.00
1528.0, -162679.48, -162222.23, -162539.89, -162209.22, -162754.13, -162667.91, -162879.55, -162685.47, 0.00, 0.00, 0.00
1532.0, -162553.59, -162073.36, -162213.95, -162097.17, -162590.77, -162343.03, -162335.69, -162331.42, 0.00, 0.00, 0.00
1536.0, -161962.17, -161791.94, -161723.61, -161914.73, -162087.05, -161878.97, -161818.41, -162105.28, 0.00, 0.00, 0.00
1540.0, -161956.47, -161932.45, -162021.98, -161986.66, -162284.88, -162186.11, -162259.06, -162206.38, 0.00, 0.00, 0.00
1544.0, -162673.47, -162207.66, -162542.14, -162191.00, -162753.58, -162647.67, -162847.78, -162626.69, 0.00, 0.00, 0.00
1548.0, -162673.67, -162131.02, -162348.22, -162137.33, -162560.25, -162437.31, -162447.88, -162389.86, 0.00, 0.00, 0.00
1552.0, -162133.88, -161818.63, -161783.59, -161929.70, -162008.33, -161915.36, -161827.86, -162108.88, 0.00, 0.00, 0.00
1556.0, -161921.34, -161880.52, -161925.23, -161954.13, -162076.25, -162087.16, -162117.47, -162170.03, 0.00, 0.00, 0.00
1560.0, -162572.30, -162166.42, -162483.52, -162163.00, -162580.14, -162608.16, -162801.78, -162560.80, 0.00, 0.00, 0.00
1564.0, -162732.41, -162164.09, -162431.94, -162169.50, -162520.94, -162521.92, -162571.08, -162460.34, 0.00, 0.00, 0.00
1568.0, -162197.63, -161842.58, -161839.41, -161947.64, -161827.23, -161970.55, -161876.56, -162115.88, 0.00, 0.00, 0.00
1572.0, -161847.88, -161821.95, -161832.06, -161923.66, -161487.38, -161975.98, -161981.50, -162123.48, 0.00, 0.00, 0.00
1576.0, -162429.36, -162102.06, -162388.69, -162107.89, -162301.22, -162513.14, -162692.78, -162456.31, 0.00, 0.00, 0.00
1580.0, -162754.72, -162169.81, -162477.06, -162169.86, -162767.13, -162554.53, -162647.06, -162494.20, 0.00, 0.00, 0.00
1584.0, -162277.45, -161869.31, -161905.06, -161958.25, -162244.64, -162019.09, -161933.00, -162119.41, 0.00, 0.00, 0.00
1588.0, -161819.45, -161776.22, -161763.02, -161895.78, -162031.86, -161898.31, -161869.22, -162091.14, 0.00, 0.00, 0.00
1592.0, -162296.14, -162052.52, -162305.59, -162067.95, -162494.73, -162441.31, -162582.11, -162363.42, 0.00, 0.00, 0.00
1596.0, -162771.08, -162190.72, -162533.50, -162185.53, -162699.50, -162611.42, -162726.50, -162535.33, 0.00, 0.00, 0.00
1600.0, -162378.80, -161923.50, -162011.41, -161992.45, -162198.64, -162121.59, -162031.28, -162144.06, 0.00, 0.00, 0.00
1604.0, -161843.09, -161753.78, -161716.05, -161883.98, -161863.66, -161853.20, -161798.64, -162094.64, 0.00, 0.00, 0.00
1608.0, -162145.86, -161997.89, -162190.80, -162023.86, -162258.06, -162347.84, -162454.33, -162287.00, 0.00, 0.00, 0.00
1612.0, -162744.41, -162193.08, -162538.17, -162185.80, -162575.27, -162636.63, -162788.84, -162557.08, 0.00, 0.00, 0.00
1616.0, -162465.33, -161978.69, -162105.03, -162029.20, -162123.83, -162224.95, -162159.11, -162192.09, 0.00, 0.00, 0.00
1620.0, -161873.50, -161737.13, -161692.02, -161880.77, -161395.13, -161824.09, -161760.73, -162080.92, 0.00, 0.00, 0.00
1624.0, -161991.41, -161924.39, -162072.69, -161980.98, -161707.67, -162212.02, -162302.66, -162194.31, 0.00, 0.00, 0.00
1628.0, -162660.28, -162157.41, -162505.25, -162157.70, -162592.95, -162593.06, -162786.39, -162526.72, 0.00, 0.00, 0.00
1632.0, -162525.66, -162009.48, -162180.20, -162047.59, -162502.73, -162273.39, -162262.91, -162232.55, 0.00, 0.00, 0.00
1636.0, -161910.05, -161727.77, -161680.27, -161869.06, -161984.14, -161798.91, -161733.27, -162062.72, 0.00, 0.00, 0.00
1640.0, -161863.89, -161859.25, -161962.02, -161932.03, -162158.81, -162107.56, -162150.36, -162125.83, 0.00, 0.00, 0.00
1644.0, -162557.69, -162130.08, -162473.17, -162130.98, -162625.45, -162580.50, -162765.31, -162487.13, 0.00, 0.00, 0.00
1648.0, -162604.59, -162056.64, -162285.64, -162081.70, -162442.17, -162382.64, -162390.31, -162288.05, 0.00, 0.00, 0.00
1652.0, -162011.66, -161745.94, -161720.34, -161879.02, -161738.05, -161846.97, -161753.78, -162046.92, 0.00, 0.00, 0.00
1656.0, -161782.88, -161796.83, -161856.94, -161897.84, -161534.91, -161994.94, -162000.63, -162077.56, 0.00, 0.00, 0.00
1660.0, -162427.17, -162073.31, -162394.98, -162087.14, -162387.25, -162509.38, -162688.08, -162408.64, 0.00, 0.00, 0.00
1664.0, -162630.81, -162071.42, -162344.25, -162093.86, -162686.19, -162430.72, -162487.41, -162330.67, 0.00, 0.00, 0.00
1668.0, -162067.78, -161759.81, -161756.86, -161887.22, -162124.97, -161875.06, -161785.75, -162035.44, 0.00, 0.00, 0.00
1672.0, -161702.48, -161739.97, -161764.69, -161869.73, -162020.80, -161896.52, -161860.53, -162030.19, 0.00, 0.00, 0.00
1676.0, -162277.08, -162034.23, -162325.16, -162057.25, -162510.50, -162450.27, -162586.73, -162326.55, 0.00, 0.00, 0.00
1680.0, -162666.77, -162112.13, -162424.94, -162125.56, -162599.45, -162508.94, -162580.66, -162385.02, 0.00, 0.00, 0.00
1684.0, -162191.77, -161816.45, -161851.45, -161916.03, -162000.34, -161972.67, -161863.53, -162066.61, 0.00, 0.00, 0.00
1688.0, -161699.13, -161713.23, -161693.72, -161848.11, -161470.27, -161818.72, -161765.81, -162023.70, 0.00, 0.00, 0.00
1692.0, -162136.05, -161975.78, -162214.34, -162005.13, -162067.44, -162348.47, -162463.22, -162246.25, 0.00, 0.00, 0.00
1696.0, -162656.23, -162113.33, -162443.00, -162119.45, -162736.94, -162530.72, -162640.36, -162413.84, 0.00, 0.00, 0.00
1700.0, -162282.98, -161853.58, -161924.41, -161932.17, -162306.16, -162045.20, -161953.69, -162073.03, 0.00, 0.00, 0.00
1704.0, -161710.78, -161675.02, -161631.47, -161826.78, -161947.91, -161765.48, -161693.28, -162009.63, 0.00, 0.00, 0.00
1708.0, -162014.09, -161914.98, -162107.89, -161967.13, -162326.92, -162265.64, -162338.13, -162179.72, 0.00, 0.00, 0.00
1712.0, -162645.28, -162120.91, -162465.34, -162130.30, -162658.27, -162576.13, -162707.55, -162448.05, 0.00, 0.00, 0.00
1716.0, -162404.75, -161920.20, -162041.80, -161980.83, -162256.09, -162178.13, -162094.16, -162126.31, 0.00, 0.00, 0.00
1720.0, -161803.22, -161679.42, -161619.89, -161829.33, -161801.72, -161776.27, -161682.50, -162015.41, 0.00, 0.00, 0.00
1724.0, -161894.03, -161868.06, -161999.42, -161932.95, -162081.45, -162174.55, -162223.45, -162126.61, 0.00, 0.00, 0.00
1728.0, -162582.14, -162116.42, -162452.23, -162124.84, -162499.95, -162582.50, -162745.97, -162469.44, 0.00, 0.00, 0.00
1732.0, -162510.13, -161985.83, -162151.16, -162029.42, -162195.52, -162292.53, -162250.23, -162198.06, 0.00, 0.00, 0.00
1736.0, -161927.13, -161698.09, -161634.88, -161831.42, -161419.73, -161806.19, -161706.06, -162034.58, 0.00, 0.00, 0.00
1740.0, -161823.00, -161812.08, -161890.02, -161892.47, -161520.31, -162062.61, -162104.64, -162103.94, 0.00, 0.00, 0.00
1744.0, -162507.13, -162082.19, -162408.17, -162092.34, -162452.89, -162543.16, -162730.22, -162468.55, 0.00, 0.00, 0.00
1748.0, -162585.67, -162025.55, -162242.39, -162055.86, -162574.33, -162369.70, -162382.75, -162287.73, 0.00, 0.00, 0.00
1752.0, -162029.64, -161715.52, -161674.16, -161847.14, -162018.45, -161839.41, -161743.16, -162027.72, 0.00, 0.00, 0.00
1756.0, -161771.06, -161760.86, -161799.95, -161864.38, -162047.73, -161972.14, -161987.64, -162052.64, 0.00, 0.00, 0.00
1760.0, -162420.75, -162053.20, -162358.97, -162071.58, -162554.20, -162507.28, -162694.97, -162433.97, 0.00, 0.00, 0.00
1764.0, -162655.11, -162075.58, -162337.16, -162093.44, -162530.50, -162458.39, -162518.36, -162375.50, 0.00, 0.00, 0.00
1768.0, -162143.59, -161759.72, -161741.05, -161868.47, -161954.63, -161907.41, -161806.86, -162023.67, 0.00, 0.00, 0.00
1772.0, -161745.73, -161717.69, -161708.52, -161834.22, -161836.55, -161885.66, -161862.83, -162041.22, 0.00, 0.00, 0.00
1776.0, -162288.05, -162009.55, -162267.31, -162023.03, -162329.88, -162435.23, -162588.06, -162355.09, 0.00, 0.00, 0.00
1780.0, -162679.92, -162103.81, -162387.81, -162099.11, -162439.16, -162512.53, -162596.59, -162426.91, 0.00, 0.00, 0.00
1784.0, -162232.75, -161805.91, -161810.20, -161886.06, -161766.47, -161976.63, -161864.08, -162038.73, 0.00, 0.00, 0.00
1788.0, -161722.67, -161667.69, -161625.50, -161806.31, -161234.42, -161779.59, -161728.14, -161996.23, 0.00, 0.00, 0.00
1792.0, -162101.08, -161919.97, -162140.00, -161952.73, -161882.28, -162288.23, -162413.78, -162216.58, 0.00, 0.00, 0.00
1796.0, -162649.25, -162069.81, -162385.42, -162066.95, -162601.05, -162481.58, -162617.11, -162400.45, 0.00, 0.00, 0.00
1800.0, -162309.58, -161819.11, -161868.63, -161889.75, -162216.34, -161996.77, -161928.91, -162045.66, 0.00, 0.00, 0.00
1804.0, -161734.69, -161627.27, -161554.47, -161776.05, -161831.19, -161699.67, -161632.52, -161966.59, 0.00, 0.00, 0.00
1808.0, -161976.27, -161862.72, -162025.72, -161898.17, -162194.00, -162192.23, -162257.63, -162120.89, 0.00, 0.00, 0.00
1812.0, -162632.78, -162080.05, -162400.22, -162057.56, -162537.44, -162513.05, -162653.55, -162388.44, 0.00, 0.00, 0.00
1816.0, -162428.84, -161888.69, -161985.48, -161918.53, -162112.75, -162115.88, -162046.30, -162069.00, 0.00, 0.00, 0.00
1820.0, -161838.66, -161630.28, -161550.95, -161771.61, -161354.02, -161686.05, -161600.06, -161949.72, 0.00, 0.00, 0.00
1824.0, -161863.44, -161798.63, -161918.53, -161857.48, -161602.19, -162058.56, -162100.81, -162053.25, 0.00, 0.00, 0.00
1828.0, -162556.83, -162050.19, -162379.98, -162030.38, -162507.81, -162469.44, -162633.39, -162347.28, 0.00, 0.00, 0.00
1832.0, -162511.53, -161930.36, -162088.00, -161941.22, -162447.47, -162176.30, -162146.95, -162103.70, 0.00, 0.00, 0.00
1836.0, -161936.84, -161638.22, -161564.19, -161768.52, -161900.66, -161677.69, -161581.69, -161929.27, 0.00, 0.00, 0.00
1840.0, -161796.36, -161750.98, -161821.95, -161821.50, -162036.08, -161961.77, -161951.92, -162000.20, 0.00, 0.00, 0.00
1844.0, -162494.31, -162042.45, -162360.50, -162017.47, -162522.56, -162463.92, -162612.75, -162316.16, 0.00, 0.00, 0.00
1848.0, -162597.89, -162004.97, -162215.61, -161985.86, -162376.44, -162297.84, -162290.67, -162170.94, 0.00, 0.00, 0.00
1852.0, -162076.16, -161683.44, -161624.55, -161782.44, -161641.64, -161743.00, -161635.61, -161938.47, 0.00, 0.00, 0.00
1856.0, -161765.38, -161702.45, -161721.70, -161784.61, -161403.19, -161849.58, -161831.00, -161953.30, 0.00, 0.00, 0.00
1860.0, -162331.59, -161990.63, -162280.09, -161966.13, -162279.05, -162382.78, -162537.20, -162243.80, 0.00, 0.00, 0.00
1864.0, -162617.52, -162026.09, -162279.52, -161990.42, -162606.52, -162343.36, -162390.27, -162201.86, 0.00, 0.00, 0.00
1868.0, -162129.41, -161709.36, -161677.72, -161791.53, -162036.33, -161782.72, -161678.64, -161913.13, 0.00, 0.00, 0.00
1872.0, -161714.33, -161649.70, -161628.72, -161760.66, -161888.41, -161758.47, -161705.23, -161912.55, 0.00, 0.00, 0.00
1876.0, -162223.95, -161941.00, -162194.69, -161937.28, -162376.19, -162321.83, -162435.08, -162168.92, 0.00, 0.00, 0.00
1880.0, -162659.14, -162054.55, -162347.08, -162019.00, -162506.91, -162418.31, -162482.80, -162247.66, 0.00, 0.00, 0.00
1884.0, -162249.23, -161764.47, -161776.09, -161820.81, -161892.47, -161882.48, -161763.61, -161928.75, 0.00, 0.00, 0.00
1888.0, -161756.70, -161613.14, -161564.66, -161739.88, -161308.83, -161684.72, -161605.70, -161895.48, 0.00, 0.00, 0.00
1892.0, -162068.73, -161868.95, -162080.94, -161880.53, -161906.28, -162204.14, -162288.17, -162086.80, 0.00, 0.00, 0.00
1896.0, -162634.80, -162040.16, -162361.91, -162002.52, -162630.03, -162419.42, -162530.64, -162249.31, 0.00, 0.00, 0.00
1900.0, -162329.36, -161801.91, -161863.48, -161830.48, -162227.86, -161943.92, -161854.03, -161945.09, 0.00, 0.00, 0.00
1904.0, -161813.09, -161596.77, -161523.17, -161719.81, -161825.17, -161629.02, -161539.72, -161861.52, 0.00, 0.00, 0.00
1908.0, -161942.09, -161822.28, -161983.06, -161843.75, -162175.25, -162110.58, -162151.34, -162019.91, 0.00, 0.00, 0.00
1912.0, -162596.31, -162053.73, -162388.03, -162007.03, -162537.39, -162448.05, -162571.98, -162254.64, 0.00, 0.00, 0.00
1916.0, -162415.38, -161878.02, -161997.14, -161873.25, -162144.02, -162063.23, -161979.05, -161973.14, 0.00, 0.00, 0.00
1920.0, -161867.81, -161600.67, -161524.88, -161717.19, -161402.19, -161621.25, -161510.70, -161841.59, 0.00, 0.00, 0.00
1924.0, -161822.53, -161749.17, -161857.69, -161790.66, -161560.11, -161979.55, -161986.44, -161953.63, 0.00, 0.00, 0.00
1928.0, -162505.64, -162005.59, -162338.80, -161966.25, -162471.58, -162401.48, -162549.28, -162213.28, 0.00, 0.00, 0.00
1932.0, -162490.63, -161905.73, -162079.94, -161887.02, -162419.61, -162126.27, -162093.50, -162010.28, 0.00, 0.00, 0.00
1936.0, -162006.48, -161603.98, -161536.41, -161712.27, -161862.09, -161617.23, -161515.42, -161828.05, 0.00, 0.00, 0.00
1940.0, -161984.92, -161705.83, -161765.00, -161764.89, -161974.73, -161881.20, -161858.44, -161909.69, 0.00, 0.00, 0.00
1944.0, -162364.66, -162006.02, -162323.97, -161966.30, -162472.97, -162395.63, -162539.20, -162194.20, 0.00, 0.00, 0.00
1948.0, -162328.95, -161987.02, -162216.42, -161944.00, -162354.11, -162251.13, -162247.75, -162073.14, 0.00, 0.00, 0.00
1952.0, -161701.31, -161652.08, -161614.08, -161733.00, -161635.31, -161692.89, -161575.81, -161843.23, 0.00, 0.00, 0.00
1956.0, -161470.77, -161631.94, -161658.47, -161730.33, -161344.47, -161775.81, -161738.42, -161857.17, 0.00, 0.00, 0.00
1960.0, -162109.13, -161914.00, -162214.98, -161906.31, -162174.80, -162308.50, -162454.28, -162118.47, 0.00, 0.00, 0.00
1964.0, -162492.23, -161966.55, -162250.84, -161936.33, -162567.89, -162288.34, -162348.25, -162100.92, 0.00, 0.00, 0.00
1968.0, -162014.47, -161658.77, -161657.13, -161736.38, -162012.45, -161730.05, -161635.34, -161834.25, 0.00, 0.00, 0.00
1972.0, -161582.56, -161583.64, -161571.69, -161704.38, -161836.69, -161680.80, -161627.56, -161830.78, 0.00, 0.00, 0.00
1976.0, -162123.33, -161872.11, -162133.89, -161879.59, -162317.61, -162247.28, -162359.16, -162070.13, 0.00, 0.00, 0.00
1980.0, -162606.30, -162004.00, -162324.53, -161971.80, -162478.31, -162371.09, -162459.45, -162159.38, 0.00, 0.00, 0.00
1984.0, -162229.11, -161728.20, -161772.89, -161776.48, -161908.92, -161851.59, -161742.56, -161870.72, 0.00, 0.00, 0.00
1988.0, -161893.44, -161578.97, -161525.30, -161691.75, -161321.94, -161640.23, -161563.59, -161823.42, 0.00, 0.00, 0.00
1992.0, -162151.53, -161840.38, -162035.36, -161843.59, -161861.69, -162161.88, -162253.09, -162025.02, 0.00, 0.00, 0.00
1996.0, -162418.97, -162035.30, -162362.94, -161989.77, -162625.20, -162412.03, -162540.22, -162222.00, 0.00, 0.00, 0.00
2000.0, -162058.30, -161811.02, -161893.83, -161821.33, -162250.17, -161962.80, -161871.70, -161917.39, 0.00, 0.00, 0.00
2004.0, -161455.61, -161561.36, -161507.64, -161691.78, -161834.25, -161620.45, -161525.81, -161823.47, 0.00, 0.00, 0.00
2008.0, -161745.28, -161765.47, -161943.55, -161813.97, -162178.73, -162084.66, -162136.05, -161975.78, 0.00, 0.00, 0.00
2012.0, -162468.59, -162017.23, -162391.16, -162003.58, -162580.92, -162458.33, -162598.86, -162281.45, 0.00, 0.00, 0.00
2016.0, -162363.84, -161868.59, -162045.50, -161886.06, -162242.19, -162117.22, -162041.00, -162000.61, 0.00, 0.00, 0.00
2020.0, -161810.13, -161589.41, -161536.36, -161704.98, -161743.00, -161667.38, -161553.58, -161866.83, 0.00, 0.00, 0.00
2024.0, -161778.45, -161727.72, -161815.53, -161777.58, -161958.72, -161991.31, -162013.39, -161941.44, 0.00, 0.00, 0.00
2028.0, -162491.86, -161997.45, -162320.55, -161967.19, -162413.56, -162426.86, -162577.95, -162266.47, 0.00, 0.00, 0.00
2032.0, -162494.63, -161916.92, -162096.45, -161894.17, -162178.48, -162176.97, -162133.09, -162041.30, 0.00, 0.00, 0.00
2036.0, -162013.02, -161599.95, -161533.61, -161696.38, -161409.63, -161653.48, -161527.98, -161847.13, 0.00, 0.00, 0.00
2040.0, -161969.42, -161670.70, -161711.88, -161738.64, -161351.38, -161857.72, -161847.03, -161907.38, 0.00, 0.00, 0.00
2044.0, -162346.23, -161969.09, -162276.34, -161943.28, -162294.92, -162375.22, -162537.75, -162236.31, 0.00, 0.00, 0.00
2048.0, -162339.66, -161969.75, -162206.64, -161936.95, -162504.47, -162258.84, -162275.52, -162121.05, 0.00, 0.00, 0.00
2052.0, -161746.77, -161637.70, -161604.92, -161714.73, -161927.41, -161703.63, -161581.47, -161853.48, 0.00, 0.00, 0.00
2056.0, -161468.50, -161603.86, -161617.25, -161704.89, -161871.06, -161766.70, -161723.67, -161859.66, 0.00, 0.00, 0.00
2060.0, -162129.58, -161897.84, -162189.77, -161896.56, -162378.31, -162316.16, -162454.19, -162167.41, 0.00, 0.00, 0.00
2064.0, -162519.17, -161976.31, -162270.17, -161947.75, -162432.16, -162330.00, -162377.23, -162177.56, 0.00, 0.00, 0.00
2068.0, -162067.48, -161669.48, -161677.73, -161730.16, -161822.56, -161776.38, -161645.38, -161860.42, 0.00, 0.00, 0.00
2072.0, -161617.14, -161565.38, -161532.97, -161675.06, -161340.19, -161676.47, -161601.14, -161845.72, 0.00, 0.00, 0.00
2076.0, -162084.30, -161837.94, -162073.36, -161837.28, -161957.84, -162214.00, -162318.39, -162081.64, 0.00, 0.00, 0.00
2080.0, -162582.42, -161979.22, -162290.42, -161934.27, -162578.33, -162350.53, -162439.53, -162201.44, 0.00, 0.00, 0.00
2084.0, -162218.36, -161708.77, -161749.59, -161743.94, -162102.11, -161831.67, -161723.41, -161873.88, 0.00, 0.00, 0.00
2088.0, -161864.23, -161534.80, -161477.84, -161654.34, -161771.61, -161595.38, -161508.63, -161812.03, 0.00, 0.00, 0.00
2092.0, -162113.86, -161799.16, -161993.70, -161805.75, -162191.98, -162122.03, -162193.70, -162006.42, 0.00, 0.00, 0.00
2096.0, -162403.55, -162012.70, -162352.77, -161958.48, -162505.84, -162394.00, -162514.25, -162232.08, 0.00, 0.00, 0.00
2100.0, -162069.14, -161797.36, -161897.69, -161787.64, -162060.78, -161947.86, -161848.11, -161902.55, 0.00, 0.00, 0.00
2104.0, -161452.09, -161528.98, -161468.27, -161643.20, -161616.31, -161572.97, -161459.86, -161795.94, 0.00, 0.00, 0.00
2108.0, -161679.70, -161711.67, -161859.48, -161752.47, -161927.98, -162011.11, -162030.73, -161925.13, 0.00, 0.00, 0.00
2112.0, -162402.45, -161959.97, -162307.72, -161923.66, -162327.28, -162380.88, -162507.38, -162198.27, 0.00, 0.00, 0.00
2116.0, -162323.44, -161814.59, -161968.05, -161801.33, -161950.78, -162024.77, -161945.88, -161924.61, 0.00, 0.00, 0.00
2120.0, -161725.34, -161515.42, -161452.34, -161625.44, -161129.77, -161536.77, -161419.20, -161761.84, 0.00, 0.00, 0.00
2124.0, -161672.44, -161629.28, -161733.44, -161685.67, -161316.47, -161846.06, -161843.41, -161854.98, 0.00, 0.00, 0.00
2128.0, -162390.09, -161896.11, -162248.33, -161862.50, -162232.80, -162297.91, -162451.00, -162121.47, 0.00, 0.00, 0.00
2132.0, -162429.03, -161825.23, -162044.64, -161796.88, -162312.91, -162053.19, -162036.42, -161940.33, 0.00, 0.00, 0.00
2136.0, -161874.48, -161508.38, -161467.75, -161608.05, -161732.05, -161505.97, -161401.41, -161717.70, 0.00, 0.00, 0.00
2140.0, -161631.66, -161567.70, -161627.78, -161640.97, -161778.66, -161712.20, -161668.23, -161774.86, 0.00, 0.00, 0.00
2144.0, -162296.06, -161869.52, -162197.97, -161833.00, -162282.48, -162251.42, -162382.42, -162048.95, 0.00, 0.00, 0.00
2148.0, -162508.53, -161885.31, -162157.19, -161835.31, -162217.88, -162153.34, -162170.59, -161976.42, 0.00, 0.00, 0.00
2152.0, -162031.39, -161562.38, -161548.91, -161634.05, -161452.66, -161582.19, -161472.55, -161729.33, 0.00, 0.00, 0.00
2156.0, -161850.27, -161541.02, -161545.69, -161630.72, -161157.50, -161633.03, -161585.05, -161750.67, 0.00, 0.00, 0.00
2160.0, -162209.38, -161848.55, -162136.17, -161829.44, -162023.41, -162213.06, -162342.95, -162032.38, 0.00, 0.00, 0.00
2164.0, -162340.73, -161945.94, -162257.36, -161899.47, -162518.50, -162264.39, -162327.55, -162065.14, 0.00, 0.00, 0.00
2168.0, -161841.52, -161644.38, -161679.50, -161690.70, -161996.63, -161727.77, -161610.27, -161792.89, 0.00, 0.00, 0.00
2172.0, -161398.64, -161516.89, -161500.05, -161640.34, -161795.59, -161634.52, -161571.91, -161764.42, 0.00, 0.00, 0.00
2176.0, -161954.09, -161806.58, -162066.48, -161845.11, -162302.22, -162225.09, -162341.61, -162060.83, 0.00, 0.00, 0.00
2180.0, -162529.63, -161988.70, -162353.41, -161997.41, -162553.53, -162435.34, -162534.89, -162262.81, 0.00, 0.00, 0.00
2184.0, -162219.70, -161749.52, -161859.50, -161808.81, -162079.11, -161981.52, -161848.47, -161891.38, 0.00, 0.00, 0.00
2188.0, -161898.80, -161563.92, -161536.92, -161656.38, -161791.02, -161746.98, -161669.92, -161834.16, 0.00, 0.00, 0.00
2192.0, -162182.84, -161822.58, -162029.28, -161869.14, -162266.42, -162209.80, -162414.97, -162165.67, 0.00, 0.00, 0.00
2196.0, -162515.23, -162067.94, -162450.53, -162082.75, -162647.31, -162536.20, -162768.86, -162543.11, 0.00, 0.00, 0.00
2200.0, -162254.34, -161890.58, -162048.98, -161938.89, -162255.22, -162148.80, -162127.05, -162054.48, 0.00, 0.00, 0.00
2204.0, -161866.55, -161611.52, -161605.03, -161731.42, -161847.34, -161791.91, -161723.73, -161652.70, 0.00, 0.00, 0.00
2208.0, -162052.52, -161767.27, -161975.08, -161879.11, -162209.48, -162152.05, -162350.13, -162111.86, 0.00, 0.00, 0.00
2212.0, -162432.61, -162044.33, -162480.77, -162114.20, -162670.94, -162554.84, -162826.66, -162612.78, 0.00, 0.00, 0.00
2216.0, -162259.73, -161929.13, -162188.66, -162012.05, -162375.84, -162248.63, -162280.52, -162219.20, 0.00, 0.00, 0.00
2220.0, -161690.45, -161611.64, -161640.30, -161754.27, -161865.27, -161785.09, -161704.16, -161651.94, 0.00, 0.00, 0.00
2224.0, -161683.30, -161691.34, -161854.52, -161819.45, -162082.66, -162013.23, -162173.77, -161966.34, 0.00, 0.00, 0.00
2228.0, -162448.50, -161981.77, -162414.25, -162063.69, -162599.08, -162472.59, -162772.80, -162549.84, 0.00, 0.00, 0.00
2232.0, -162509.16, -161944.00, -162263.52, -162023.00, -162434.97, -162281.53, -162376.39, -162302.36, 0.00, 0.00, 0.00
2236.0, -162046.14, -161624.44, -161671.53, -161754.88, -161878.48, -161768.63, -161699.89, -161738.83, 0.00, 0.00, 0.00
2240.0, -162004.00, -161660.06, -161745.17, -161761.14, -161963.89, -161878.08, -162010.73, -161890.50, 0.00, 0.00, 0.00
2244.0, -162418.09, -161975.05, -162345.98, -162023.86, -162522.66, -162386.69, -162723.73, -162496.81, 0.00, 0.00, 0.00
2248.0, -162474.28, -162023.14, -162352.98, -162054.39, -162506.39, -162330.59, -162509.81, -162415.38, 0.00, 0.00, 0.00
2252.0, -162027.13, -161706.39, -161753.56, -161791.23, -161937.73, -161796.20, -161760.89, -161785.66, 0.00, 0.00, 0.00
2256.0, -161876.38, -161634.42, -161674.31, -161728.81, -161878.95, -161771.33, -161882.81, -161791.84, 0.00, 0.00, 0.00
2260.0, -162265.08, -161934.27, -162263.58, -161977.98, -162432.63, -162282.47, -162635.59, -162409.67, 0.00, 0.00, 0.00
2264.0, -162422.72, -162052.73, -162414.00, -162063.48, -162549.39, -162347.84, -162594.52, -162481.23, 0.00, 0.00, 0.00
2268.0, -161956.27, -161750.11, -161823.41, -161801.50, -161980.45, -161788.53, -161801.67, -161906.69, 0.00, 0.00, 0.00
2272.0, -161469.33, -161563.66, -161535.98, -161637.84, -161717.89, -161612.83, -161647.75, -161815.00, 0.00, 0.00, 0.00
2276.0, -161936.22, -161796.72, -162002.64, -161783.34, -162153.00, -162124.80, -162324.64, -162128.13, 0.00, 0.00, 0.00
2280.0, -162493.56, -161947.34, -162246.53, -161874.03, -162353.44, -162272.27, -162453.05, -162279.94, 0.00, 0.00, 0.00
2284.0, -162135.81, -161675.77, -161703.98, -161672.42, -161727.92, -161725.53, -161692.94, -161860.67, 0.00, 0.00, 0.00
2288.0, -161548.80, -161453.33, -161385.11, -161559.66, -161037.00, -161416.45, -161382.86, -161764.44, 0.00, 0.00, 0.00
2292.0, -161811.45, -161682.66, -161870.17, -161695.55, -161558.94, -161920.69, -162021.38, -161931.72, 0.00, 0.00, 0.00
2296.0, -162477.64, -161906.06, -162257.03, -161839.95, -162398.50, -162237.16, -162411.91, -162172.00, 0.00, 0.00, 0.00
2300.0, -162265.81, -161708.50, -161828.05, -161697.08, -162125.59, -161795.31, -161770.16, -161854.81, 0.00, 0.00, 0.00
2304.0, -161700.84, -161446.41, -161382.03, -161557.55, -161634.11, -161396.06, -161326.53, -161711.64, 0.00, 0.00, 0.00
2308.0, -161728.98, -161628.13, -161770.97, -161660.13, -161911.98, -161836.61, -161863.22, -161849.63, 0.00, 0.00, 0.00
2312.0, -162440.53, -161898.34, -162264.47, -161845.64, -162350.33, -162266.02, -162420.64, -162129.88, 0.00, 0.00, 0.00
2316.0, -162375.30, -161780.78, -161972.06, -161748.38, -162039.41, -161945.25, -161910.42, -161884.72, 0.00, 0.00, 0.00
2320.0, -161890.81, -161475.39, -161423.38, -161575.81, -161240.22, -161439.17, -161344.88, -161695.75, 0.00, 0.00, 0.00
2324.0, -161896.41, -161589.19, -161673.58, -161643.58, -161308.20, -161740.28, -161742.00, -161784.25, 0.00, 0.00, 0.00
2328.0, -162280.55, -161887.94, -162238.34, -161849.28, -162273.45, -162257.59, -162425.03, -162104.91, 0.00, 0.00, 0.00
2332.0, -162220.95, -161853.58, -162097.34, -161811.81, -162380.83, -162069.75, -162078.89, -161957.06, 0.00, 0.00, 0.00
2336.0, -161586.14, -161517.52, -161489.27, -161600.47, -161787.06, -161505.91, -161398.44, -161715.83, 0.00, 0.00, 0.00
2340.0, -161394.00, -161527.25, -161573.09, -161610.55, -161792.73, -161660.42, -161615.22, -161735.92, 0.00, 0.00, 0.00
2344.0, -162089.50, -161828.84, -162154.53, -161803.13, -162307.81, -162214.84, -162348.94, -162033.73, 0.00, 0.00, 0.00
2348.0, -162414.19, -161865.42, -162154.55, -161813.30, -162280.36, -162144.47, -162171.56, -161981.80, 0.00, 0.00, 0.00
2352.0, -161906.44, -161534.02, -161531.63, -161588.72, -161555.86, -161549.73, -161427.06, -161691.03, 0.00, 0.00, 0.00
2356.0, -161484.39, -161458.64, -161461.98, -161557.94, -161130.91, -161525.69, -161448.50, -161666.00, 0.00, 0.00, 0.00
2360.0, -162026.47, -161741.08, -162026.88, -161727.81, -161902.08, -162084.20, -162183.92, -161904.66, 0.00, 0.00, 0.00
2364.0, -162468.95, -161847.13, -162170.33, -161789.44, -162441.34, -162148.42, -162212.34, -161954.72, 0.00, 0.00, 0.00
2368.0, -162041.27, -161546.27, -161579.48, -161587.48, -161900.75, -161570.97, -161466.34, -161658.45, 0.00, 0.00, 0.00
2372.0, -161539.22, -161404.69, -161383.97, -161518.78, -161612.77, -161415.47, -161317.61, -161590.33, 0.00, 0.00, 0.00
2376.0, -161900.16, -161682.81, -161931.59, -161686.84, -162063.53, -161987.47, -162034.25, -161827.45, 0.00, 0.00, 0.00
2380.0, -162472.81, -161867.06, -162225.25, -161805.19, -162313.80, -162201.27, -162281.44, -161945.89, 0.00, 0.00, 0.00
2384.0, -162152.00, -161615.84, -161706.70, -161623.16, -161752.47, -161687.31, -161576.83, -161673.42, 0.00, 0.00, 0.00
2388.0, -161745.28, -161398.16, -161344.20, -161507.86, -161049.25, -161369.05, -161262.05, -161549.58, 0.00, 0.00, 0.00
2392.0, -161937.53, -161630.89, -161808.72, -161640.08, -161523.25, -161867.78, -161895.67, -161779.38, 0.00, 0.00, 0.00
2396.0, -162253.14, -161864.64, -162221.33, -161800.50, -162384.64, -162204.95, -162330.50, -161949.14, 0.00, 0.00, 0.00
2400.0, -161953.45, -161676.69, -161807.56, -161653.75, -162102.20, -161779.48, -161709.44, -161711.73, 0.00, 0.00, 0.00
2404.0, -161293.72, -161384.59, -161331.38, -161496.41, -161592.94, -161349.33, -161242.70, -161526.89, 0.00, 0.00, 0.00
2408.0, -161461.83, -161548.84, -161695.44, -161589.72, -161853.83, -161767.27, -161759.33, -161715.95, 0.00, 0.00, 0.00
2412.0, -162205.28, -161828.92, -162201.80, -161778.56, -162305.02, -162210.63, -162346.73, -161942.98, 0.00, 0.00, 0.00
2416.0, -162223.80, -161721.33, -161924.06, -161684.89, -162009.31, -161902.44, -161855.59, -161754.19, 0.00, 0.00, 0.00
2420.0, -161606.59, -161402.81, -161356.19, -161498.19, -161198.81, -161372.75, -161261.06, -161531.83, 0.00, 0.00, 0.00
2424.0, -161488.13, -161491.86, -161583.14, -161557.84, -161216.80, -161643.78, -161621.14, -161646.53, 0.00, 0.00, 0.00
2428.0, -162215.55, -161785.97, -162144.95, -161750.66, -162160.67, -162164.84, -162304.13, -161909.13, 0.00, 0.00, 0.00
2432.0, -162346.08, -161757.09, -162015.92, -161714.63, -162309.72, -161986.47, -161978.66, -161788.58, 0.00, 0.00, 0.00
2436.0, -161817.08, -161434.22, -161403.91, -161514.80, -161711.88, -161416.09, -161293.33, -161542.36, 0.00, 0.00, 0.00
2440.0, -161522.28, -161456.22, -161493.81, -161536.05, -161706.95, -161569.11, -161491.48, -161620.83, 0.00, 0.00, 0.00
2444.0, -162154.61, -161762.97, -162100.13, -161741.48, -162242.39, -162151.48, -162249.94, -161905.08, 0.00, 0.00, 0.00
2448.0, -162424.38, -161813.25, -162125.53, -161758.14, -162240.36, -162110.02, -162123.64, -161861.83, 0.00, 0.00, 0.00
2452.0, -161945.14, -161482.91, -161495.30, -161537.28, -161544.23, -161518.81, -161387.22, -161586.48, 0.00, 0.00, 0.00
2456.0, -161719.72, -161419.52, -161406.55, -161510.14, -161116.20, -161495.53, -161414.81, -161599.95, 0.00, 0.00, 0.00
2460.0, -162081.77, -161731.23, -162002.80, -161713.91, -161941.11, -162088.19, -162179.27, -161886.14, 0.00, 0.00, 0.00
2464.0, -162271.38, -161866.52, -162193.86, -161805.28, -162477.27, -162198.20, -162239.66, -161956.58, 0.00, 0.00, 0.00
2468.0, -161775.34, -161566.36, -161601.08, -161577.94, -161926.77, -161632.64, -161485.25, -161647.39, 0.00, 0.00, 0.00
2472.0, -161239.06, -161371.81, -161344.34, -161487.34, -161619.80, -161430.11, -161322.09, -161571.30, 0.00, 0.00, 0.00
2476.0, -161703.80, -161628.19, -161887.56, -161662.88, -162078.06, -161993.33, -162049.52, -161806.78, 0.00, 0.00, 0.00
2480.0, -162360.66, -161836.89, -162228.69, -161824.88, -162373.77, -162246.86, -162328.69, -161995.69, 0.00, 0.00, 0.00
2484.0, -162107.55, -161614.28, -161739.88, -161641.48, -161896.98, -161771.89, -161625.95, -161697.55, 0.00, 0.00, 0.00
2488.0, -161702.75, -161375.97, -161331.59, -161490.25, -161482.78, -161426.66, -161286.70, -161595.78, 0.00, 0.00, 0.00
2492.0, -161882.41, -161591.64, -161763.39, -161606.11, -161846.77, -161902.42, -161927.23, -161778.36, 0.00, 0.00, 0.00
2496.0, -162210.16, -161833.70, -162204.91, -161792.98, -162238.59, -162258.92, -162386.42, -162030.63, 0.00, 0.00, 0.00
2500.0, -161960.72, -161670.77, -161829.42, -161667.97, -161844.70, -161877.14, -161783.44, -161746.73, 0.00, 0.00, 0.00
2504.0, -161339.73, -161375.44, -161329.34, -161493.72, -161084.41, -161424.72, -161293.80, -161606.42, 0.00, 0.00, 0.00
2508.0, -161457.47, -161511.58, -161647.67, -161561.94, -161305.38, -161778.44, -161786.88, -161718.20, 0.00, 0.00, 0.00
2512.0, -162195.73, -161781.45, -162155.64, -161742.53, -162246.91, -162214.00, -162363.47, -162024.27, 0.00, 0.00, 0.00
2516.0, -162201.78, -161684.22, -161899.41, -161655.05, -162190.59, -161928.23, -161887.89, -161797.59, 0.00, 0.00, 0.00
2520.0, -161608.45, -161363.83, -161326.08, -161469.80, -161620.08, -161402.25, -161275.59, -161591.73, 0.00, 0.00, 0.00
2524.0, -161478.86, -161450.63, -161540.45, -161529.72, -161745.39, -161670.98, -161632.56, -161659.08, 0.00, 0.00, 0.00
2528.0, -162226.20, -161766.36, -162129.16, -161742.78, -162271.67, -162205.33, -162338.17, -162008.83, 0.00, 0.00, 0.00
2532.0, -162362.97, -161763.50, -162030.20, -161717.44, -162156.22, -162056.42, -162035.61, -161874.84, 0.00, 0.00, 0.00
2536.0, -161866.33, -161424.66, -161402.52, -161494.83, -161435.89, -161476.19, -161330.13, -161605.77, 0.00, 0.00, 0.00
2540.0, -161720.30, -161409.73, -161440.03, -161493.97, -161147.11, -161562.52, -161509.28, -161650.67, 0.00, 0.00, 0.00
2544.0, -162102.06, -161719.27, -162049.05, -161705.72, -162049.14, -162135.81, -162269.50, -161967.17, 0.00, 0.00, 0.00
2548.0, -162208.09, -161804.23, -162118.89, -161755.48, -162414.61, -162135.22, -162164.06, -161956.84, 0.00, 0.00, 0.00
2552.0, -161680.59, -161493.06, -161503.47, -161525.97, -161835.28, -161563.20, -161412.09, -161639.00, 0.00, 0.00, 0.00
2556.0, -161260.67, -161377.91, -161363.47, -161472.97, -161656.53, -161488.64, -161402.03, -161627.72, 0.00, 0.00, 0.00
2560.0, -161839.00, -161656.28, -161939.30, -161659.14, -162161.61, -162056.56, -162161.25, -161903.30, 0.00, 0.00, 0.00
2564.0, -162351.27, -161797.41, -162157.19, -161770.28, -162341.75, -162189.45, -162257.55, -162016.97, 0.00, 0.00, 0.00
2568.0, -161987.88, -161523.33, -161595.78, -161559.95, -161797.98, -161658.34, -161509.81, -161668.64, 0.00, 0.00, 0.00
2572.0, -161658.19, -161356.48, -161314.48, -161458.58, -161494.25, -161439.06, -161321.59, -161617.05, 0.00, 0.00, 0.00
2576.0, -161936.13, -161625.22, -161846.55, -161624.55, -161951.92, -161989.33, -162045.98, -161850.92, 0.00, 0.00, 0.00
2580.0, -162221.63, -161832.95, -162200.84, -161784.00, -162260.97, -162253.52, -162346.09, -162084.47, 0.00, 0.00, 0.00
2584.0, -161873.08, -161605.52, -161723.16, -161606.97, -161769.83, -161789.94, -161652.44, -161717.06, 0.00, 0.00, 0.00
2588.0, -161270.73, -161344.39, -161283.16, -161449.38, -161075.31, -161416.00, -161288.63, -161622.70, 0.00, 0.00, 0.00
2592.0, -161535.63, -161539.41, -161678.86, -161559.39, -161449.53, -161850.27, -161901.41, -161780.28, 0.00, 0.00, 0.00
2596.0, -162261.33, -161792.69, -162128.95, -161738.45, -162347.78, -162215.36, -162359.36, -162089.09, 0.00, 0.00, 0.00
2600.0, -162143.11, -161640.25, -161766.41, -161612.34, -162116.23, -161842.14, -161766.00, -161768.70, 0.00, 0.00, 0.00
2604.0, -161588.25, -161338.95, -161263.86, -161445.86, -161597.72, -161378.63, -161254.95, -161606.33, 0.00, 0.00, 0.00
2608.0, -161550.33, -161476.64, -161597.78, -161529.48, -161834.02, -161742.97, -161748.77, -161709.17, 0.00, 0.00, 0.00
2612.0, -162275.61, -161771.13, -162142.66, -161738.58, -162322.36, -162212.64, -162357.61, -162077.33, 0.00, 0.00, 0.00
2616.0, -162283.77, -161706.63, -161923.34, -161668.02, -162095.16, -161963.95, -161906.73, -161841.73, 0.00, 0.00, 0.00
2620.0, -161800.88, -161381.41, -161329.45, -161458.25, -161520.25, -161427.38, -161279.45, -161618.78, 0.00, 0.00, 0.00
2624.0, -161766.28, -161439.64, -161492.95, -161501.88, -161624.94, -161648.25, -161621.61, -161690.92, 0.00, 0.00, 0.00
2628.0, -162167.94, -161745.58, -162093.42, -161732.13, -162165.56, -162196.44, -162348.63, -162067.78, 0.00, 0.00, 0.00
2632.0, -162175.45, -161758.83, -162030.98, -161730.33, -162083.58, -162080.86, -162077.91, -161942.56, 0.00, 0.00, 0.00
2636.0, -161609.56, -161428.19, -161405.56, -161488.02, -161356.50, -161510.17, -161353.34, -161632.34, 0.00, 0.00, 0.00
2640.0, -161305.78, -161383.09, -161383.48, -161466.14, -161059.94, -161544.61, -161501.50, -161639.41, 0.00, 0.00, 0.00
2644.0, -161973.81, -161674.52, -161968.38, -161669.58, -161949.97, -162098.56, -162252.17, -161991.33, 0.00, 0.00, 0.00
2648.0, -162340.89, -161756.33, -162059.78, -161730.88, -162364.00, -162116.97, -162170.73, -162003.61, 0.00, 0.00, 0.00
2652.0, -161909.45, -161446.42, -161458.92, -161502.88, -161799.11, -161552.17, -161416.84, -161633.06, 0.00, 0.00, 0.00
2656.0, -161651.86, -161343.78, -161317.45, -161444.25, -161606.06, -161460.66, -161382.30, -161621.70, 0.00, 0.00, 0.00
2660.0, -161986.80, -161649.38, -161901.08, -161637.28, -162118.22, -162042.92, -162149.83, -161931.09, 0.00, 0.00, 0.00
2664.0, -162206.09, -161812.75, -162145.47, -161758.20, -162325.63, -162203.20, -162281.58, -162085.06, 0.00, 0.00, 0.00
2668.0, -161789.92, -161542.67, -161596.31, -161548.28, -161796.09, -161685.73, -161539.67, -161681.09, 0.00, 0.00, 0.00
2672.0, -161256.91, -161328.50, -161246.17, -161426.02, -161477.67, -161435.95, -161327.16, -161621.22, 0.00, 0.00, 0.00
2676.0, -161670.52, -161563.80, -161708.25, -161584.72, -161917.23, -161954.75, -162035.08, -161861.09, 0.00, 0.00, 0.00
2680.0, -162323.58, -161782.17, -162073.70, -161746.77, -162240.59, -162230.91, -162344.88, -162132.55, 0.00, 0.00, 0.00
2684.0, -162075.59, -161573.47, -161616.50, -161574.78, -161774.75, -161780.73, -161659.39, -161729.38, 0.00, 0.00, 0.00
2688.0, -161653.44, -161314.56, -161211.03, -161420.25, -161082.83, -161388.69, -161271.11, -161614.38, 0.00, 0.00, 0.00
2692.0, -161811.11, -161507.78, -161648.72, -161540.23, -161403.97, -161818.53, -161879.39, -161777.39, 0.00, 0.00, 0.00
2696.0, -162167.05, -161772.31, -162127.75, -161737.00, -162324.33, -162213.59, -162365.72, -162138.78, 0.00, 0.00, 0.00
2700.0, -161961.83, -161644.61, -161791.64, -161619.25, -162119.97, -161868.06, -161786.38, -161804.08, 0.00, 0.00, 0.00
2704.0, -161339.05, -161329.72, -161262.06, -161422.08, -161596.20, -161391.59, -161241.20, -161621.77, 0.00, 0.00, 0.00
2708.0, -161380.30, -161430.33, -161547.16, -161490.83, -161811.56, -161718.53, -161711.80, -161715.89, 0.00, 0.00, 0.00
2712.0, -162137.11, -161713.64, -162094.83, -161703.69, -162303.81, -162192.98, -162347.36, -162115.56, 0.00, 0.00, 0.00
2716.0, -162198.31, -161654.34, -161900.27, -161649.06, -162099.20, -161963.94, -161927.52, -161876.11, 0.00, 0.00, 0.00
2720.0, -161721.53, -161337.45, -161304.70, -161435.17, -161521.61, -161422.44, -161274.36, -161615.22, 0.00, 0.00, 0.00
2724.0, -161677.67, -161399.45, -161445.77, -161467.05, -161607.33, -161623.16, -161583.30, -161681.19, 0.00, 0.00, 0.00
2728.0, -162083.31, -161713.69, -162049.77, -161693.59, -162152.38, -162178.80, -162309.56, -162090.28, 0.00, 0.00, 0.00
2732.0, -162103.63, -161736.23, -162011.00, -161697.86, -162093.22, -162083.16, -162066.81, -161977.63, 0.00, 0.00, 0.00
2736.0, -161515.42, -161401.73, -161386.89, -161462.45, -161401.52, -161508.80, -161339.00, -161616.67, 0.00, 0.00, 0.00
2740.0, -161211.14, -161335.84, -161348.34, -161429.19, -161050.13, -161512.97, -161458.17, -161640.75, 0.00, 0.00, 0.00
2744.0, -161873.66, -161626.42, -161938.73, -161630.94, -161885.77, -162074.70, -162215.70, -162002.64, 0.00, 0.00, 0.00
2748.0, -162295.09, -161728.20, -162056.67, -161700.42, -162352.53, -162118.36, -162172.19, -162039.61, 0.00, 0.00, 0.00
2752.0, -161876.78, -161424.83, -161458.73, -161476.64, -161799.05, -161556.55, -161412.69, -161628.63, 0.00, 0.00, 0.00
2756.0, -161595.22, -161302.63, -161280.14, -161407.63, -161578.31, -161425.70, -161346.86, -161597.81, 0.00, 0.00, 0.00
2760.0, -161915.70, -161598.08, -161852.19, -161599.73, -162080.58, -161996.70, -162109.02, -161912.75, 0.00, 0.00, 0.00
2764.0, -162156.17, -161777.20, -162125.48, -161738.30, -162314.83, -162184.19, -162270.64, -162101.58, 0.00, 0.00, 0.00
2768.0, -161765.69, -161526.16, -161594.86, -161536.77, -161803.41, -161682.39, -161534.80, -161674.45, 0.00, 0.00, 0.00
2772.0, -161218.13, -161302.91, -161218.91, -161400.63, -161460.28, -161402.59, -161287.19, -161590.52, 0.00, 0.00, 0.00
2776.0, -161579.91, -161527.16, -161658.41, -161548.69, -161880.05, -161902.83, -161978.28, -161825.59, 0.00, 0.00, 0.00
2780.0, -162254.02, -161748.92, -162043.02, -161720.14, -162221.52, -162201.84, -162324.70, -162128.97, 0.00, 0.00, 0.00
2784.0, -162043.53, -161554.22, -161608.97, -161559.86, -161783.83, -161772.16, -161657.16, -161726.56, 0.00, 0.00, 0.00
2788.0, -161620.19, -161289.00, -161184.08, -161389.02, -161097.27, -161366.20, -161235.38, -161598.56, 0.00, 0.00, 0.00
2792.0, -161763.95, -161466.53, -161594.55, -161499.27, -161377.44, -161775.14, -161817.11, -161751.91, 0.00, 0.00, 0.00
2796.0, -162124.91, -161729.22, -162083.63, -161697.61, -162301.78, -162181.17, -162333.81, -162128.23, 0.00, 0.00, 0.00
2800.0, -161930.73, -161604.83, -161772.20, -161592.59, -162107.36, -161853.47, -161785.05, -161798.63, 0.00, 0.00, 0.00
2804.0, -161290.05, -161286.98, -161225.52, -161396.44, -161568.06, -161360.91, -161220.59, -161590.34, 0.00, 0.00, 0.00
2808.0, -161319.28, -161390.67, -161481.58, -161453.73, -161756.19, -161667.84, -161659.95, -161674.28, 0.00, 0.00, 0.00
2812.0, -162086.00, -161690.44, -162041.02, -161669.02, -162259.63, -162159.42, -162312.38, -162091.81, 0.00, 0.00, 0.00
2816.0, -162181.23, -161651.23, -161875.80, -161624.98, -162082.16, -161955.39, -161922.30, -161872.02, 0.00, 0.00, 0.00
2820.0, -161698.23, -161324.81, -161276.13, -161407.33, -161497.25, -161403.66, -161254.06, -161581.72, 0.00, 0.00, 0.00
2824.0, -161618.95, -161357.91, -161397.20, -161432.72, -161546.59, -161561.36, -161527.42, -161631.06, 0.00, 0.00, 0.00
2828.0, -162015.88, -161670.25, -162004.86, -161657.64, -162091.52, -162120.34, -162270.89, -162044.47, 0.00, 0.00, 0.00
2832.0, -162067.13, -161714.39, -162000.94, -161682.08, -162065.55, -162056.98, -162068.50, -161966.91, 0.00, 0.00, 0.00
2836.0, -161508.20, -161388.34, -161380.84, -161442.63, -161381.28, -161489.98, -161332.45, -161602.39, 0.00, 0.00, 0.00
2840.0, -161163.69, -161302.45, -161294.36, -161397.41, -160999.70, -161465.58, -161413.77, -161614.14, 0.00, 0.00, 0.00
2844.0, -161777.09, -161584.53, -161866.72, -161587.81, -161818.94, -162019.63, -162168.00, -161953.89, 0.00, 0.00, 0.00
2848.0, -162236.13, -161691.44, -162004.36, -161666.45, -162304.38, -162082.23, -162157.72, -162010.27, 0.00, 0.00, 0.00
2852.0, -161840.97, -161399.86, -161419.69, -161451.88, -161763.30, -161530.84, -161401.52, -161599.84, 0.00, 0.00, 0.00
2856.0, -161552.19, -161273.84, -161231.78, -161375.61, -161524.31, -161383.09, -161306.67, -161571.34, 0.00, 0.00, 0.00
2860.0, -161864.94, -161558.16, -161799.52, -161557.52, -162016.64, -161950.28, -162061.86, -161873.23, 0.00, 0.00, 0.00
2864.0, -162113.70, -161741.47, -162091.20, -161698.58, -162267.67, -162154.28, -162255.31, -162077.80, 0.00, 0.00, 0.00
2868.0, -161721.50, -161491.22, -161570.03, -161502.61, -161763.97, -161659.20, -161528.36, -161647.86, 0.00, 0.00, 0.00
2872.0, -161156.09, -161256.20, -161203.75, -161367.88, -161399.69, -161356.95, -161252.08, -161581.27, 0.00, 0.00, 0.00
2876.0, -161506.81, -161480.17, -161669.36, -161508.36, -161803.98, -161849.28, -161925.33, -161796.38, 0.00, 0.00, 0.00
2880.0, -162198.52, -161713.81, -162074.44, -161681.25, -162163.05, -162167.53, -162290.13, -162101.42, 0.00, 0.00, 0.00
2884.0, -162009.86, -161529.84, -161656.28, -161531.92, -161736.09, -161752.06, -161639.83, -161706.02, 0.00, 0.00, 0.00
2888.0, -161573.83, -161258.36, -161187.13, -161361.16, -161015.75, -161329.39, -161199.44, -161568.19, 0.00, 0.00, 0.00
2892.0, -161696.92, -161427.58, -161551.86, -161455.98, -161286.81, -161722.23, -161759.64, -161709.39, 0.00, 0.00, 0.00
2896.0, -162064.45, -161698.42, -162054.45, -161660.03, -162229.77, -162145.36, -162300.45, -162093.50, 0.00, 0.00, 0.00
2900.0, -161890.78, -161590.19, -161764.84, -161564.50, -162078.33, -161836.66, -161774.83, -161778.92, 0.00, 0.00, 0.00
2904.0, -161251.31, -161265.50, -161207.44, -161363.52, -161530.28, -161329.80, -161199.44, -161560.89, 0.00, 0.00, 0.00
2908.0, -161236.03, -161344.52, -161436.56, -161415.70, -161694.22, -161607.95, -161613.05, -161635.42, 0.00, 0.00, 0.00
2912.0, -161985.70, -161638.64, -161998.73, -161627.73, -162201.38, -162109.78, -162270.81, -162046.14, 0.00, 0.00, 0.00
2916.0, -162141.94, -161609.41, -161855.88, -161595.08, -162044.63, -161924.50, -161901.84, -161844.66, 0.00, 0.00, 0.00
2920.0, -161628.34, -161285.64, -161248.30, -161376.95, -161455.03, -161368.13, -161219.03, -161544.80, 0.00, 0.00, 0.00
2924.0, -161350.39, -161301.30, -161330.97, -161385.98, -161475.97, -161501.73, -161458.56, -161585.69, 0.00, 0.00, 0.00
2928.0, -161979.83, -161601.14, -161927.30, -161593.66, -162009.78, -162060.61, -162206.09, -161978.48, 0.00, 0.00, 0.00
2932.0, -162249.61, -161652.19, -161942.25, -161626.36, -161999.52, -162012.20, -162034.16, -161919.77, 0.00, 0.00, 0.00
2936.0, -161792.38, -161336.25, -161327.88, -161402.02, -161285.20, -161439.02, -161283.64, -161551.75, 0.00, 0.00, 0.00
2940.0, -161579.23, -161265.34, -161254.95, -161362.45, -160895.98, -161395.84, -161330.58, -161537.08, 0.00, 0.00, 0.00
2944.0, -161921.94, -161554.14, -161840.45, -161548.23, -161734.89, -161954.61, -162090.78, -161879.42, 0.00, 0.00, 0.00
2948.0, -162084.91, -161674.77, -162006.11, -161636.80, -162259.00, -162041.36, -162119.59, -161966.53, 0.00, 0.00, 0.00
2952.0, -161610.91, -161385.78, -161427.06, -161424.30, -161728.81, -161496.31, -161367.11, -161567.09, 0.00, 0.00, 0.00
2956.0, -161117.78, -161220.47, -161187.55, -161336.88, -161462.83, -161322.14, -161233.56, -161533.30, 0.00, 0.00, 0.00
2960.0, -161608.27, -161478.30, -161723.63, -161496.95, -161928.08, -161874.23, -161964.11, -161794.91, 0.00, 0.00, 0.00
2964.0, -162211.55, -161664.19, -162029.16, -161634.53, -162190.91, -162092.44, -162193.02, -162007.31, 0.00, 0.00, 0.00
2968.0, -161913.64, -161429.59, -161523.63, -161453.80, -161698.27, -161604.78, -161480.11, -161606.06, 0.00, 0.00, 0.00
2972.0, -161522.47, -161211.34, -161152.55, -161322.75, -161310.67, -161292.47, -161178.41, -161518.75, 0.00, 0.00, 0.00
2976.0, -161729.53, -161436.45, -161615.27, -161452.28, -161699.13, -161789.61, -161839.00, -161710.34, 0.00, 0.00, 0.00
2980.0, -162064.52, -161681.77, -162048.22, -161637.42, -162083.98, -162135.84, -162248.33, -162038.27, 0.00, 0.00, 0.00
2984.0, -161810.55, -161522.02, -161659.52, -161507.58, -161682.34, -161749.11, -161625.44, -161666.39, 0.00, 0.00, 0.00
2988.0, -161186.67, -161225.20, -161162.58, -161329.00, -160940.05, -161304.69, -161162.78, -161521.05, 0.00, 0.00, 0.00
2992.0, -161280.11, -161340.05, -161472.14, -161396.33, -161151.17, -161640.25, -161676.28, -161624.08, 0.00, 0.00, 0.00
2996.0, -162011.36, -161595.11, -161970.19, -161580.91, -162083.36, -162061.42, -162229.47, -161993.97, 0.00, 0.00, 0.00
3000.0, -162047.45, -161516.53, -161721.09, -161517.86, -162034.27, -161787.05, -161745.98, -161715.84, 0.00, 0.00, 0.00
3004.0, -161586.56, -161224.27, -161170.69, -161328.45, -161490.75, -161285.25, -161161.91, -161511.67, 0.00, 0.00, 0.00
3008.0, -161569.78, -161308.83, -161376.92, -161357.58, -161620.03, -161537.14, -161533.80, -161584.06, 0.00, 0.00, 0.00
3012.0, -161949.20, -161600.25, -161944.69, -161554.53, -162128.23, -162044.11, -162211.23, -161962.61, 0.00, 0.00, 0.00
3016.0, -161924.09, -161594.08, -161841.02, -161548.39, -162007.36, -161893.72, -161892.30, -161800.97, 0.00, 0.00, 0.00
3020.0, -161334.59, -161270.92, -161239.75, -161343.11, -161426.73, -161345.53, -161211.14, -161517.88, 0.00, 0.00, 0.00
3024.0, -161098.34, -161242.55, -161275.75, -161325.52, -161413.25, -161436.63, -161405.55, -161544.81, 0.00, 0.00, 0.00
3028.0, -161769.56, -161527.48, -161851.55, -161505.11, -161928.64, -161978.33, -162134.36, -161896.34, 0.00, 0.00, 0.00
3032.0, -162135.09, -161590.02, -161892.03, -161547.81, -161941.31, -161952.11, -161996.92, -161863.89, 0.00, 0.00, 0.00
3036.0, -161672.75, -161284.84, -161287.56, -161343.88, -161224.22, -161386.66, -161259.06, -161512.50, 0.00, 0.00, 0.00
3040.0, -161242.84, -161188.58, -161180.19, -161292.84, -160805.28, -161307.77, -161267.42, -161484.06, 0.00, 0.00, 0.00
3044.0, -161748.81, -161460.56, -161744.45, -161447.27, -161592.52, -161857.06, -162007.45, -161780.95, 0.00, 0.00, 0.00
3048.0, -162218.55, -161601.50, -161939.59, -161543.41, -162194.42, -161972.56, -162078.33, -161894.06, 0.00, 0.00, 0.00
3052.0, -161846.52, -161339.73, -161381.58, -161363.77, -161703.42, -161444.88, -161345.77, -161519.11, 0.00, 0.00, 0.00
3056.0, -161523.52, -161176.14, -161132.58, -161285.53, -161416.30, -161255.31, -161187.83, -161484.47, 0.00, 0.00, 0.00
3060.0, -161799.05, -161437.72, -161670.92, -161437.28, -161877.75, -161808.75, -161912.09, -161726.42, 0.00, 0.00, 0.00
3064.0, -162084.45, -161646.64, -162017.03, -161594.25, -162180.47, -162065.66, -162184.94, -161968.42, 0.00, 0.00, 0.00
3068.0, -161757.56, -161440.44, -161542.25, -161434.33, -161717.64, -161610.03, -161493.58, -161576.78, 0.00, 0.00, 0.00
3072.0, -161182.88, -161192.30, -161104.95, -161280.81, -161315.22, -161267.11, -161161.53, -161481.64, 0.00, 0.00, 0.00
3076.0, -161437.66, -161371.47, -161488.64, -161392.69, -161684.00, -161723.50, -161798.69, -161655.97, 0.00, 0.00, 0.00
3080.0, -162157.14, -161617.08, -161938.78, -161584.38, -162089.23, -162087.41, -162242.64, -162004.67, 0.00, 0.00, 0.00
3084.0, -162021.33, -161477.05, -161580.36, -161474.25, -161725.28, -161725.33, -161644.14, -161653.80, 0.00, 0.00, 0.00
3088.0, -161578.70, -161193.28, -161093.44, -161284.91, -161023.50, -161271.34, -161150.84, -161501.92, 0.00, 0.00, 0.00
3092.0, -161663.28, -161330.95, -161428.61, -161357.06, -161164.77, -161602.25, -161657.59, -161612.52, 0.00, 0.00, 0.00
3096.0, -162043.91, -161611.69, -161965.81, -161559.23, -162127.80, -162060.47, -162243.53, -162007.72, 0.00, 0.00, 0.00
3100.0, -161927.72, -161541.66, -161739.23, -161504.88, -162072.73, -161807.09, -161782.17, -161733.84, 0.00, 0.00, 0.00
3104.0, -161331.78, -161215.73, -161160.19, -161297.17, -161512.00, -161284.45, -161160.81, -161482.67, 0.00, 0.00, 0.00
3108.0, -161214.61, -161262.95, -161335.36, -161331.58, -161629.61, -161506.19, -161510.22, -161558.45, 0.00, 0.00, 0.00
3112.0, -161963.80, -161566.19, -161922.38, -161534.69, -162158.22, -162031.05, -162203.70, -161968.98, 0.00, 0.00, 0.00
3116.0, -162139.89, -161577.53, -161848.44, -161537.03, -162065.20, -161906.80, -161913.78, -161827.34, 0.00, 0.00, 0.00
3120.0, -161674.50, -161259.14, -161233.45, -161317.94, -161482.55, -161355.47, -161216.25, -161494.77, 0.00, 0.00, 0.00
3124.0, -161549.66, -161245.97, -161205.48, -161303.97, -161470.42, -161428.77, -161412.64, -161511.16, 0.00, 0.00, 0.00
3128.0, -161941.95, -161556.34, -161796.05, -161519.42, -162022.52, -161997.30, -162173.84, -161935.19, 0.00, 0.00, 0.00
3132.0, -162053.47, -161646.17, -161877.63, -161583.28, -162076.94, -162008.83, -162072.00, -161938.77, 0.00, 0.00, 0.00
3136.0, -161565.72, -161341.70, -161283.50, -161355.27, -161504.77, -161464.69, -161319.95, -161510.38, 0.00, 0.00, 0.00
3140.0, -161147.38, -161210.08, -161160.88, -161279.47, -161347.56, -161363.34, -161325.20, -161486.72, 0.00, 0.00, 0.00
3144.0, -161718.38, -161482.78, -161743.19, -161467.72, -161865.50, -161908.13, -162086.16, -161863.19, 0.00, 0.00, 0.00
3148.0, -162225.84, -161641.58, -161975.39, -161588.16, -162061.03, -162056.11, -162181.84, -162021.42, 0.00, 0.00, 0.00
3152.0, -161871.50, -161386.50, -161434.84, -161390.59, -161542.22, -161556.81, -161439.84, -161553.19, 0.00, 0.00, 0.00
3156.0, -161559.91, -161207.34, -161125.52, -161271.45, -161263.92, -161322.39, -161270.89, -161490.98, 0.00, 0.00, 0.00
3160.0, -161853.63, -161462.94, -161627.89, -161449.91, -161739.98, -161772.95, -162012.86, -161824.17, 0.00, 0.00, 0.00
3164.0, -162157.23, -161681.97, -161999.84, -161624.92, -162068.94, -162042.13, -162301.91, -162129.13, 0.00, 0.00, 0.00
3168.0, -161854.25, -161479.70, -161544.05, -161460.64, -161616.70, -161602.86, -161614.63, -161639.88, 0.00, 0.00, 0.00
3172.0, -161328.09, -161215.17, -161103.36, -161269.63, -160980.00, -161251.38, -161254.58, -161455.00, 0.00, 0.00, 0.00
3176.0, -161496.47, -161381.64, -161477.36, -161382.30, -161302.52, -161696.47, -161881.67, -161729.13, 0.00, 0.00, 0.00
3180.0, -162197.11, -161631.66, -161938.77, -161576.11, -162202.45, -162071.64, -162322.25, -162125.41, 0.00, 0.00, 0.00
3184.0, -162058.19, -161495.42, -161597.75, -161465.63, -161980.72, -161721.70, -161731.39, -161724.31, 0.00, 0.00, 0.00
3188.0, -161612.45, -161201.11, -161098.72, -161279.44, -161479.41, -161263.86, -161202.34, -161470.47, 0.00, 0.00, 0.00
3192.0, -161702.81, -161338.17, -161430.91, -161368.84, -161727.94, -161609.00, -161707.38, -161646.48, 0.00, 0.00, 0.00
3196.0, -162104.64, -161635.06, -161990.22, -161586.28, -162229.88, -162086.67, -162304.66, -162109.50, 0.00, 0.00, 0.00
3200.0, -162002.89, -161569.95, -161779.22, -161524.63, -162010.11, -161843.52, -161849.17, -161821.63, 0.00, 0.00, 0.00
3204.0, -161453.86, -161240.45, -161178.11, -161297.25, -161444.98, -161311.02, -161200.66, -161468.08, 0.00, 0.00, 0.00
3208.0, -161289.20, -161281.13, -161282.94, -161321.16, -161554.69, -161509.70, -161545.78, -161549.78, 0.00, 0.00, 0.00
3212.0, -162021.84, -161587.22, -161866.75, -161544.33, -162093.02, -162047.59, -162245.50, -162036.44, 0.00, 0.00, 0.00
3216.0, -162190.59, -161605.63, -161809.64, -161544.64, -162015.00, -161934.41, -161962.88, -161895.09, 0.00, 0.00, 0.00
3220.0, -161723.77, -161275.75, -161199.97, -161312.06, -161422.11, -161367.56, -161229.20, -161487.81, 0.00, 0.00, 0.00
3224.0, -161584.44, -161240.66, -161231.42, -161299.72, -161387.23, -161415.22, -161393.27, -161520.09, 0.00, 0.00, 0.00
3228.0, -161977.50, -161555.41, -161859.61, -161522.11, -161945.30, -161991.38, -162166.75, -161964.48, 0.00, 0.00, 0.00
3232.0, -162101.55, -161650.81, -161959.02, -161587.45, -162015.77, -162016.41, -162083.22, -161982.22, 0.00, 0.00, 0.00
3236.0, -161633.13, -161342.02, -161349.64, -161352.70, -161382.66, -161452.28, -161312.80, -161518.75, 0.00, 0.00, 0.00
3240.0, -161199.53, -161204.84, -161141.92, -161275.14, -160910.84, -161331.67, -161284.06, -161484.02, 0.00, 0.00, 0.00
3244.0, -161729.13, -161470.83, -161688.05, -161462.84, -161643.77, -161888.63, -162044.02, -161856.27, 0.00, 0.00, 0.00
3248.0, -162231.42, -161628.30, -161933.06, -161580.80, -162255.02, -162045.61, -162155.83, -162023.00, 0.00, 0.00, 0.00
3252.0, -161872.88, -161364.08, -161384.31, -161372.97, -161755.34, -161517.67, -161393.81, -161553.73, 0.00, 0.00, 0.00
3256.0, -161534.44, -161173.27, -161099.80, -161266.63, -161434.50, -161260.70, -161173.31, -161483.72, 0.00, 0.00, 0.00
3260.0, -161808.11, -161435.56, -161641.08, -161436.50, -161895.58, -161805.02, -161906.44, -161767.89, 0.00, 0.00, 0.00
3264.0, -162115.13, -161661.02, -162026.69, -161609.41, -162235.91, -162101.03, -162228.75, -162067.33, 0.00, 0.00, 0.00
3268.0, -161811.14, -161451.94, -161565.33, -161434.50, -161783.98, -161644.81, -161532.72, -161609.28, 0.00, 0.00, 0.00
3272.0, -161245.05, -161183.98, -161095.36, -161259.83, -161347.88, -161255.06, -161140.38, -161454.78, 0.00, 0.00, 0.00
3276.0, -161433.95, -161365.69, -161466.81, -161379.19, -161704.38, -161698.69, -161767.13, -161659.34, 0.00, 0.00, 0.00
3280.0, -162164.94, -161631.84, -161952.63, -161584.91, -162143.70, -162101.64, -162255.83, -162062.70, 0.00, 0.00, 0.00
3284.0, -162049.30, -161498.83, -161616.00, -161465.16, -161804.05, -161746.52, -161666.36, -161680.58, 0.00, 0.00, 0.00
3288.0, -161592.36, -161189.84, -161092.23, -161263.97, -161276.38, -161254.67, -161112.28, -161452.39, 0.00, 0.00, 0.00
3292.0, -161662.36, -161315.39, -161408.17, -161342.70, -161509.77, -161585.94, -161602.55, -161587.44, 0.00, 0.00, 0.00
3296.0, -162063.89, -161617.50, -161984.16, -161573.36, -162027.81, -162087.56, -162245.70, -162036.94, 0.00, 0.00, 0.00
3300.0, -161979.22, -161562.14, -161790.39, -161515.63, -161819.30, -161853.69, -161809.17, -161777.58, 0.00, 0.00, 0.00
3304.0, -161413.78, -161226.03, -161172.08, -161287.81, -161056.30, -161292.69, -161136.98, -161472.06, 0.00, 0.00, 0.00
3308.0, -161228.36, -161246.78, -161248.31, -161308.64, -160958.48, -161456.28, -161446.00, -161530.38, 0.00, 0.00, 0.00
3312.0, -161951.92, -161542.17, -161834.56, -161527.11, -161938.77, -162003.50, -162172.67, -161960.69, 0.00, 0.00, 0.00
3316.0, -162152.53, -161565.91, -161793.05, -161532.94, -162141.11, -161901.41, -161917.42, -161840.45, 0.00, 0.00, 0.00
3320.0, -161686.08, -161236.78, -161175.50, -161291.39, -161539.19, -161312.16, -161168.44, -161456.61, 0.00, 0.00, 0.00
3324.0, -161526.22, -161194.45, -161192.59, -161270.42, -161475.02, -161352.91, -161298.16, -161462.69, 0.00, 0.00, 0.00
3328.0, -161909.80, -161506.02, -161824.59, -161492.89, -162034.25, -161952.33, -162086.70, -161879.36, 0.00, 0.00, 0.00
3332.0, -162048.89, -161612.16, -161946.81, -161566.11, -162126.14, -161998.16, -162036.81, -161921.69, 0.00, 0.00, 0.00
3336.0, -161578.55, -161307.34, -161336.25, -161334.55, -161540.56, -161421.98, -161262.56, -161492.75, 0.00, 0.00, 0.00
3340.0, -161129.00, -161169.61, -161107.88, -161256.91, -161332.73, -161291.17, -161204.52, -161468.19, 0.00, 0.00, 0.00
3344.0, -161668.75, -161450.42, -161659.30, -161449.38, -161850.70, -161870.14, -161981.16, -161800.16, 0.00, 0.00, 0.00
3348.0, -162200.03, -161624.20, -161931.25, -161581.81, -162084.86, -162055.55, -162142.09, -161986.13, 0.00, 0.00, 0.00
3352.0, -161858.00, -161367.88, -161392.31, -161372.39, -161558.84, -161531.72, -161382.36, -161533.03, 0.00, 0.00, 0.00
3356.0, -161511.13, -161163.36, -161079.81, -161247.42, -161220.27, -161250.58, -161131.50, -161444.56, 0.00, 0.00, 0.00
3360.0, -161772.58, -161408.69, -161606.02, -161415.02, -161672.64, -161785.44, -161856.13, -161714.27, 0.00, 0.00, 0.00
3364.0, -162092.63, -161643.63, -162014.63, -161599.64, -162035.77, -162105.34, -162213.98, -162039.13, 0.00, 0.00, 0.00
3368.0, -161805.02, -161448.17, -161571.44, -161430.34, -161578.91, -161662.47, -161529.59, -161605.36, 0.00, 0.00, 0.00
3372.0, -161232.58, -161168.20, -161088.22, -161247.63, -160864.22, -161245.56, -161105.31, -161459.34, 0.00, 0.00, 0.00
3376.0, -161401.45, -161329.13, -161436.98, -161358.78, -161211.06, -161655.31, -161706.02, -161635.38, 0.00, 0.00, 0.00
3380.0, -162134.11, -161593.56, -161933.36, -161565.47, -162154.91, -162071.39, -162219.08, -162034.09, 0.00, 0.00, 0.00
3384.0, -162036.75, -161472.38, -161617.56, -161454.05, -161965.63, -161733.22, -161652.42, -161671.91, 0.00, 0.00, 0.00
3388.0, -161578.91, -161164.03, -161075.09, -161246.73, -161427.75, -161228.72, -161081.78, -161441.25, 0.00, 0.00, 0.00
3392.0, -161635.34, -161285.94, -161363.27, -161321.03, -161643.05, -161549.86, -161548.61, -161571.59, 0.00, 0.00, 0.00
3396.0, -162043.33, -161598.33, -161953.83, -161559.31, -162176.14, -162073.61, -162218.05, -162023.56, 0.00, 0.00, 0.00
3400.0, -161979.27, -161559.95, -161788.00, -161514.75, -161997.64, -161865.38, -161814.59, -161780.47, 0.00, 0.00, 0.00
3404.0, -161440.55, -161226.17, -161171.67, -161272.02, -161413.00, -161306.00, -161132.02, -161432.83, 0.00, 0.00, 0.00
3408.0, -161241.91, -161237.81, -161240.61, -161286.50, -161486.67, -161458.67, -161430.08, -161505.19, 0.00, 0.00, 0.00
3412.0, -161964.02, -161541.91, -161844.03, -161524.34, -162045.09, -162022.97, -162182.00, -161975.86, 0.00, 0.00, 0.00
3416.0, -162177.13, -161582.44, -161836.14, -161546.31, -162014.14, -161953.72, -161965.23, -161886.95, 0.00, 0.00, 0.00
3420.0, -161721.97, -161257.58, -161217.36, -161295.75, -161416.52, -161373.44, -161200.31, -161464.73, 0.00, 0.00, 0.00
3424.0, -161555.30, -161197.58, -161180.08, -161265.84, -161337.92, -161364.09, -161303.66, -161468.28, 0.00, 0.00, 0.00
3428.0, -161937.41, -161507.94, -161803.98, -161495.64, -161898.47, -161955.45, -162102.64, -161910.11, 0.00, 0.00, 0.00
3432.0, -162095.67, -161628.83, -161955.17, -161585.42, -162018.47, -162030.47, -162095.03, -161985.08, 0.00, 0.00, 0.00
3436.0, -161680.53, -161334.66, -161358.95, -161341.80, -161445.11, -161474.41, -161313.78, -161495.45, 0.00, 0.00, 0.00
3440.0, -161423.22, -161188.89, -161123.19, -161243.95, -161231.16, -161296.31, -161235.67, -161459.42, 0.00, 0.00, 0.00
3444.0, -161758.42, -161463.78, -161678.88, -161458.06, -161755.14, -161794.86, -162020.09, -161845.83, 0.00, 0.00, 0.00
3448.0, -162012.34, -161650.58, -161977.52, -161608.72, -162016.22, -162003.00, -162211.34, -162078.11, 0.00, 0.00, 0.00
3452.0, -161637.14, -161402.98, -161448.64, -161398.75, -161467.83, -161490.28, -161457.50, -161565.31, 0.00, 0.00, 0.00
3456.0, -161087.25, -161160.88, -161056.39, -161229.94, -160819.45, -161188.59, -161165.39, -161438.38, 0.00, 0.00, 0.00
3460.0, -161431.94, -161367.50, -161497.00, -161379.66, -161339.92, -161704.09, -161852.08, -161723.16, 0.00, 0.00, 0.00
3464.0, -162118.45, -161597.63, -161908.61, -161563.91, -162191.61, -162036.95, -162217.52, -162075.22, 0.00, 0.00, 0.00
3468.0, -161919.03, -161414.39, -161484.17, -161407.38, -161862.23, -161609.52, -161546.58, -161624.30, 0.00, 0.00, 0.00
3472.0, -161495.45, -161139.80, -161038.30, -161229.52, -161391.44, -161188.61, -161090.83, -161425.75, 0.00, 0.00, 0.00
3476.0, -161643.70, -161317.63, -161455.97, -161345.30, -161712.34, -161628.52, -161684.72, -161624.94, 0.00, 0.00, 0.00
3480.0, -162025.02, -161601.91, -161982.91, -161570.42, -162187.53, -162082.86, -162241.70, -162077.05, 0.00, 0.00, 0.00
3484.0, -161861.61, -161495.23, -161688.42, -161471.34, -161891.64, -161768.44, -161701.95, -161718.47, 0.00, 0.00, 0.00
3488.0, -161270.16, -161175.36, -161104.28, -161243.88, -161342.63, -161251.09, -161105.36, -161428.14, 0.00, 0.00, 0.00
3492.0, -161233.78, -161259.50, -161291.61, -161302.05, -161527.48, -161528.77, -161543.34, -161558.42, 0.00, 0.00, 0.00
3496.0, -161996.97, -161555.41, -161864.42, -161535.98, -162055.78, -162049.45, -162223.53, -162036.31, 0.00, 0.00, 0.00
3500.0, -162089.91, -161527.69, -161718.69, -161502.09, -161899.61, -161863.30, -161848.94, -161814.64, 0.00, 0.00, 0.00
3504.0, -161616.61, -161200.08, -161113.92, -161257.30, -161307.11, -161295.44, -161140.53, -161433.77, 0.00, 0.00, 0.00
3508.0, -161540.17, -161216.72, -161230.75, -161270.45, -161349.08, -161427.33, -161401.41, -161494.80, 0.00, 0.00, 0.00
3512.0, -161942.66, -161529.19, -161855.06, -161510.69, -161911.56, -162005.03, -162162.61, -161978.06, 0.00, 0.00, 0.00
3516.0, -162006.25, -161582.36, -161870.19, -161546.27, -161906.20, -161960.38, -161978.64, -161915.89, 0.00, 0.00, 0.00
3520.0, -161498.77, -161256.56, -161238.03, -161291.86, -161220.94, -161377.67, -161208.73, -161453.38, 0.00, 0.00, 0.00
3524.0, -161117.16, -161163.47, -161102.42, -161239.59, -160822.19, -161318.38, -161266.22, -161457.27, 0.00, 0.00, 0.00
3528.0, -161703.42, -161444.44, -161667.84, -161445.86, -161641.80, -161885.44, -162036.13, -161869.36, 0.00, 0.00, 0.00
3532.0, -162152.88, -161566.27, -161833.94, -161538.88, -162171.47, -161978.55, -162052.58, -161965.52, 0.00, 0.00, 0.00
3536.0, -161758.98, -161277.84, -161250.80, -161312.22, -161634.09, -161417.86, -161275.28, -161483.72, 0.00, 0.00, 0.00
3540.0, -161461.83, -161126.44, -161060.25, -161217.11, -161373.27, -161238.13, -161141.45, -161424.42, 0.00, 0.00, 0.00
3544.0, -161768.53, -161407.06, -161641.53, -161405.47, -161866.88, -161811.69, -161907.47, -161768.33, 0.00, 0.00, 0.00
3548.0, -162031.23, -161603.67, -161957.88, -161559.78, -162144.94, -162047.39, -162145.34, -162019.92, 0.00, 0.00, 0.00
3552.0, -161667.09, -161363.88, -161440.81, -161365.00, -161645.33, -161548.91, -161404.89, -161534.38, 0.00, 0.00, 0.00
3556.0, -161104.19, -161118.00, -161050.19, -161218.36, -161257.80, -161214.34, -161084.38, -161417.72, 0.00, 0.00, 0.00
3560.0, -161410.23, -161327.84, -161509.91, -161359.55, -161656.45, -161703.72, -161760.89, -161665.33, 0.00, 0.00, 0.00
3564.0, -162104.66, -161570.55, -161943.13, -161551.67, -162046.05, -162058.92, -162184.31, -162028.73, 0.00, 0.00, 0.00
3568.0, -161917.91, -161398.72, -161536.14, -161405.63, -161641.13, -161651.59, -161538.98, -161599.55, 0.00, 0.00, 0.00
3572.0, -161475.86, -161114.52, -161044.81, -161215.02, -160933.31, -161198.30, -161057.05, -161400.08, 0.00, 0.00, 0.00
3576.0, -161588.56, -161273.44, -161401.72, -161310.56, -161138.92, -161578.83, -161611.69, -161564.75, 0.00, 0.00, 0.00
3580.0, -161962.67, -161551.16, -161927.25, -161528.94, -162098.69, -162035.59, -162190.53, -162006.13, 0.00, 0.00, 0.00
3584.0, -161810.08, -161455.42, -161655.77, -161443.16, -161967.23, -161741.31, -161678.14, -161684.73, 0.00, 0.00, 0.00
3588.0, -161180.72, -161130.19, -161074.38, -161223.86, -161402.72, -161208.84, -161052.77, -161406.28, 0.00, 0.00, 0.00
3592.0, -161136.84, -161203.09, -161282.38, -161271.91, -161549.03, -161467.14, -161446.00, -161487.22, 0.00, 0.00, 0.00
3596.0, -161898.73, -161505.36, -161868.44, -161496.56, -162078.94, -162000.45, -162140.11, -161950.47, 0.00, 0.00, 0.00
3600.0, -162043.70, -161493.36, -161752.78, -161478.58, -161950.52, -161840.73, -161802.39, -161768.86, 0.00, 0.00, 0.00
3604.0, -161567.64, -161165.45, -161131.81, -161242.53, -161351.69, -161265.42, -161093.23, -161420.11, 0.00, 0.00, 0.00
3608.0, -161459.83, -161172.52, -161192.38, -161239.06, -161359.72, -161373.27, -161315.03, -161467.45, 0.00, 0.00, 0.00
3612.0, -161851.66, -161489.31, -161810.11, -161469.91, -161918.17, -161957.72, -162086.48, -161902.83, 0.00, 0.00, 0.00
3616.0, -161932.81, -161556.55, -161852.27, -161518.19, -161938.73, -161938.36, -161941.77, -161868.31, 0.00, 0.00, 0.00
3620.0, -161402.09, -161235.08, -161223.38, -161271.78, -161284.66, -161359.25, -161174.72, -161430.89, 0.00, 0.00, 0.00
3624.0, -161014.20, -161120.13, -161053.66, -161204.33, -160850.20, -161273.89, -161201.25, -161433.56, 0.00, 0.00, 0.00
3628.0, -161612.36, -161392.08, -161607.53, -161401.16, -161615.02, -161839.13, -161974.53, -161805.88, 0.00, 0.00, 0.00
3632.0, -162098.80, -161526.23, -161800.42, -161504.78, -162170.14, -161957.61, -162032.33, -161925.89, 0.00, 0.00, 0.00
3636.0, -161718.23, -161244.94, -161225.97, -161288.63, -161641.23, -161404.42, -161263.92, -161469.58, 0.00, 0.00, 0.00
3640.0, -161397.98, -161080.28, -161012.33, -161195.56, -161351.63, -161192.44, -161098.00, -161411.94, 0.00, 0.00, 0.00
3644.0, -161684.94, -161359.23, -161586.08, -161373.86, -161828.84, -161757.92, -161851.75, -161716.03, 0.00, 0.00, 0.00
3648.0, -161960.89, -161566.36, -161926.98, -161533.95, -162129.22, -162016.64, -162123.17, -161981.61, 0.00, 0.00, 0.00
3652.0, -161607.39, -161339.16, -161427.47, -161346.78, -161645.47, -161531.53, -161400.13, -161511.84, 0.00, 0.00, 0.00
3656.0, -161022.30, -161081.27, -161019.75, -161182.88, -161235.16, -161174.67, -161053.09, -161393.02, 0.00, 0.00, 0.00
3660.0, -161311.19, -161282.34, -161463.50, -161312.41, -161615.09, -161650.56, -161710.81, -161617.55, 0.00, 0.00, 0.00
3664.0, -162031.91, -161534.06, -161917.13, -161508.84, -162022.89, -162026.20, -162158.81, -161991.11, 0.00, 0.00, 0.00
3668.0, -161885.95, -161378.41, -161532.63, -161376.08, -161640.64, -161637.03, -161533.58, -161586.39, 0.00, 0.00, 0.00
3672.0, -161434.19, -161088.06, -161018.11, -161183.98, -160925.98, -161166.47, -161022.20, -161383.20, 0.00, 0.00, 0.00
3676.0, -161523.69, -161230.25, -161351.73, -161267.14, -161080.36, -161525.64, -161548.28, -161526.03, 0.00, 0.00, 0.00
3680.0, -161902.42, -161508.63, -161892.83, -161484.36, -162045.98, -161996.47, -162148.25, -161964.63, 0.00, 0.00, 0.00
3684.0, -161771.84, -161426.33, -161648.81, -161414.77, -161965.47, -161726.00, -161665.95, -161665.94, 0.00, 0.00, 0.00
3688.0, -161137.44, -161098.16, -161058.50, -161199.66, -161390.50, -161182.02, -161025.05, -161382.97, 0.00, 0.00, 0.00
3692.0, -161064.67, -161157.77, -161244.30, -161234.97, -161509.23, -161415.03, -161385.36, -161472.06, 0.00, 0.00, 0.00
3696.0, -161821.84, -161463.14, -161838.61, -161457.19, -162046.88, -161960.17, -162101.84, -161911.27, 0.00, 0.00, 0.00
3700.0, -162008.83, -161462.72, -161749.38, -161451.77, -161943.55, -161823.66, -161799.56, -161752.55, 0.00, 0.00, 0.00
3704.0, -161535.42, -161137.88, -161120.08, -161217.97, -161342.28, -161244.66, -161071.94, -161390.75, 0.00, 0.00, 0.00
3708.0, -161405.92, -161134.59, -161135.75, -161204.39, -161323.69, -161324.41, -161259.25, -161430.42, 0.00, 0.00, 0.00
3712.0, -161794.11, -161449.08, -161750.47, -161428.27, -161880.06, -161916.75, -162038.78, -161856.06, 0.00, 0.00, 0.00
3716.0, -161896.34, -161531.78, -161822.84, -161486.97, -161927.55, -161923.20, -161934.63, -161850.34, 0.00, 0.00, 0.00
3720.0, -161378.78, -161215.23, -161206.00, -161251.05, -161289.59, -161347.00, -161167.27, -161404.98, 0.00, 0.00, 0.00
3724.0, -160960.09, -161086.48, -161062.08, -161181.67, -160828.16, -161239.67, -161156.94, -161395.03, 0.00, 0.00, 0.00
3728.0, -161524.39, -161360.34, -161634.09, -161367.27, -161547.56, -161799.00, -161923.45, -161750.05, 0.00, 0.00, 0.00
3732.0, -162045.63, -161505.91, -161851.17, -161477.00, -162135.34, -161937.63, -162019.56, -161893.02, 0.00, 0.00, 0.00
3736.0, -161687.39, -161235.63, -161284.95, -161267.52, -161624.59, -161398.14, -161253.33, -161438.33, 0.00, 0.00, 0.00
3740.0, -161355.94, -161061.13, -161009.06, -161163.00, -161317.39, -161165.61, -161057.03, -161351.72, 0.00, 0.00, 0.00
3744.0, -161631.19, -161330.50, -161549.55, -161331.80, -161782.28, -161716.67, -161796.19, -161650.42, 0.00, 0.00, 0.00
3748.0, -161922.45, -161547.81, -161914.36, -161502.02, -162104.91, -161996.45, -162100.41, -161945.14, 0.00, 0.00, 0.00
3752.0, -161590.83, -161335.05, -161437.23, -161327.89, -161643.83, -161533.48, -161393.58, -161489.63, 0.00, 0.00, 0.00
3756.0, -161002.45, -161069.86, -160978.86, -161155.98, -161222.02, -161162.08, -161017.20, -161367.72, 0.00, 0.00, 0.00
3760.0, -161268.14, -161255.78, -161359.67, -161278.36, -161585.36, -161615.33, -161656.45, -161578.81, 0.00, 0.00, 0.00
3764.0, -161997.70, -161511.16, -161828.33, -161479.25, -162006.98, -162002.69, -162138.13, -161962.25, 0.00, 0.00, 0.00
3768.0, -161872.47, -161367.03, -161473.83, -161358.42, -161657.00, -161641.50, -161544.50, -161571.61, 0.00, 0.00, 0.00
3772.0, -161419.05, -161072.08, -160969.50, -161159.83, -161145.70, -161167.67, -161019.92, -161351.78, 0.00, 0.00, 0.00
3776.0, -161500.02, -161214.88, -161307.61, -161244.36, -161389.92, -161499.97, -161526.55, -161495.95, 0.00, 0.00, 0.00
3780.0, -161894.11, -161512.94, -161869.78, -161470.34, -161894.73, -161986.02, -162147.13, -161953.06, 0.00, 0.00, 0.00
3784.0, -161790.48, -161449.80, -161660.27, -161413.39, -161676.00, -161746.20, -161700.11, -161676.02, 0.00, 0.00, 0.00
3788.0, -161181.00, -161119.06, -161053.14, -161182.94, -160912.02, -161205.88, -161053.48, -161364.53, 0.00, 0.00, 0.00
3792.0, -161062.58, -161150.89, -161144.25, -161201.69, -160855.59, -161384.27, -161384.44, -161446.94, 0.00, 0.00, 0.00
3796.0, -161803.42, -161443.34, -161716.36, -161417.63, -161829.02, -161914.52, -162088.92, -161887.91, 0.00, 0.00, 0.00
3800.0, -162008.88, -161455.98, -161657.38, -161421.25, -162017.39, -161803.95, -161816.75, -161753.00, 0.00, 0.00, 0.00
3804.0, -161543.61, -161132.98, -161055.95, -161193.05, -161432.67, -161236.89, -161094.00, -161363.86, 0.00, 0.00, 0.00
3808.0, -161397.61, -161109.53, -161102.72, -161177.28, -161386.94, -161283.16, -161250.64, -161392.27, 0.00, 0.00, 0.00
3812.0, -161781.56, -161420.42, -161725.91, -161395.66, -161933.63, -161866.83, -162021.89, -161822.17, 0.00, 0.00, 0.00
3816.0, -161905.23, -161516.42, -161828.28, -161465.52, -162008.36, -161899.05, -161950.03, -161846.81, 0.00, 0.00, 0.00
3820.0, -161421.20, -161213.78, -161227.06, -161233.16, -161439.31, -161347.61, -161190.63, -161397.97, 0.00, 0.00, 0.00
3824.0, -160993.89, -161081.44, -161018.00, -161157.39, -161255.52, -161225.30, -161161.22, -161391.03, 0.00, 0.00, 0.00
3828.0, -161558.31, -161352.97, -161559.81, -161351.97, -161761.61, -161773.63, -161920.30, -161746.30, 0.00, 0.00, 0.00
3832.0, -162082.89, -161513.95, -161808.19, -161477.31, -161973.39, -161938.70, -162044.05, -161918.63, 0.00, 0.00, 0.00
3836.0, -161735.30, -161255.47, -161270.64, -161271.31, -161456.97, -161430.31, -161299.75, -161441.44, 0.00, 0.00, 0.00
3840.0, -161397.94, -161061.77, -160984.34, -161147.27, -161139.06, -161166.44, -161079.72, -161357.75, 0.00, 0.00, 0.00
3844.0, -161664.27, -161312.80, -161511.08, -161313.27, -161581.17, -161675.89, -161793.56, -161651.03, 0.00, 0.00, 0.00
3848.0, -161970.08, -161536.83, -161894.78, -161488.64, -161918.92, -161969.83, -162117.02, -161964.67, 0.00, 0.00, 0.00
3852.0, -161672.52, -161336.77, -161449.95, -161325.78, -161473.83, -161538.67, -161439.38, -161513.25, 0.00, 0.00, 0.00
3856.0, -161104.59, -161069.14, -160986.42, -161145.36, -160798.20, -161150.81, -161046.92, -161343.17, 0.00, 0.00, 0.00
3860.0, -161290.08, -161232.81, -161331.27, -161256.19, -161111.50, -161547.05, -161645.83, -161545.23, 0.00, 0.00, 0.00
3864.0, -162011.34, -161484.70, -161800.42, -161452.17, -162023.78, -161935.23, -162119.67, -161950.25, 0.00, 0.00, 0.00
3868.0, -161898.16, -161355.56, -161476.28, -161342.89, -161831.59, -161599.80, -161555.30, -161577.67, 0.00, 0.00, 0.00
3872.0, -161443.98, -161059.48, -160964.45, -161144.16, -161316.63, -161124.48, -161020.80, -161335.94, 0.00, 0.00, 0.00
3876.0, -161509.00, -161187.91, -161268.70, -161216.58, -161531.98, -161447.67, -161492.27, -161466.00, 0.00, 0.00, 0.00
3880.0, -161905.55, -161486.97, -161831.78, -161441.55, -162036.58, -161938.52, -162121.02, -161925.91, 0.00, 0.00, 0.00
3884.0, -161823.81, -161437.61, -161651.98, -161394.94, -161849.80, -161725.08, -161707.73, -161673.47, 0.00, 0.00, 0.00
3888.0, -161253.80, -161109.67, -161051.44, -161167.97, -161288.42, -161194.11, -161058.95, -161343.42, 0.00, 0.00, 0.00
3892.0, -161085.75, -161128.44, -161121.41, -161186.05, -161365.02, -161355.73, -161366.64, -161424.03, 0.00, 0.00, 0.00
3896.0, -161821.39, -161423.38, -161699.55, -161410.38, -161896.19, -161891.59, -162079.02, -161873.88, 0.00, 0.00, 0.00
3900.0, -162037.47, -161451.92, -161671.34, -161426.08, -161848.91, -161807.05, -161840.44, -161766.55, 0.00, 0.00, 0.00
3904.0, -161579.28, -161134.25, -161069.89, -161188.30, -161268.41, -161248.42, -161109.92, -161355.92, 0.00, 0.00, 0.00
3908.0, -161419.98, -161096.70, -161067.31, -161159.11, -161200.22, -161257.80, -161232.77, -161374.09, 0.00, 0.00, 0.00
3912.0, -161796.45, -161403.94, -161675.58, -161376.14, -161737.00, -161830.92, -161999.36, -161798.66, 0.00, 0.00, 0.00
3916.0, -161936.08, -161512.02, -161804.98, -161457.69, -161837.05, -161887.64, -161962.72, -161851.91, 0.00, 0.00, 0.00
3920.0, -161484.06, -161215.44, -161217.97, -161225.97, -161223.53, -161347.89, -161209.34, -161383.30, 0.00, 0.00, 0.00
3924.0, -161033.73, -161061.45, -160980.64, -161123.75, -160723.25, -161183.83, -161142.44, -161330.61, 0.00, 0.00, 0.00
3928.0, -161530.17, -161311.53, -161496.52, -161301.66, -161408.56, -161701.52, -161877.00, -161688.42, 0.00, 0.00, 0.00
3932.0, -162063.53, -161476.73, -161761.61, -161430.31, -162074.39, -161882.08, -162025.89, -161886.44, 0.00, 0.00, 0.00
3936.0, -161724.72, -161224.63, -161238.97, -161236.56, -161619.20, -161380.28, -161292.89, -161422.53, 0.00, 0.00, 0.00
3940.0, -161371.86, -161022.30, -160940.80, -161119.69, -161277.47, -161106.00, -161042.45, -161335.80, 0.00, 0.00, 0.00
3944.0, -161620.52, -161266.42, -161452.67, -161273.50, -161700.22, -161625.03, -161736.48, -161597.56, 0.00, 0.00, 0.00
3948.0, -161935.44, -161498.55, -161854.67, -161454.02, -162055.64, -161941.48, -162090.13, -161924.23, 0.00, 0.00, 0.00
3952.0, -161652.70, -161309.50, -161429.34, -161300.22, -161643.03, -161523.92, -161431.17, -161491.75, 0.00, 0.00, 0.00
3956.0, -161074.52, -161034.67, -160947.23, -161120.02, -161198.14, -161121.06, -161013.69, -161322.56, 0.00, 0.00, 0.00
3960.0, -161242.95, -161199.13, -161278.58, -161228.30, -161514.02, -161521.70, -161597.47, -161505.52, 0.00, 0.00, 0.00
3964.0, -161979.39, -161464.33, -161770.16, -161435.09, -161957.97, -161937.31, -162105.39, -161924.39, 0.00, 0.00, 0.00
