%OpenBCI Raw EEG Data
%
%Sample Rate = 250.0 Hz
%First Column = Time (ms)
%Other Columns = EEG data in microvolts followed by Accel Data (in G) interleaved with Aux Data
0.0, 35369.82, -3973.16, -103.62, -19504.09, -37411.03, -173285.78, -4604.79, 21113.93, 0.00, 0.00, 0.00
4.0, 35487.93, -3947.70, -84.00, -19464.95, -37376.81, -173399.78, -4952.23, 21108.12, 0.00, 0.00, 0.00
8.0, 35644.17, -4060.15, -199.29, -19541.24, -37468.50, -173303.66, -4876.30, 21147.43, 0.00, 0.00, 0.00
12.0, 35534.00, -4098.13, -226.45, -19587.82, -37501.82, -173264.03, -4569.52, 21154.54, 0.00, 0.00, 0.00
16.0, 35366.63, -4021.53, -142.09, -19552.86, -37439.64, -173400.83, -4599.18, 21114.06, 0.00, 0.00, 0.00
20.0, 35447.81, -3955.99, -84.53, -19483.39, -37369.48, -173534.80, -4953.06, 21093.83, 0.00, 0.00, 0.00
24.0, 35627.29, -4084.42, -223.81, -19569.85, -37481.24, -173448.41, -4948.05, 21121.64, 0.00, 0.00, 0.00
28.0, 35550.36, -4134.94, -265.90, -19624.76, -37533.81, -173370.20, -4627.17, 21144.06, 0.00, 0.00, 0.00
32.0, 35365.93, -4029.10, -146.54, -19559.32, -37438.14, -173498.17, -4582.98, 21125.28, 0.00, 0.00, 0.00
36.0, 35408.89, -3947.76, -70.94, -19488.53, -37353.61, -173660.31, -4929.07, 21103.49, 0.00, 0.00, 0.00
40.0, 35608.29, -4043.86, -180.85, -19540.61, -37429.71, -173619.63, -5021.65, 21130.40, 0.00, 0.00, 0.00
44.0, 35596.31, -4137.35, -266.88, -19623.38, -37520.80, -173511.92, -4707.08, 21151.61, 0.00, 0.00, 0.00
48.0, 35404.20, -4058.20, -173.56, -19579.39, -37455.55, -173614.47, -4583.34, 21126.02, 0.00, 0.00, 0.00
52.0, 35401.86, -3953.53, -72.40, -19497.85, -37358.97, -173794.17, -4895.84, 21093.52, 0.00, 0.00, 0.00
56.0, 35597.34, -4059.21, -194.01, -19564.10, -37449.09, -173780.36, -5059.61, 21102.53, 0.00, 0.00, 0.00
60.0, 35627.29, -4140.82, -267.48, -19630.22, -37528.15, -173662.23, -4785.98, 21118.87, 0.00, 0.00, 0.00
64.0, 35442.69, -4053.85, -170.50, -19576.37, -37455.09, -173748.89, -4612.10, 21110.71, 0.00, 0.00, 0.00
68.0, 35400.33, -3904.74, -22.42, -19454.67, -37315.07, -173960.63, -4897.33, 21090.68, 0.00, 0.00, 0.00
72.0, 35591.33, -3958.99, -85.67, -19467.29, -37347.06, -174011.14, -5157.02, 21112.25, 0.00, 0.00, 0.00
76.0, 35679.86, -4098.19, -226.33, -19577.96, -37475.02, -173886.22, -4938.75, 21144.41, 0.00, 0.00, 0.00
80.0, 35493.34, -4099.20, -214.98, -19601.76, -37484.66, -173902.06, -4680.50, 21112.99, 0.00, 0.00, 0.00
84.0, 35384.96, -3968.02, -76.91, -19502.97, -37366.80, -174087.73, -4875.79, 21067.03, 0.00, 0.00, 0.00
88.0, 35539.70, -3971.70, -87.80, -19483.32, -37360.11, -174175.84, -5195.60, 21061.80, 0.00, 0.00, 0.00
92.0, 35666.39, -4139.90, -255.86, -19613.21, -37510.50, -174040.02, -5035.60, 21089.52, 0.00, 0.00, 0.00
96.0, 35517.43, -4130.13, -230.47, -19618.26, -37501.22, -174013.55, -4737.81, 21086.50, 0.00, 0.00, 0.00
100.0, 35377.76, -4005.03, -99.55, -19524.23, -37383.27, -174180.70, -4851.13, 21056.15, 0.00, 0.00, 0.00
104.0, 35503.04, -3924.43, -27.69, -19432.52, -37299.79, -174314.41, -5218.91, 21055.59, 0.00, 0.00, 0.00
108.0, 35684.54, -4060.44, -171.15, -19514.57, -37413.06, -174214.77, -5163.23, 21104.67, 0.00, 0.00, 0.00
112.0, 35591.53, -4116.90, -214.89, -19571.66, -37469.66, -174139.84, -4843.02, 21110.69, 0.00, 0.00, 0.00
116.0, 35422.64, -3994.12, -81.45, -19490.43, -37361.92, -174285.36, -4876.50, 21079.17, 0.00, 0.00, 0.00
120.0, 35497.45, -3934.73, -34.02, -19432.67, -37300.55, -174431.00, -5238.62, 21071.17, 0.00, 0.00, 0.00
124.0, 35697.10, -4041.28, -150.92, -19490.88, -37392.10, -174350.95, -5262.36, 21117.08, 0.00, 0.00, 0.00
128.0, 35649.31, -4137.17, -239.63, -19579.50, -37489.66, -174223.27, -4923.33, 21134.49, 0.00, 0.00, 0.00
132.0, 35452.28, -4027.63, -120.39, -19511.89, -37400.88, -174325.73, -4861.08, 21101.21, 0.00, 0.00, 0.00
136.0, 35471.55, -3903.40, 0.56, -19396.33, -37283.80, -174505.78, -5222.57, 21081.03, 0.00, 0.00, 0.00
140.0, 35681.70, -3990.79, -101.12, -19428.56, -37349.96, -174477.53, -5350.38, 21130.65, 0.00, 0.00, 0.00
144.0, 35687.15, -4129.62, -234.18, -19551.09, -37485.44, -174325.25, -5029.52, 21149.85, 0.00, 0.00, 0.00
148.0, 35488.73, -4060.26, -155.39, -19518.53, -37433.88, -174377.28, -4874.24, 21113.93, 0.00, 0.00, 0.00
152.0, 35450.45, -3924.88, -21.93, -19406.05, -37310.63, -174555.58, -5186.32, 21074.03, 0.00, 0.00, 0.00
156.0, 35653.20, -3968.49, -81.63, -19412.20, -37342.45, -174569.06, -5397.03, 21111.06, 0.00, 0.00, 0.00
160.0, 35716.50, -4125.53, -238.16, -19542.26, -37490.45, -174407.69, -5115.84, 21147.74, 0.00, 0.00, 0.00
164.0, 35526.55, -4056.64, -152.86, -19508.54, -37439.95, -174435.73, -4900.53, 21121.24, 0.00, 0.00, 0.00
168.0, 35458.83, -3919.67, -14.24, -19392.80, -37313.55, -174626.81, -5160.19, 21092.85, 0.00, 0.00, 0.00
172.0, 35629.44, -3953.58, -63.75, -19388.37, -37335.23, -174684.28, -5435.65, 21100.47, 0.00, 0.00, 0.00
176.0, 35731.25, -4089.32, -201.26, -19488.06, -37460.00, -174544.55, -5226.55, 21133.39, 0.00, 0.00, 0.00
180.0, 35570.09, -4073.36, -175.64, -19495.35, -37454.28, -174538.38, -4955.43, 21130.56, 0.00, 0.00, 0.00
184.0, 35453.42, -3971.50, -71.91, -19429.48, -37369.48, -174701.94, -5118.21, 21083.75, 0.00, 0.00, 0.00
188.0, 35587.98, -3947.56, -62.54, -19388.13, -37339.84, -174798.06, -5441.35, 21075.50, 0.00, 0.00, 0.00
192.0, 35731.21, -4049.71, -170.52, -19451.72, -37425.63, -174689.27, -5319.49, 21124.10, 0.00, 0.00, 0.00
196.0, 35606.06, -4075.71, -182.14, -19483.10, -37451.46, -174655.94, -5020.07, 21140.97, 0.00, 0.00, 0.00
200.0, 35453.53, -3986.81, -85.52, -19429.46, -37378.17, -174804.36, -5096.56, 21100.11, 0.00, 0.00, 0.00
204.0, 35555.66, -3936.12, -42.09, -19368.28, -37322.81, -174931.66, -5443.50, 21085.27, 0.00, 0.00, 0.00
208.0, 35731.72, -4069.45, -183.71, -19452.77, -37434.07, -174833.50, -5392.76, 21123.56, 0.00, 0.00, 0.00
212.0, 35639.61, -4113.03, -217.68, -19507.39, -37484.32, -174751.50, -5059.36, 21130.96, 0.00, 0.00, 0.00
216.0, 35467.90, -3979.37, -75.03, -19415.64, -37364.98, -174898.59, -5070.00, 21109.26, 0.00, 0.00, 0.00
220.0, 35534.27, -3886.90, 12.90, -19329.88, -37273.61, -175062.59, -5435.63, 21100.92, 0.00, 0.00, 0.00
224.0, 35741.55, -3975.53, -87.08, -19372.01, -37341.43, -175018.22, -5496.00, 21149.89, 0.00, 0.00, 0.00
228.0, 35707.94, -4050.78, -153.89, -19438.13, -37408.64, -174923.50, -5182.86, 21177.88, 0.00, 0.00, 0.00
232.0, 35517.41, -3976.42, -66.16, -19394.76, -37342.07, -175030.05, -5102.28, 21154.14, 0.00, 0.00, 0.00
236.0, 35530.58, -3900.33, 8.40, -19329.38, -37267.53, -175186.19, -5423.56, 21120.97, 0.00, 0.00, 0.00
240.0, 35725.06, -3982.39, -83.06, -19372.01, -37334.43, -175148.98, -5545.67, 21142.87, 0.00, 0.00, 0.00
244.0, 35741.64, -4056.66, -154.09, -19428.94, -37399.79, -175031.09, -5258.63, 21184.45, 0.00, 0.00, 0.00
248.0, 35553.67, -4009.63, -95.53, -19415.24, -37364.94, -175087.84, -5090.14, 21167.30, 0.00, 0.00, 0.00
252.0, 35524.07, -3889.67, 22.31, -19319.69, -37256.60, -175255.58, -5373.63, 21129.75, 0.00, 0.00, 0.00
256.0, 35718.33, -3927.45, -27.31, -19319.24, -37284.07, -175265.44, -5585.37, 21146.25, 0.00, 0.00, 0.00
260.0, 35777.83, -4056.22, -158.12, -19419.35, -37403.81, -175124.22, -5333.62, 21178.54, 0.00, 0.00, 0.00
264.0, 35589.59, -4037.75, -127.45, -19428.27, -37393.11, -175146.05, -5103.17, 21158.36, 0.00, 0.00, 0.00
268.0, 35500.63, -3935.49, -20.45, -19355.67, -37304.99, -175302.30, -5316.92, 21107.29, 0.00, 0.00, 0.00
272.0, 35669.11, -3926.06, -24.79, -19315.46, -37282.91, -175358.64, -5601.35, 21124.03, 0.00, 0.00, 0.00
276.0, 35782.82, -4059.79, -162.97, -19413.56, -37402.09, -175216.14, -5406.24, 21175.75, 0.00, 0.00, 0.00
280.0, 35617.70, -4055.75, -146.92, -19433.25, -37404.97, -175198.20, -5125.66, 21173.99, 0.00, 0.00, 0.00
284.0, 35491.46, -3942.04, -28.21, -19355.25, -37304.03, -175351.17, -5270.00, 21131.63, 0.00, 0.00, 0.00
288.0, 35631.36, -3942.87, -40.72, -19330.37, -37298.51, -175428.58, -5586.42, 21128.90, 0.00, 0.00, 0.00
292.0, 35777.74, -4046.20, -146.16, -19397.80, -37395.18, -175303.16, -5470.46, 21157.02, 0.00, 0.00, 0.00
296.0, 35655.19, -4060.28, -154.23, -19419.82, -37412.17, -175259.16, -5166.25, 21163.48, 0.00, 0.00, 0.00
300.0, 35505.70, -3966.61, -53.22, -19359.72, -37328.04, -175396.28, -5225.99, 21123.25, 0.00, 0.00, 0.00
304.0, 35601.66, -3913.99, -4.27, -19302.59, -37274.08, -175511.70, -5567.15, 21097.86, 0.00, 0.00, 0.00
308.0, 35787.06, -3993.74, -96.29, -19333.92, -37335.91, -175435.03, -5553.78, 21147.07, 0.00, 0.00, 0.00
312.0, 35710.51, -4059.84, -152.37, -19396.62, -37400.48, -175357.63, -5233.82, 21166.97, 0.00, 0.00, 0.00
316.0, 35535.00, -3967.77, -49.44, -19339.24, -37318.47, -175484.61, -5213.34, 21136.05, 0.00, 0.00, 0.00
320.0, 35590.21, -3893.88, 16.45, -19270.31, -37245.80, -175632.69, -5556.91, 21112.03, 0.00, 0.00, 0.00
324.0, 35786.64, -3972.40, -76.87, -19305.98, -37310.25, -175585.28, -5624.55, 21144.06, 0.00, 0.00, 0.00
328.0, 35750.63, -4059.55, -159.01, -19383.59, -37389.93, -175489.95, -5314.28, 21169.31, 0.00, 0.00, 0.00
332.0, 35550.61, -4003.85, -92.31, -19369.24, -37349.56, -175575.31, -5196.49, 21138.60, 0.00, 0.00, 0.00
336.0, 35563.30, -3884.58, 21.19, -19269.82, -37237.34, -175741.20, -5515.29, 21108.23, 0.00, 0.00, 0.00
340.0, 35760.51, -3990.93, -97.23, -19329.27, -37321.09, -175710.92, -5650.21, 21124.54, 0.00, 0.00, 0.00
344.0, 35769.07, -4077.94, -176.51, -19403.46, -37402.78, -175588.19, -5361.27, 21149.64, 0.00, 0.00, 0.00
348.0, 35578.81, -3990.39, -77.43, -19347.85, -37322.72, -175671.52, -5198.99, 21148.82, 0.00, 0.00, 0.00
352.0, 35554.72, -3869.29, 44.50, -19249.30, -37202.51, -175853.86, -5479.75, 21126.94, 0.00, 0.00, 0.00
356.0, 35746.68, -3962.85, -61.51, -19295.61, -37271.55, -175861.44, -5693.57, 21134.51, 0.00, 0.00, 0.00
360.0, 35802.89, -4084.07, -180.58, -19391.32, -37380.77, -175723.28, -5449.67, 21145.04, 0.00, 0.00, 0.00
364.0, 35605.01, -4069.51, -155.61, -19399.57, -37370.86, -175751.33, -5211.02, 21125.24, 0.00, 0.00, 0.00
368.0, 35519.47, -3934.85, -24.23, -19300.44, -37251.37, -175919.20, -5416.12, 21090.01, 0.00, 0.00, 0.00
372.0, 35696.79, -3945.73, -47.86, -19280.26, -37248.15, -175970.56, -5698.11, 21103.94, 0.00, 0.00, 0.00
376.0, 35805.28, -4078.52, -178.05, -19375.92, -37363.89, -175836.56, -5522.60, 21139.56, 0.00, 0.00, 0.00
380.0, 35636.23, -4056.28, -144.21, -19372.73, -37342.66, -175842.94, -5255.99, 21140.44, 0.00, 0.00, 0.00
384.0, 35513.03, -3963.77, -49.15, -19316.00, -37256.47, -175993.19, -5376.00, 21107.15, 0.00, 0.00, 0.00
388.0, 35648.30, -3945.35, -41.75, -19286.56, -37233.18, -176066.78, -5689.97, 21094.97, 0.00, 0.00, 0.00
392.0, 35803.09, -4047.39, -148.80, -19347.29, -37319.72, -175954.83, -5598.44, 21134.06, 0.00, 0.00, 0.00
396.0, 35680.47, -4073.67, -164.37, -19375.03, -37340.20, -175920.30, -5297.45, 21152.77, 0.00, 0.00, 0.00
400.0, 35522.93, -3990.95, -74.21, -19330.01, -37267.46, -176046.67, -5321.03, 21116.56, 0.00, 0.00, 0.00
404.0, 35628.32, -3900.63, 4.92, -19238.66, -37173.34, -176164.48, -5661.16, 21108.16, 0.00, 0.00, 0.00
408.0, 35813.89, -4006.24, -110.66, -19300.84, -37261.12, -176077.89, -5653.25, 21144.84, 0.00, 0.00, 0.00
412.0, 35727.95, -4067.08, -160.87, -19357.28, -37318.96, -176008.20, -5347.92, 21158.96, 0.00, 0.00, 0.00
416.0, 35546.25, -3968.17, -52.12, -19293.67, -37234.79, -176131.58, -5314.91, 21132.54, 0.00, 0.00, 0.00
420.0, 35605.95, -3863.41, 42.13, -19195.16, -37133.82, -176293.25, -5680.23, 21130.62, 0.00, 0.00, 0.00
424.0, 35837.29, -3939.36, -44.61, -19234.05, -37196.81, -176221.44, -5734.27, 21178.37, 0.00, 0.00, 0.00
428.0, 35799.16, -4032.12, -132.50, -19312.31, -37278.59, -176139.88, -5459.41, 21202.17, 0.00, 0.00, 0.00
432.0, 35623.88, -3955.66, -44.30, -19274.54, -37218.98, -176208.25, -5301.32, 21181.72, 0.00, 0.00, 0.00
436.0, 35622.55, -3820.49, 88.20, -19156.47, -37088.79, -176397.66, -5645.80, 21162.38, 0.00, 0.00, 0.00
440.0, 35850.23, -3937.59, -44.41, -19222.68, -37188.18, -176336.17, -5752.82, 21194.10, 0.00, 0.00, 0.00
444.0, 35846.96, -4015.69, -118.49, -19290.54, -37264.18, -176234.05, -5512.03, 21204.07, 0.00, 0.00, 0.00
448.0, 35673.20, -3968.64, -62.52, -19271.32, -37226.92, -176277.86, -5294.73, 21200.92, 0.00, 0.00, 0.00
452.0, 35610.93, -3843.52, 63.17, -19180.01, -37111.27, -176460.47, -5579.26, 21167.48, 0.00, 0.00, 0.00
456.0, 35823.61, -3932.10, -39.27, -19226.41, -37184.09, -176430.25, -5758.39, 21187.49, 0.00, 0.00, 0.00
460.0, 35874.14, -3990.73, -89.94, -19270.18, -37236.71, -176315.73, -5557.29, 21211.45, 0.00, 0.00, 0.00
464.0, 35702.48, -3962.96, -52.79, -19259.76, -37214.27, -176350.86, -5314.44, 21220.83, 0.00, 0.00, 0.00
468.0, 35611.40, -3857.82, 52.44, -19191.88, -37126.29, -176518.11, -5507.69, 21186.50, 0.00, 0.00, 0.00
472.0, 35789.68, -3877.74, 17.75, -19191.97, -37143.37, -176547.50, -5771.35, 21179.10, 0.00, 0.00, 0.00
476.0, 35909.46, -3950.47, -53.78, -19237.23, -37206.29, -176444.58, -5641.80, 21207.20, 0.00, 0.00, 0.00
480.0, 35767.44, -3967.79, -59.43, -19263.25, -37220.84, -176442.42, -5359.55, 21213.91, 0.00, 0.00, 0.00
484.0, 35625.73, -3871.28, 43.61, -19210.41, -37137.38, -176599.66, -5469.52, 21170.45, 0.00, 0.00, 0.00
488.0, 35758.97, -3841.86, 62.52, -19162.98, -37098.38, -176689.86, -5792.61, 21161.45, 0.00, 0.00, 0.00
492.0, 35919.70, -3944.61, -44.73, -19223.77, -37184.85, -176583.30, -5711.61, 21194.44, 0.00, 0.00, 0.00
496.0, 35795.78, -3988.07, -83.55, -19270.76, -37227.79, -176546.72, -5413.82, 21201.25, 0.00, 0.00, 0.00
500.0, 35628.75, -3903.22, 2.48, -19229.61, -37160.69, -176667.89, -5416.72, 21163.39, 0.00, 0.00, 0.00
504.0, 35710.51, -3842.13, 53.22, -19168.68, -37098.33, -176780.72, -5752.04, 21139.85, 0.00, 0.00, 0.00
508.0, 35902.18, -3951.86, -65.24, -19241.86, -37195.92, -176680.13, -5745.25, 21160.71, 0.00, 0.00, 0.00
512.0, 35835.10, -3972.49, -78.05, -19267.63, -37220.19, -176614.88, -5454.36, 21180.38, 0.00, 0.00, 0.00
516.0, 35670.45, -3842.11, 65.36, -19179.38, -37106.22, -176741.09, -5405.25, 21180.22, 0.00, 0.00, 0.00
520.0, 35726.78, -3762.87, 133.35, -19101.33, -37024.52, -176907.59, -5766.68, 21178.21, 0.00, 0.00, 0.00
524.0, 35946.32, -3888.20, 1.45, -19188.95, -37138.65, -176810.72, -5815.36, 21197.07, 0.00, 0.00, 0.00
528.0, 35915.70, -3947.36, -49.58, -19242.59, -37194.44, -176721.30, -5549.09, 21211.87, 0.00, 0.00, 0.00
532.0, 35730.96, -3908.83, 0.45, -19237.12, -37168.36, -176778.91, -5374.86, 21194.68, 0.00, 0.00, 0.00
536.0, 35700.27, -3785.31, 120.61, -19140.47, -37057.43, -176956.05, -5697.59, 21159.30, 0.00, 0.00, 0.00
540.0, 35924.13, -3859.79, 29.57, -19174.58, -37116.50, -176913.41, -5839.59, 21199.42, 0.00, 0.00, 0.00
544.0, 35947.39, -3947.61, -50.25, -19255.71, -37203.56, -176795.39, -5600.99, 21220.77, 0.00, 0.00, 0.00
548.0, 35770.08, -3939.29, -30.64, -19275.29, -37202.73, -176812.00, -5361.71, 21205.21, 0.00, 0.00, 0.00
552.0, 35690.10, -3808.13, 99.55, -19178.56, -37076.31, -176983.13, -5612.97, 21159.88, 0.00, 0.00, 0.00
556.0, 35886.86, -3845.19, 50.81, -19179.61, -37097.84, -176989.17, -5833.98, 21184.92, 0.00, 0.00, 0.00
560.0, 35978.51, -3932.43, -30.00, -19247.06, -37178.19, -176858.97, -5636.13, 21222.09, 0.00, 0.00, 0.00
564.0, 35819.23, -3942.31, -28.77, -19271.83, -37190.82, -176850.77, -5360.44, 21221.84, 0.00, 0.00, 0.00
568.0, 35696.70, -3796.64, 122.35, -19168.61, -37062.88, -177028.73, -5546.52, 21180.98, 0.00, 0.00, 0.00
572.0, 35860.87, -3778.23, 127.34, -19118.81, -37035.50, -177111.28, -5855.84, 21214.49, 0.00, 0.00, 0.00
576.0, 36003.88, -3890.41, 12.16, -19201.38, -37144.66, -176982.81, -5721.33, 21258.68, 0.00, 0.00, 0.00
580.0, 35882.02, -3928.90, -20.05, -19244.67, -37185.07, -176927.19, -5402.75, 21268.49, 0.00, 0.00, 0.00
584.0, 35716.48, -3811.24, 112.12, -19170.76, -37083.46, -177072.77, -5483.06, 21212.45, 0.00, 0.00, 0.00
588.0, 35819.99, -3782.18, 130.02, -19119.62, -37038.98, -177198.61, -5830.41, 21206.35, 0.00, 0.00, 0.00
592.0, 35992.54, -3906.66, 0.11, -19208.51, -37150.97, -177080.73, -5755.95, 21230.11, 0.00, 0.00, 0.00
596.0, 35905.28, -3959.63, -48.37, -19260.19, -37205.75, -176997.36, -5431.09, 21240.93, 0.00, 0.00, 0.00
600.0, 35728.30, -3851.43, 74.79, -19197.40, -37115.20, -177102.16, -5402.39, 21197.92, 0.00, 0.00, 0.00
604.0, 35771.17, -3771.39, 148.37, -19105.58, -37024.30, -177278.70, -5780.09, 21192.49, 0.00, 0.00, 0.00
608.0, 35975.54, -3901.47, 8.07, -19193.38, -37137.58, -177182.55, -5776.29, 21225.46, 0.00, 0.00, 0.00
612.0, 35946.03, -3957.13, -43.47, -19239.35, -37186.28, -177069.70, -5459.99, 21251.50, 0.00, 0.00, 0.00
616.0, 35782.08, -3847.27, 82.21, -19167.54, -37089.43, -177142.27, -5345.78, 21240.57, 0.00, 0.00, 0.00
620.0, 35764.67, -3732.12, 196.54, -19067.42, -36975.98, -177346.98, -5714.98, 21221.04, 0.00, 0.00, 0.00
624.0, 35961.77, -3822.95, 95.62, -19110.47, -37045.18, -177333.45, -5831.61, 21258.95, 0.00, 0.00, 0.00
628.0, 35988.39, -3954.16, -33.55, -19218.54, -37163.77, -177192.31, -5527.94, 21285.74, 0.00, 0.00, 0.00
632.0, 35834.36, -3923.31, 10.46, -19220.82, -37145.11, -177170.16, -5292.49, 21254.74, 0.00, 0.00, 0.00
636.0, 35758.97, -3736.18, 201.03, -19070.71, -36967.73, -177380.58, -5621.75, 21215.67, 0.00, 0.00, 0.00
640.0, 35923.75, -3789.60, 129.53, -19083.07, -37003.98, -177445.44, -5844.96, 21244.66, 0.00, 0.00, 0.00
644.0, 35998.58, -3927.25, -9.90, -19189.44, -37128.17, -177325.03, -5608.81, 21276.69, 0.00, 0.00, 0.00
648.0, 35880.61, -3949.11, -22.33, -19234.64, -37159.35, -177248.83, -5295.11, 21268.49, 0.00, 0.00, 0.00
652.0, 35767.68, -3766.63, 170.12, -19098.13, -36993.03, -177421.72, -5535.86, 21216.19, 0.00, 0.00, 0.00
656.0, 35899.07, -3743.89, 183.19, -19040.29, -36950.61, -177549.13, -5845.96, 21235.81, 0.00, 0.00, 0.00
660.0, 36006.60, -3903.04, 17.01, -19163.29, -37092.47, -177453.83, -5677.10, 21275.80, 0.00, 0.00, 0.00
664.0, 35916.84, -3963.48, -36.57, -19235.53, -37163.13, -177346.64, -5319.87, 21277.90, 0.00, 0.00, 0.00
668.0, 35786.33, -3797.20, 141.15, -19121.80, -37018.33, -177470.91, -5450.34, 21235.36, 0.00, 0.00, 0.00
672.0, 35868.96, -3744.21, 181.81, -19044.67, -36951.37, -177628.34, -5806.85, 21248.10, 0.00, 0.00, 0.00
676.0, 35998.78, -3873.58, 49.80, -19134.48, -37063.73, -177560.70, -5713.87, 21279.51, 0.00, 0.00, 0.00
680.0, 35942.41, -3953.84, -21.84, -19207.39, -37136.13, -177455.28, -5359.21, 21293.86, 0.00, 0.00, 0.00
684.0, 35807.25, -3834.13, 113.14, -19135.30, -37033.13, -177531.16, -5373.94, 21244.88, 0.00, 0.00, 0.00
688.0, 35846.09, -3726.68, 214.20, -19021.42, -36916.97, -177723.20, -5768.47, 21232.61, 0.00, 0.00, 0.00
692.0, 36000.55, -3859.74, 68.33, -19105.40, -37029.62, -177692.89, -5765.45, 21269.38, 0.00, 0.00, 0.00
696.0, 35968.74, -3986.66, -57.40, -19219.62, -37150.74, -177564.59, -5405.97, 21281.32, 0.00, 0.00, 0.00
700.0, 35827.74, -3882.86, 64.15, -19165.55, -37065.43, -177592.34, -5311.89, 21244.51, 0.00, 0.00, 0.00
704.0, 35825.02, -3735.56, 210.13, -19026.43, -36913.86, -177793.25, -5702.58, 21240.41, 0.00, 0.00, 0.00
708.0, 35994.18, -3833.82, 99.62, -19076.43, -36990.46, -177796.41, -5785.46, 21281.68, 0.00, 0.00, 0.00
712.0, 35996.21, -3973.18, -41.46, -19198.70, -37123.47, -177667.06, -5458.65, 21296.00, 0.00, 0.00, 0.00
716.0, 35857.81, -3908.87, 35.67, -19178.67, -37079.46, -177654.16, -5268.06, 21261.60, 0.00, 0.00, 0.00
720.0, 35807.72, -3734.80, 212.03, -19026.56, -36908.79, -177862.72, -5634.25, 21238.04, 0.00, 0.00, 0.00
724.0, 35976.72, -3778.72, 155.37, -19024.64, -36934.87, -177920.33, -5813.89, 21283.35, 0.00, 0.00, 0.00
728.0, 36023.97, -3902.73, 30.87, -19123.64, -37048.21, -177828.17, -5558.36, 21314.82, 0.00, 0.00, 0.00
732.0, 35910.22, -3913.28, 29.97, -19166.11, -37069.83, -177781.50, -5289.07, 21288.96, 0.00, 0.00, 0.00
736.0, 35819.32, -3754.96, 192.09, -19044.09, -36922.11, -177958.41, -5577.74, 21242.56, 0.00, 0.00, 0.00
740.0, 35951.35, -3782.03, 152.51, -19033.61, -36935.63, -178038.66, -5821.49, 21264.53, 0.00, 0.00, 0.00
744.0, 36028.42, -3892.31, 38.69, -19113.94, -37031.90, -177947.81, -5618.18, 21306.04, 0.00, 0.00, 0.00
748.0, 35926.92, -3934.58, 4.22, -19169.91, -37075.51, -177880.19, -5303.53, 21305.32, 0.00, 0.00, 0.00
752.0, 35794.46, -3812.49, 138.00, -19091.41, -36967.39, -178030.16, -5505.66, 21238.96, 0.00, 0.00, 0.00
756.0, 35905.37, -3797.40, 137.55, -19047.93, -36939.68, -178135.70, -5805.15, 21246.92, 0.00, 0.00, 0.00
760.0, 36023.16, -3895.66, 34.65, -19110.58, -37021.91, -178054.81, -5664.56, 21294.71, 0.00, 0.00, 0.00
764.0, 35942.79, -3973.20, -36.08, -19192.41, -37102.71, -177964.92, -5313.61, 21295.74, 0.00, 0.00, 0.00
768.0, 35797.03, -3834.93, 110.62, -19110.34, -36986.35, -178087.89, -5419.49, 21236.68, 0.00, 0.00, 0.00
772.0, 35878.10, -3792.44, 138.94, -19046.32, -36932.25, -178219.86, -5763.60, 21239.16, 0.00, 0.00, 0.00
776.0, 36034.99, -3891.64, 31.69, -19108.91, -37018.76, -178129.34, -5678.51, 21278.73, 0.00, 0.00, 0.00
780.0, 35976.00, -3967.68, -38.67, -19178.49, -37093.41, -178038.09, -5336.93, 21294.64, 0.00, 0.00, 0.00
784.0, 35807.36, -3864.46, 76.60, -19128.55, -37009.13, -178139.17, -5343.01, 21239.72, 0.00, 0.00, 0.00
788.0, 35852.60, -3766.85, 163.88, -19025.13, -36901.54, -178312.31, -5724.42, 21240.50, 0.00, 0.00, 0.00
792.0, 36040.87, -3902.44, 20.52, -19117.83, -37021.06, -178226.70, -5702.24, 21273.56, 0.00, 0.00, 0.00
796.0, 35999.09, -4017.03, -88.04, -19225.00, -37135.77, -178101.73, -5354.45, 21266.81, 0.00, 0.00, 0.00
800.0, 35817.82, -3931.36, 11.13, -19189.66, -37068.22, -178153.95, -5252.86, 21219.38, 0.00, 0.00, 0.00
804.0, 35817.73, -3750.85, 184.31, -19020.60, -36885.25, -178350.19, -5640.89, 21225.86, 0.00, 0.00, 0.00
808.0, 36020.80, -3860.19, 62.29, -19083.83, -36974.14, -178302.75, -5710.87, 21280.40, 0.00, 0.00, 0.00
812.0, 36011.72, -3961.82, -33.19, -19169.73, -37070.10, -178189.69, -5404.56, 21292.14, 0.00, 0.00, 0.00
816.0, 35842.79, -3888.44, 54.90, -19137.90, -37012.68, -178250.81, -5247.76, 21261.11, 0.00, 0.00, 0.00
820.0, 35809.08, -3749.44, 193.14, -19019.23, -36875.84, -178453.45, -5600.88, 21250.21, 0.00, 0.00, 0.00
824.0, 36014.56, -3859.81, 70.39, -19082.22, -36963.57, -178418.80, -5728.28, 21286.48, 0.00, 0.00, 0.00
828.0, 36042.93, -3958.40, -21.88, -19166.53, -37056.80, -178304.64, -5466.59, 21293.93, 0.00, 0.00, 0.00
832.0, 35883.22, -3926.11, 22.87, -19159.60, -37030.96, -178332.16, -5232.61, 21278.41, 0.00, 0.00, 0.00
836.0, 35802.20, -3792.69, 157.80, -19053.19, -36903.22, -178517.03, -5512.12, 21245.42, 0.00, 0.00, 0.00
840.0, 35989.14, -3858.63, 77.65, -19075.89, -36954.09, -178512.63, -5710.31, 21266.48, 0.00, 0.00, 0.00
844.0, 36058.86, -3968.93, -31.65, -19165.32, -37057.78, -178382.67, -5490.24, 21282.46, 0.00, 0.00, 0.00
848.0, 35904.52, -3960.86, -12.20, -19178.51, -37055.82, -178379.92, -5209.54, 21268.36, 0.00, 0.00, 0.00
852.0, 35792.27, -3808.54, 145.76, -19067.51, -36916.12, -178550.17, -5408.83, 21237.98, 0.00, 0.00, 0.00
856.0, 35952.80, -3820.83, 117.44, -19049.41, -36911.38, -178597.61, -5687.38, 21273.14, 0.00, 0.00, 0.00
860.0, 36071.82, -3946.18, -8.69, -19146.17, -37026.42, -178470.06, -5527.52, 21300.23, 0.00, 0.00, 0.00
864.0, 35945.83, -3949.02, -0.69, -19161.08, -37034.07, -178456.48, -5228.72, 21305.15, 0.00, 0.00, 0.00
868.0, 35808.41, -3823.74, 134.96, -19078.17, -36920.99, -178614.92, -5337.60, 21277.14, 0.00, 0.00, 0.00
872.0, 35925.36, -3801.16, 143.90, -19033.83, -36885.72, -178705.70, -5661.34, 21293.05, 0.00, 0.00, 0.00
876.0, 36074.71, -3925.17, 15.53, -19126.52, -36999.71, -178593.77, -5572.54, 21314.29, 0.00, 0.00, 0.00
880.0, 35964.38, -3972.37, -18.75, -19172.41, -37042.67, -178558.88, -5259.83, 21314.29, 0.00, 0.00, 0.00
884.0, 35796.81, -3855.21, 112.18, -19101.40, -36939.88, -178701.78, -5269.92, 21282.06, 0.00, 0.00, 0.00
888.0, 35875.71, -3775.66, 180.45, -19019.52, -36852.26, -178841.11, -5627.39, 21291.73, 0.00, 0.00, 0.00
892.0, 36069.59, -3900.63, 49.13, -19103.59, -36956.80, -178742.80, -5610.89, 21327.86, 0.00, 0.00, 0.00
896.0, 35998.96, -3985.63, -29.77, -19185.78, -37035.10, -178670.81, -5300.27, 21321.66, 0.00, 0.00, 0.00
900.0, 35819.88, -3893.76, 71.10, -19131.80, -36954.38, -178779.84, -5219.15, 21290.24, 0.00, 0.00, 0.00
904.0, 35835.63, -3802.05, 157.45, -19048.02, -36862.83, -178929.48, -5562.83, 21281.32, 0.00, 0.00, 0.00
908.0, 36039.04, -3905.97, 40.70, -19107.43, -36950.98, -178846.30, -5615.65, 21312.41, 0.00, 0.00, 0.00
912.0, 36020.35, -3963.86, -10.91, -19156.79, -37001.25, -178762.45, -5334.58, 21318.60, 0.00, 0.00, 0.00
916.0, 35848.40, -3902.48, 59.41, -19126.41, -36945.60, -178841.48, -5173.56, 21301.68, 0.00, 0.00, 0.00
920.0, 35807.11, -3797.02, 162.68, -19039.86, -36841.78, -179017.50, -5492.47, 21274.48, 0.00, 0.00, 0.00
924.0, 36015.05, -3868.48, 76.42, -19069.14, -36898.93, -178976.27, -5633.96, 21305.71, 0.00, 0.00, 0.00
928.0, 36066.84, -3946.27, -1.90, -19127.73, -36971.08, -178860.16, -5388.47, 21325.78, 0.00, 0.00, 0.00
932.0, 35911.12, -3938.29, 16.79, -19142.41, -36973.96, -178874.64, -5140.54, 21308.14, 0.00, 0.00, 0.00
936.0, 35815.45, -3786.50, 174.25, -19026.83, -36832.43, -179058.95, -5407.87, 21277.47, 0.00, 0.00, 0.00
940.0, 35987.04, -3847.09, 96.67, -19045.65, -36875.93, -179082.86, -5641.94, 21304.03, 0.00, 0.00, 0.00
944.0, 36081.97, -3975.39, -28.54, -19147.84, -36997.63, -178940.75, -5428.41, 21322.51, 0.00, 0.00, 0.00
948.0, 35950.32, -3979.84, -25.19, -19171.04, -37010.17, -178903.94, -5125.39, 21309.35, 0.00, 0.00, 0.00
952.0, 35819.18, -3810.44, 151.61, -19052.69, -36860.51, -179074.86, -5311.11, 21270.61, 0.00, 0.00, 0.00
956.0, 35953.76, -3794.03, 153.24, -19003.59, -36830.69, -179174.86, -5632.66, 21299.00, 0.00, 0.00, 0.00
960.0, 36094.58, -3928.70, 18.26, -19105.11, -36952.33, -179054.88, -5492.07, 21326.29, 0.00, 0.00, 0.00
964.0, 36008.64, -3981.92, -27.43, -19163.27, -37004.96, -178976.38, -5150.33, 21329.29, 0.00, 0.00, 0.00
968.0, 35856.58, -3863.54, 102.44, -19094.76, -36907.04, -179085.61, -5206.30, 21283.87, 0.00, 0.00, 0.00
972.0, 35919.70, -3779.39, 177.92, -18997.11, -36814.15, -179235.56, -5574.50, 21295.49, 0.00, 0.00, 0.00
976.0, 36082.06, -3900.76, 47.94, -19077.95, -36919.36, -179157.03, -5526.65, 21328.62, 0.00, 0.00, 0.00
980.0, 36032.64, -3991.04, -37.31, -19166.08, -37007.63, -179053.45, -5179.93, 21334.83, 0.00, 0.00, 0.00
984.0, 35881.16, -3888.20, 78.21, -19117.18, -36922.22, -179117.52, -5132.56, 21294.37, 0.00, 0.00, 0.00
988.0, 35894.66, -3778.88, 181.74, -19012.53, -36804.83, -179285.34, -5509.57, 21285.19, 0.00, 0.00, 0.00
992.0, 36069.99, -3852.26, 98.53, -19048.76, -36863.99, -179252.98, -5552.06, 21324.99, 0.00, 0.00, 0.00
996.0, 36067.87, -3953.76, -4.20, -19139.96, -36962.45, -179150.95, -5236.14, 21344.31, 0.00, 0.00, 0.00
1000.0, 35929.18, -3914.37, 48.28, -19142.90, -36940.79, -179154.80, -5070.87, 21309.64, 0.00, 0.00, 0.00
1004.0, 35881.68, -3787.57, 178.10, -19040.49, -36821.08, -179316.63, -5413.17, 21280.89, 0.00, 0.00, 0.00
1008.0, 36035.73, -3854.33, 103.13, -19061.92, -36869.13, -179327.84, -5541.02, 21318.22, 0.00, 0.00, 0.00
1012.0, 36058.88, -3954.74, 3.62, -19138.90, -36961.47, -179230.61, -5268.02, 21341.13, 0.00, 0.00, 0.00
1016.0, 35943.70, -3927.76, 44.32, -19134.43, -36940.55, -179207.36, -5034.17, 21330.69, 0.00, 0.00, 0.00
1020.0, 35873.12, -3786.79, 190.06, -19026.16, -36808.16, -179362.81, -5326.29, 21304.92, 0.00, 0.00, 0.00
1024.0, 36015.75, -3810.88, 154.70, -19010.81, -36814.24, -179419.50, -5546.67, 21337.09, 0.00, 0.00, 0.00
1028.0, 36082.49, -3938.51, 26.00, -19109.82, -36932.77, -179321.02, -5317.77, 21365.83, 0.00, 0.00, 0.00
1032.0, 35980.00, -3948.70, 26.33, -19139.35, -36951.68, -179265.55, -5020.22, 21353.47, 0.00, 0.00, 0.00
1036.0, 35879.33, -3809.30, 173.38, -19041.38, -36828.66, -179398.20, -5231.72, 21309.88, 0.00, 0.00, 0.00
1040.0, 35993.77, -3800.20, 169.27, -19002.69, -36810.73, -179488.13, -5512.86, 21325.60, 0.00, 0.00, 0.00
1044.0, 36092.75, -3908.78, 59.81, -19081.26, -36910.93, -179409.56, -5357.80, 21356.64, 0.00, 0.00, 0.00
1048.0, 36018.85, -3953.00, 23.72, -19132.98, -36959.68, -179332.22, -5024.65, 21358.90, 0.00, 0.00, 0.00
1052.0, 35902.02, -3822.64, 162.99, -19044.83, -36838.69, -179445.28, -5151.32, 21320.10, 0.00, 0.00, 0.00
1056.0, 35975.94, -3795.71, 179.62, -18993.24, -36801.16, -179559.64, -5479.53, 21322.74, 0.00, 0.00, 0.00
1060.0, 36099.16, -3906.01, 63.77, -19064.56, -36892.36, -179493.86, -5393.95, 21353.16, 0.00, 0.00, 0.00
1064.0, 36043.82, -3979.59, -5.16, -19139.17, -36964.51, -179392.64, -5043.38, 21355.71, 0.00, 0.00, 0.00
1068.0, 35911.25, -3842.15, 143.14, -19050.62, -36847.83, -179469.58, -5066.76, 21328.55, 0.00, 0.00, 0.00
1072.0, 35941.29, -3793.76, 184.27, -18993.19, -36793.25, -179616.95, -5432.01, 21325.42, 0.00, 0.00, 0.00
1076.0, 36082.26, -3903.73, 67.95, -19067.71, -36888.18, -179567.61, -5413.82, 21349.80, 0.00, 0.00, 0.00
1080.0, 36060.47, -3993.23, -16.36, -19144.07, -36971.97, -179466.55, -5078.54, 21364.87, 0.00, 0.00, 0.00
1084.0, 35926.61, -3918.53, 69.94, -19118.54, -36919.20, -179490.72, -4989.56, 21326.89, 0.00, 0.00, 0.00
1088.0, 35909.08, -3800.13, 187.04, -19009.26, -36801.18, -179649.09, -5357.22, 21303.47, 0.00, 0.00, 0.00
1092.0, 36058.70, -3887.30, 91.22, -19051.51, -36868.31, -179641.13, -5434.96, 21333.33, 0.00, 0.00, 0.00
1096.0, 36069.52, -3985.23, -6.91, -19140.85, -36961.76, -179536.41, -5125.41, 21348.57, 0.00, 0.00, 0.00
1100.0, 35947.50, -3932.63, 55.52, -19126.92, -36919.94, -179535.00, -4952.39, 21321.46, 0.00, 0.00, 0.00
1104.0, 35890.38, -3816.02, 174.37, -19028.51, -36802.46, -179700.67, -5295.82, 21295.47, 0.00, 0.00, 0.00
1108.0, 36034.72, -3888.56, 96.54, -19060.92, -36854.25, -179719.50, -5447.97, 21316.95, 0.00, 0.00, 0.00
1112.0, 36080.05, -4000.67, -11.89, -19154.10, -36956.11, -179620.06, -5184.24, 21335.92, 0.00, 0.00, 0.00
1116.0, 35977.05, -4006.30, -3.73, -19193.08, -36980.58, -179568.70, -4914.17, 21316.88, 0.00, 0.00, 0.00
1120.0, 35885.41, -3868.01, 143.86, -19092.68, -36854.36, -179707.97, -5186.54, 21269.18, 0.00, 0.00, 0.00
1124.0, 36018.36, -3868.24, 127.09, -19051.89, -36828.54, -179766.16, -5416.34, 21306.17, 0.00, 0.00, 0.00
1128.0, 36093.73, -3976.98, 17.55, -19128.51, -36917.53, -179676.86, -5202.35, 21340.69, 0.00, 0.00, 0.00
1132.0, 36010.69, -3971.28, 32.99, -19142.95, -36917.59, -179629.09, -4899.08, 21345.33, 0.00, 0.00, 0.00
1136.0, 35902.24, -3841.62, 173.52, -19054.66, -36800.83, -179758.95, -5090.70, 21302.93, 0.00, 0.00, 0.00
1140.0, 35999.63, -3828.29, 180.56, -19012.73, -36769.09, -179862.17, -5389.47, 21313.33, 0.00, 0.00, 0.00
1144.0, 36108.10, -3931.98, 76.98, -19083.83, -36862.54, -179795.64, -5248.93, 21340.73, 0.00, 0.00, 0.00
1148.0, 36040.09, -3991.17, 23.11, -19147.40, -36924.32, -179734.94, -4917.41, 21345.65, 0.00, 0.00, 0.00
1152.0, 35905.64, -3861.82, 166.83, -19064.61, -36811.20, -179852.25, -5025.83, 21304.83, 0.00, 0.00, 0.00
1156.0, 35964.20, -3808.98, 213.53, -18988.74, -36748.10, -180003.86, -5390.35, 21316.25, 0.00, 0.00, 0.00
1160.0, 36092.46, -3965.69, 52.19, -19100.75, -36889.59, -179944.14, -5311.94, 21334.63, 0.00, 0.00, 0.00
1164.0, 36047.98, -4037.06, -13.25, -19173.01, -36961.71, -179844.23, -4950.15, 21328.48, 0.00, 0.00, 0.00
1168.0, 35915.52, -3914.15, 125.57, -19098.71, -36855.66, -179906.08, -4935.49, 21296.74, 0.00, 0.00, 0.00
1172.0, 35940.64, -3797.07, 239.57, -18975.09, -36729.79, -180068.59, -5306.84, 21300.74, 0.00, 0.00, 0.00
1176.0, 36099.92, -3904.72, 121.44, -19035.95, -36816.59, -180038.75, -5314.40, 21334.78, 0.00, 0.00, 0.00
1180.0, 36085.06, -4001.88, 27.94, -19117.69, -36908.03, -179941.55, -4981.89, 21341.94, 0.00, 0.00, 0.00
1184.0, 35949.05, -3960.80, 84.44, -19114.74, -36879.35, -179955.14, -4858.22, 21307.38, 0.00, 0.00, 0.00
1188.0, 35914.69, -3840.03, 205.17, -19003.01, -36759.66, -180111.30, -5216.20, 21295.29, 0.00, 0.00, 0.00
1192.0, 36068.43, -3908.34, 124.70, -19026.90, -36814.39, -180106.27, -5304.94, 21336.79, 0.00, 0.00, 0.00
1196.0, 36090.91, -4004.20, 29.57, -19100.44, -36902.95, -180010.66, -5006.39, 21362.57, 0.00, 0.00, 0.00
1200.0, 35974.75, -3991.48, 53.62, -19119.97, -36905.77, -179981.36, -4785.69, 21335.59, 0.00, 0.00, 0.00
1204.0, 35914.87, -3827.31, 224.39, -18989.86, -36751.83, -180124.59, -5086.68, 21309.91, 0.00, 0.00, 0.00
1208.0, 36048.51, -3835.72, 202.80, -18959.87, -36739.94, -180193.20, -5307.96, 21357.36, 0.00, 0.00, 0.00
1212.0, 36119.43, -4005.25, 32.99, -19098.80, -36893.81, -180069.92, -5017.61, 21383.55, 0.00, 0.00, 0.00
1216.0, 35993.93, -4021.66, 27.14, -19144.71, -36918.42, -180020.14, -4753.19, 21347.28, 0.00, 0.00, 0.00
1220.0, 35896.30, -3879.19, 177.56, -19042.12, -36786.34, -180136.55, -4980.46, 21311.56, 0.00, 0.00, 0.00
1224.0, 36012.91, -3810.28, 235.48, -18948.45, -36701.59, -180244.63, -5278.86, 21355.86, 0.00, 0.00, 0.00
1228.0, 36128.31, -3948.06, 92.25, -19045.50, -36822.20, -180154.98, -5073.94, 21404.81, 0.00, 0.00, 0.00
1232.0, 36032.42, -3998.82, 50.87, -19116.04, -36878.72, -180091.89, -4764.14, 21385.61, 0.00, 0.00, 0.00
1236.0, 35918.54, -3869.62, 189.72, -19035.82, -36767.64, -180194.64, -4915.51, 21346.94, 0.00, 0.00, 0.00
1240.0, 35998.91, -3834.24, 213.71, -18974.33, -36718.26, -180306.64, -5242.56, 21366.68, 0.00, 0.00, 0.00
1244.0, 36117.36, -3988.47, 52.93, -19090.33, -36858.29, -180205.23, -5080.26, 21391.20, 0.00, 0.00, 0.00
1248.0, 36046.84, -4030.00, 21.03, -19143.66, -36902.91, -180117.30, -4729.25, 21387.76, 0.00, 0.00, 0.00
1252.0, 35920.66, -3916.92, 143.70, -19075.65, -36807.15, -180194.34, -4789.33, 21349.94, 0.00, 0.00, 0.00
1256.0, 35967.13, -3816.14, 239.79, -18967.22, -36702.61, -180334.56, -5153.35, 21354.77, 0.00, 0.00, 0.00
1260.0, 36124.82, -3928.48, 116.01, -19026.50, -36792.56, -180290.34, -5110.90, 21401.30, 0.00, 0.00, 0.00
1264.0, 36094.60, -4018.82, 34.15, -19115.70, -36885.54, -180181.55, -4746.08, 21394.55, 0.00, 0.00, 0.00
1268.0, 35964.85, -3918.37, 145.13, -19050.26, -36795.44, -180241.48, -4725.47, 21366.81, 0.00, 0.00, 0.00
1272.0, 35968.47, -3845.15, 214.17, -18979.63, -36721.32, -180373.34, -5071.79, 21345.04, 0.00, 0.00, 0.00
1276.0, 36108.30, -3943.70, 102.24, -19029.60, -36798.12, -180342.63, -5102.37, 21370.32, 0.00, 0.00, 0.00
1280.0, 36108.23, -4023.52, 29.48, -19095.18, -36869.58, -180227.73, -4751.60, 21387.00, 0.00, 0.00, 0.00
1284.0, 35976.94, -3971.57, 95.58, -19077.04, -36825.14, -180243.77, -4631.08, 21364.18, 0.00, 0.00, 0.00
1288.0, 35948.96, -3846.49, 221.86, -18974.53, -36705.65, -180376.17, -4960.77, 21344.04, 0.00, 0.00, 0.00
1292.0, 36089.64, -3893.54, 163.35, -18979.11, -36734.11, -180389.03, -5096.71, 21386.80, 0.00, 0.00, 0.00
1296.0, 36122.34, -4022.67, 38.02, -19091.88, -36855.10, -180259.42, -4770.91, 21415.85, 0.00, 0.00, 0.00
1300.0, 35992.52, -3953.35, 119.65, -19065.01, -36797.68, -180257.58, -4585.53, 21397.14, 0.00, 0.00, 0.00
1304.0, 35945.45, -3811.29, 266.66, -18956.04, -36662.22, -180403.41, -4887.97, 21385.01, 0.00, 0.00, 0.00
1308.0, 36082.11, -3850.36, 218.49, -18955.42, -36678.52, -180457.63, -5111.71, 21423.45, 0.00, 0.00, 0.00
1312.0, 36153.14, -3998.30, 70.90, -19077.75, -36816.43, -180332.66, -4836.52, 21445.38, 0.00, 0.00, 0.00
1316.0, 36037.18, -4000.78, 80.44, -19107.54, -36825.28, -180287.56, -4572.70, 21427.57, 0.00, 0.00, 0.00
1320.0, 35942.54, -3864.19, 221.98, -19011.92, -36702.10, -180404.25, -4790.69, 21390.57, 0.00, 0.00, 0.00
1324.0, 36046.07, -3848.34, 224.88, -18972.92, -36670.45, -180493.08, -5081.15, 21405.91, 0.00, 0.00, 0.00
1328.0, 36152.27, -3990.97, 79.04, -19077.86, -36790.88, -180386.22, -4875.61, 21439.17, 0.00, 0.00, 0.00
1332.0, 36063.18, -4014.64, 65.89, -19119.73, -36817.32, -180313.86, -4558.44, 21429.35, 0.00, 0.00, 0.00
1336.0, 35950.84, -3882.39, 207.78, -19030.92, -36696.36, -180413.81, -4696.53, 21390.82, 0.00, 0.00, 0.00
1340.0, 36031.41, -3795.10, 286.37, -18927.50, -36597.32, -180551.27, -5052.63, 21413.95, 0.00, 0.00, 0.00
1344.0, 36170.82, -3978.74, 92.27, -19059.76, -36756.19, -180457.86, -4915.26, 21452.96, 0.00, 0.00, 0.00
1348.0, 36109.11, -4025.79, 58.03, -19118.77, -36809.54, -180351.48, -4550.39, 21428.79, 0.00, 0.00, 0.00
1352.0, 35986.35, -3879.03, 215.83, -19012.30, -36677.00, -180440.03, -4607.83, 21406.35, 0.00, 0.00, 0.00
1356.0, 36028.46, -3791.64, 296.90, -18921.40, -36585.71, -180585.13, -4977.31, 21423.61, 0.00, 0.00, 0.00
1360.0, 36177.21, -3912.96, 162.90, -18994.73, -36687.08, -180539.42, -4945.90, 21466.19, 0.00, 0.00, 0.00
1364.0, 36151.02, -4032.90, 50.89, -19109.45, -36802.46, -180413.31, -4567.85, 21449.81, 0.00, 0.00, 0.00
1368.0, 36013.82, -3924.09, 171.53, -19047.66, -36711.87, -180455.75, -4513.64, 21397.86, 0.00, 0.00, 0.00
1372.0, 36016.41, -3829.84, 258.97, -18958.50, -36614.32, -180599.97, -4864.66, 21383.78, 0.00, 0.00, 0.00
1376.0, 36159.85, -3908.07, 173.74, -18992.03, -36673.09, -180580.94, -4916.47, 21406.55, 0.00, 0.00, 0.00
1380.0, 36176.39, -4004.83, 78.61, -19070.46, -36760.93, -180467.47, -4570.15, 21420.37, 0.00, 0.00, 0.00
1384.0, 36039.41, -3962.11, 130.82, -19064.94, -36729.77, -180474.55, -4423.21, 21380.13, 0.00, 0.00, 0.00
1388.0, 36000.97, -3794.66, 300.16, -18923.52, -36570.85, -180631.45, -4761.06, 21356.15, 0.00, 0.00, 0.00
1392.0, 36152.07, -3847.27, 234.83, -18927.14, -36599.75, -180679.25, -4930.59, 21402.15, 0.00, 0.00, 0.00
1396.0, 36202.40, -3993.05, 90.57, -19047.98, -36738.46, -180558.66, -4608.26, 21419.03, 0.00, 0.00, 0.00
1400.0, 36075.80, -3967.95, 129.01, -19050.44, -36720.50, -180546.91, -4386.40, 21395.04, 0.00, 0.00, 0.00
1404.0, 36000.19, -3835.25, 265.45, -18949.52, -36598.48, -180688.67, -4657.08, 21367.91, 0.00, 0.00, 0.00
1408.0, 36118.50, -3850.47, 238.45, -18930.03, -36597.00, -180756.14, -4891.86, 21400.92, 0.00, 0.00, 0.00
1412.0, 36197.51, -3995.06, 91.71, -19039.93, -36727.31, -180638.41, -4624.64, 21425.62, 0.00, 0.00, 0.00
1416.0, 36081.77, -4008.41, 91.73, -19073.57, -36747.14, -180593.89, -4338.90, 21396.77, 0.00, 0.00, 0.00
1420.0, 35981.25, -3868.01, 242.63, -18970.24, -36620.14, -180718.11, -4542.25, 21358.28, 0.00, 0.00, 0.00
1424.0, 36079.02, -3834.15, 265.29, -18907.16, -36572.59, -180825.31, -4854.82, 21378.13, 0.00, 0.00, 0.00
1428.0, 36192.19, -4010.04, 81.72, -19037.56, -36729.82, -180717.64, -4654.68, 21406.11, 0.00, 0.00, 0.00
1432.0, 36100.48, -4082.10, 18.57, -19124.20, -36808.98, -180616.86, -4296.12, 21368.80, 0.00, 0.00, 0.00
1436.0, 35974.66, -3916.41, 194.71, -19005.75, -36660.08, -180710.81, -4410.29, 21325.75, 0.00, 0.00, 0.00
1440.0, 36052.42, -3806.64, 293.88, -18880.67, -36536.70, -180862.75, -4784.21, 21365.76, 0.00, 0.00, 0.00
1444.0, 36196.53, -3968.95, 124.45, -18992.63, -36681.67, -180785.95, -4675.36, 21404.01, 0.00, 0.00, 0.00
1448.0, 36140.96, -4067.77, 33.30, -19094.96, -36781.29, -180670.55, -4301.15, 21381.41, 0.00, 0.00, 0.00
1452.0, 35987.00, -3996.51, 121.55, -19066.42, -36722.77, -180707.19, -4293.08, 21311.58, 0.00, 0.00, 0.00
1456.0, 36003.83, -3850.36, 264.26, -18921.11, -36575.25, -180850.33, -4664.12, 21305.55, 0.00, 0.00, 0.00
1460.0, 36163.49, -3962.20, 137.33, -18978.24, -36666.05, -180811.81, -4655.87, 21358.74, 0.00, 0.00, 0.00
1464.0, 36149.68, -4094.15, 6.57, -19103.30, -36794.12, -180679.45, -4273.54, 21355.06, 0.00, 0.00, 0.00
1468.0, 36005.60, -3968.95, 147.97, -19025.29, -36686.97, -180720.23, -4205.23, 21313.93, 0.00, 0.00, 0.00
1472.0, 36001.64, -3865.89, 245.78, -18929.63, -36582.59, -180863.05, -4558.28, 21311.02, 0.00, 0.00, 0.00
1476.0, 36135.84, -3977.07, 122.49, -19001.35, -36679.37, -180831.91, -4619.95, 21327.95, 0.00, 0.00, 0.00
1480.0, 36145.70, -4090.86, 11.06, -19099.81, -36782.72, -180690.69, -4261.07, 21330.80, 0.00, 0.00, 0.00
1484.0, 36016.77, -4020.12, 88.96, -19065.17, -36718.82, -180679.67, -4090.82, 21300.00, 0.00, 0.00, 0.00
1488.0, 35977.07, -3880.67, 229.71, -18945.20, -36580.95, -180818.56, -4406.65, 21284.29, 0.00, 0.00, 0.00
1492.0, 36110.36, -3926.28, 176.53, -18950.21, -36609.72, -180842.84, -4571.56, 21312.86, 0.00, 0.00, 0.00
1496.0, 36173.77, -4060.22, 39.38, -19055.04, -36734.15, -180710.09, -4256.08, 21333.98, 0.00, 0.00, 0.00
1500.0, 36058.19, -4022.20, 86.75, -19052.38, -36710.62, -180672.66, -4012.23, 21300.88, 0.00, 0.00, 0.00
1504.0, 35988.45, -3847.07, 269.07, -18912.46, -36547.98, -180810.66, -4283.53, 21278.46, 0.00, 0.00, 0.00
1508.0, 36112.71, -3865.35, 234.89, -18896.41, -36552.25, -180879.81, -4540.62, 21306.64, 0.00, 0.00, 0.00
1512.0, 36205.33, -4024.70, 64.53, -19023.95, -36699.98, -180750.77, -4283.20, 21327.45, 0.00, 0.00, 0.00
1516.0, 36096.28, -4057.00, 41.31, -19085.04, -36744.03, -180668.89, -3966.29, 21293.19, 0.00, 0.00, 0.00
1520.0, 35988.07, -3910.95, 198.95, -18988.03, -36615.89, -180764.39, -4138.85, 21250.23, 0.00, 0.00, 0.00
1524.0, 36074.44, -3862.74, 238.63, -18915.99, -36555.54, -180861.55, -4454.61, 21265.18, 0.00, 0.00, 0.00
1528.0, 36194.63, -4011.85, 82.99, -19014.76, -36682.43, -180755.69, -4279.46, 21295.65, 0.00, 0.00, 0.00
1532.0, 36110.58, -4077.54, 26.80, -19095.29, -36753.55, -180649.31, -3924.18, 21270.50, 0.00, 0.00, 0.00
1536.0, 35982.48, -3942.24, 171.10, -19007.12, -36633.41, -180717.61, -4010.35, 21233.42, 0.00, 0.00, 0.00
1540.0, 36036.40, -3867.90, 233.42, -18920.55, -36553.37, -180830.64, -4363.26, 21242.52, 0.00, 0.00, 0.00
1544.0, 36173.79, -3996.69, 92.20, -19003.01, -36668.24, -180746.75, -4274.61, 21271.35, 0.00, 0.00, 0.00
1548.0, 36128.02, -4061.40, 34.29, -19069.97, -36732.21, -180638.17, -3913.61, 21266.30, 0.00, 0.00, 0.00
1552.0, 35994.67, -3949.87, 158.65, -19004.59, -36635.54, -180690.17, -3913.43, 21234.00, 0.00, 0.00, 0.00
1556.0, 36015.95, -3828.27, 274.75, -18884.03, -36512.07, -180831.95, -4287.51, 21241.00, 0.00, 0.00, 0.00
1560.0, 36165.77, -3945.08, 145.89, -18949.90, -36607.66, -180787.75, -4298.17, 21279.49, 0.00, 0.00, 0.00
1564.0, 36159.71, -4042.78, 51.65, -19038.30, -36701.23, -180664.88, -3934.18, 21290.24, 0.00, 0.00, 0.00
1568.0, 36023.55, -3974.63, 131.05, -19010.22, -36647.74, -180684.92, -3836.14, 21259.15, 0.00, 0.00, 0.00
1572.0, 36007.07, -3811.08, 294.77, -18865.97, -36489.78, -180841.14, -4200.27, 21255.99, 0.00, 0.00, 0.00
1576.0, 36164.50, -3875.93, 217.35, -18876.07, -36527.76, -180860.34, -4324.48, 21311.67, 0.00, 0.00, 0.00
1580.0, 36193.95, -4053.35, 43.21, -19027.06, -36693.38, -180720.55, -3974.50, 21315.38, 0.00, 0.00, 0.00
1584.0, 36052.87, -4036.41, 72.40, -19045.52, -36690.92, -180690.05, -3774.36, 21258.97, 0.00, 0.00, 0.00
1588.0, 35991.47, -3861.82, 254.85, -18898.20, -36523.89, -180828.58, -4085.81, 21227.85, 0.00, 0.00, 0.00
1592.0, 36133.79, -3877.67, 230.76, -18862.10, -36514.99, -180886.16, -4300.56, 21272.33, 0.00, 0.00, 0.00
1596.0, 36208.57, -4045.04, 62.03, -18996.46, -36666.56, -180759.73, -4005.25, 21291.62, 0.00, 0.00, 0.00
1600.0, 36085.37, -4053.18, 68.04, -19036.35, -36688.53, -180702.94, -3737.41, 21246.52, 0.00, 0.00, 0.00
1604.0, 36003.14, -3858.49, 269.32, -18875.06, -36502.39, -180840.77, -4000.20, 21229.98, 0.00, 0.00, 0.00
1608.0, 36118.99, -3887.33, 229.33, -18859.87, -36504.91, -180914.34, -4275.78, 21271.78, 0.00, 0.00, 0.00
1612.0, 36203.14, -4079.37, 34.40, -19011.14, -36682.77, -180785.22, -4033.06, 21279.24, 0.00, 0.00, 0.00
1616.0, 36083.07, -4140.21, -17.48, -19093.33, -36751.72, -180700.80, -3709.18, 21230.09, 0.00, 0.00, 0.00
1620.0, 35958.43, -3997.74, 135.54, -18992.61, -36623.53, -180787.20, -3862.74, 21181.83, 0.00, 0.00, 0.00
1624.0, 36043.04, -3910.59, 212.77, -18886.31, -36525.30, -180894.09, -4200.85, 21217.79, 0.00, 0.00, 0.00
1628.0, 36173.95, -4043.34, 68.22, -18981.73, -36645.55, -180797.23, -4050.81, 21269.90, 0.00, 0.00, 0.00
1632.0, 36105.91, -4123.76, -4.16, -19072.09, -36730.87, -180683.88, -3689.02, 21249.38, 0.00, 0.00, 0.00
1636.0, 35979.63, -3997.88, 133.89, -18992.84, -36619.09, -180742.59, -3754.56, 21204.56, 0.00, 0.00, 0.00
1640.0, 36031.32, -3889.49, 238.00, -18882.96, -36506.03, -180858.78, -4119.63, 21218.18, 0.00, 0.00, 0.00
1644.0, 36177.13, -4004.02, 117.30, -18953.32, -36595.93, -180794.58, -4071.46, 21273.27, 0.00, 0.00, 0.00
1648.0, 36134.19, -4102.98, 26.69, -19056.65, -36694.23, -180677.25, -3711.51, 21257.47, 0.00, 0.00, 0.00
1652.0, 35999.85, -3994.93, 148.64, -18994.33, -36597.76, -180725.52, -3700.80, 21224.28, 0.00, 0.00, 0.00
1656.0, 36012.59, -3893.32, 248.19, -18902.02, -36496.35, -180847.91, -4063.57, 21223.03, 0.00, 0.00, 0.00
1660.0, 36167.25, -3972.46, 158.16, -18935.32, -36554.54, -180818.13, -4104.50, 21274.23, 0.00, 0.00, 0.00
1664.0, 36169.21, -4131.90, 3.42, -19085.24, -36703.78, -180668.23, -3726.84, 21279.38, 0.00, 0.00, 0.00
1668.0, 36025.69, -4046.85, 101.95, -19048.33, -36635.49, -180669.97, -3603.93, 21240.24, 0.00, 0.00, 0.00
1672.0, 35998.11, -3897.88, 253.40, -18912.44, -36488.13, -180809.53, -3951.39, 21241.60, 0.00, 0.00, 0.00
1676.0, 36148.11, -3939.38, 203.58, -18907.70, -36510.39, -180827.42, -4094.33, 21295.51, 0.00, 0.00, 0.00
1680.0, 36197.82, -4092.98, 51.16, -19038.61, -36656.52, -180700.64, -3767.01, 21314.53, 0.00, 0.00, 0.00
1684.0, 36069.88, -4064.87, 93.16, -19048.63, -36642.24, -180681.39, -3567.63, 21274.41, 0.00, 0.00, 0.00
1688.0, 36007.30, -3928.77, 238.25, -18941.58, -36510.16, -180805.41, -3857.33, 21248.89, 0.00, 0.00, 0.00
1692.0, 36134.34, -3953.49, 201.43, -18929.49, -36517.50, -180846.97, -4069.63, 21284.56, 0.00, 0.00, 0.00
1696.0, 36205.24, -4099.29, 57.22, -19041.36, -36651.59, -180721.72, -3789.38, 21309.57, 0.00, 0.00, 0.00
1700.0, 36081.77, -4108.50, 63.08, -19067.36, -36662.94, -180675.63, -3525.81, 21274.52, 0.00, 0.00, 0.00
1704.0, 35991.74, -3955.63, 223.50, -18953.92, -36519.51, -180790.78, -3753.89, 21243.07, 0.00, 0.00, 0.00
1708.0, 36107.86, -3920.00, 249.71, -18890.46, -36472.50, -180869.69, -4042.56, 21282.79, 0.00, 0.00, 0.00
1712.0, 36209.80, -4073.87, 90.52, -19001.60, -36609.27, -180767.56, -3833.15, 21308.72, 0.00, 0.00, 0.00
1716.0, 36106.22, -4129.33, 48.19, -19071.89, -36666.45, -180696.95, -3511.39, 21283.11, 0.00, 0.00, 0.00
1720.0, 35985.05, -4023.85, 165.20, -19003.16, -36570.27, -180773.44, -3639.67, 21239.10, 0.00, 0.00, 0.00
1724.0, 36052.16, -3956.95, 225.37, -18913.29, -36489.09, -180876.02, -3973.94, 21248.33, 0.00, 0.00, 0.00
1728.0, 36178.62, -4061.56, 112.85, -18979.42, -36582.18, -180799.56, -3852.93, 21288.27, 0.00, 0.00, 0.00
1732.0, 36116.51, -4106.28, 77.14, -19035.62, -36634.15, -180727.80, -3522.77, 21291.60, 0.00, 0.00, 0.00
1736.0, 35996.50, -4004.40, 187.06, -18973.90, -36544.03, -180803.05, -3579.12, 21225.42, 0.00, 0.00, 0.00
1740.0, 36046.61, -3913.39, 273.59, -18877.97, -36443.94, -180922.88, -3937.35, 21122.31, 0.00, 0.00, 0.00
1744.0, 36200.59, -4004.52, 172.33, -18923.88, -36514.86, -180877.94, -3912.27, 21079.64, 0.00, 0.00, 0.00
1748.0, 36163.18, -4125.73, 55.77, -19042.32, -36636.43, -180765.45, -3551.49, 21005.41, 0.00, 0.00, 0.00
1752.0, 36026.25, -4023.90, 168.35, -18983.63, -36552.50, -180809.14, -3511.97, 20929.68, 0.00, 0.00, 0.00
1756.0, 36039.01, -3913.32, 275.89, -18883.51, -36443.27, -180937.34, -3865.47, 20912.31, 0.00, 0.00, 0.00
1760.0, 36191.77, -3979.62, 200.74, -18908.59, -36492.04, -180920.13, -3924.77, 20941.42, 0.00, 0.00, 0.00
1764.0, 36205.04, -4092.20, 90.52, -19003.99, -36594.54, -180814.59, -3589.18, 20960.93, 0.00, 0.00, 0.00
1768.0, 36073.12, -4015.98, 178.72, -18968.07, -36532.54, -180838.38, -3467.87, 20926.39, 0.00, 0.00, 0.00
1772.0, 36048.20, -3900.18, 295.58, -18868.56, -36415.59, -180972.14, -3797.16, 20917.68, 0.00, 0.00, 0.00
1776.0, 36193.71, -3952.32, 236.73, -18881.03, -36448.25, -180977.63, -3935.85, 20963.14, 0.00, 0.00, 0.00
1780.0, 36238.12, -4061.54, 131.18, -18970.08, -36545.37, -180865.48, -3628.25, 20998.77, 0.00, 0.00, 0.00
1784.0, 36108.44, -4047.16, 159.23, -18984.23, -36535.87, -180855.25, -3419.64, 20979.68, 0.00, 0.00, 0.00
1788.0, 36047.51, -3922.89, 289.88, -18886.91, -36420.54, -180972.33, -3686.12, 20957.78, 0.00, 0.00, 0.00
1792.0, 36178.13, -3929.35, 270.72, -18864.80, -36415.93, -181016.95, -3910.24, 21002.01, 0.00, 0.00, 0.00
1796.0, 36252.98, -4072.22, 124.12, -18978.91, -36550.89, -180898.89, -3643.54, 21033.55, 0.00, 0.00, 0.00
1800.0, 36130.10, -4089.14, 116.07, -19025.13, -36578.63, -180844.34, -3356.99, 21009.10, 0.00, 0.00, 0.00
1804.0, 36036.60, -3936.34, 276.47, -18914.40, -36436.98, -180947.42, -3557.59, 20996.65, 0.00, 0.00, 0.00
1808.0, 36143.17, -3890.41, 313.80, -18848.24, -36380.23, -181029.36, -3857.44, 21040.93, 0.00, 0.00, 0.00
1812.0, 36253.75, -4055.66, 140.30, -18974.75, -36527.27, -180924.09, -3665.19, 21075.19, 0.00, 0.00, 0.00
1816.0, 36154.21, -4101.88, 106.82, -19039.86, -36577.85, -180850.81, -3339.44, 21046.20, 0.00, 0.00, 0.00
1820.0, 36041.70, -3966.47, 251.59, -18943.71, -36453.37, -180940.30, -3461.70, 21026.78, 0.00, 0.00, 0.00
1824.0, 36119.55, -3887.39, 324.35, -18854.37, -36365.26, -181045.95, -3803.08, 21052.64, 0.00, 0.00, 0.00
1828.0, 36247.80, -4018.66, 186.17, -18946.59, -36479.25, -180970.20, -3695.84, 21087.35, 0.00, 0.00, 0.00
1832.0, 36174.49, -4100.70, 114.82, -19033.76, -36561.26, -180890.88, -3353.88, 21058.72, 0.00, 0.00, 0.00
1836.0, 36049.68, -3990.99, 237.96, -18965.88, -36460.70, -180960.39, -3387.61, 21015.47, 0.00, 0.00, 0.00
1840.0, 36093.51, -3902.48, 320.84, -18878.98, -36367.65, -181074.00, -3737.17, 21007.02, 0.00, 0.00, 0.00
1844.0, 36236.29, -4036.08, 178.01, -18970.21, -36481.71, -181008.63, -3703.17, 21027.02, 0.00, 0.00, 0.00
1848.0, 36195.32, -4124.41, 98.66, -19059.24, -36573.00, -180898.52, -3345.32, 20987.62, 0.00, 0.00, 0.00
1852.0, 36056.67, -4045.71, 187.84, -19015.05, -36505.45, -180935.22, -3283.23, 20932.47, 0.00, 0.00, 0.00
1856.0, 36060.70, -3928.68, 305.55, -18914.29, -36392.42, -181047.41, -3617.05, 20905.12, 0.00, 0.00, 0.00
1860.0, 36208.84, -3990.70, 231.92, -18940.58, -36438.41, -181027.42, -3687.19, 20935.18, 0.00, 0.00, 0.00
1864.0, 36213.29, -4101.90, 122.11, -19041.58, -36544.18, -180921.81, -3358.28, 20935.58, 0.00, 0.00, 0.00
1868.0, 36080.57, -4020.88, 216.43, -18994.94, -36472.48, -180949.14, -3229.49, 20892.87, 0.00, 0.00, 0.00
1872.0, 36060.14, -3914.59, 326.09, -18895.29, -36362.04, -181073.63, -3541.54, 20879.79, 0.00, 0.00, 0.00
1876.0, 36204.95, -3968.24, 265.27, -18907.27, -36397.71, -181073.98, -3689.38, 20927.78, 0.00, 0.00, 0.00
1880.0, 36248.29, -4090.17, 147.99, -19002.98, -36505.76, -180967.67, -3396.79, 20944.28, 0.00, 0.00, 0.00
1884.0, 36111.07, -4102.75, 148.46, -19038.34, -36524.56, -180947.06, -3169.48, 20888.82, 0.00, 0.00, 0.00
1888.0, 36041.61, -3978.86, 279.31, -18936.87, -36405.49, -181048.44, -3413.11, 20834.26, 0.00, 0.00, 0.00
1892.0, 36168.68, -3969.13, 282.10, -18895.87, -36376.86, -181087.02, -3645.44, 20860.03, 0.00, 0.00, 0.00
1896.0, 36253.93, -4124.28, 122.51, -19017.31, -36515.75, -180964.81, -3391.16, 20882.23, 0.00, 0.00, 0.00
1900.0, 36132.11, -4143.12, 114.87, -19056.52, -36543.25, -180911.08, -3102.58, 20833.46, 0.00, 0.00, 0.00
1904.0, 36040.87, -3995.58, 269.27, -18940.46, -36408.62, -181008.42, -3282.67, 20798.28, 0.00, 0.00, 0.00
1908.0, 36151.62, -3964.51, 287.98, -18886.33, -36365.93, -181071.81, -3569.35, 20821.25, 0.00, 0.00, 0.00
1912.0, 36264.32, -4076.53, 173.81, -18967.29, -36465.48, -180974.64, -3399.88, 20852.97, 0.00, 0.00, 0.00
1916.0, 36181.17, -4096.74, 163.28, -19003.27, -36493.56, -180923.06, -3096.45, 20844.05, 0.00, 0.00, 0.00
1920.0, 36071.54, -3995.84, 271.86, -18943.35, -36405.56, -180999.70, -3198.00, 20818.91, 0.00, 0.00, 0.00
1924.0, 36140.09, -3958.52, 302.20, -18897.21, -36362.31, -181063.25, -3512.40, 20818.71, 0.00, 0.00, 0.00
1928.0, 36264.70, -4089.92, 162.36, -18986.55, -36478.29, -180958.17, -3402.74, 20827.53, 0.00, 0.00, 0.00
1932.0, 36197.20, -4171.57, 86.30, -19071.60, -36561.62, -180850.11, -3043.91, 20797.54, 0.00, 0.00, 0.00
1936.0, 36063.38, -4079.19, 188.98, -19015.01, -36484.24, -180888.42, -3034.56, 20741.77, 0.00, 0.00, 0.00
1940.0, 36102.83, -3957.82, 303.85, -18893.91, -36362.42, -180987.34, -3369.99, 20728.52, 0.00, 0.00, 0.00
1944.0, 36246.19, -4085.76, 167.82, -18975.31, -36471.65, -180914.83, -3344.80, 20754.82, 0.00, 0.00, 0.00
1948.0, 36207.14, -4211.94, 46.89, -19096.75, -36599.82, -180780.92, -2965.03, 20730.73, 0.00, 0.00, 0.00
1952.0, 36063.58, -4136.88, 131.72, -19059.33, -36542.87, -180791.00, -2862.88, 20691.37, 0.00, 0.00, 0.00
1956.0, 36075.11, -3992.13, 280.16, -18924.24, -36398.05, -180894.67, -3180.03, 20701.31, 0.00, 0.00, 0.00
1960.0, 36230.68, -4066.01, 198.46, -18953.63, -36452.61, -180867.27, -3249.72, 20761.19, 0.00, 0.00, 0.00
1964.0, 36232.98, -4194.73, 72.64, -19065.19, -36578.58, -180750.11, -2907.51, 20777.20, 0.00, 0.00, 0.00
1968.0, 36088.84, -4153.27, 125.82, -19055.49, -36551.36, -180751.22, -2730.51, 20729.41, 0.00, 0.00, 0.00
1972.0, 36055.78, -4000.27, 283.29, -18923.03, -36401.13, -180867.06, -3016.37, 20696.04, 0.00, 0.00, 0.00
1976.0, 36204.93, -4009.99, 259.39, -18895.61, -36394.25, -180893.38, -3188.43, 20733.16, 0.00, 0.00, 0.00
1980.0, 36253.01, -4170.54, 95.80, -19028.75, -36548.86, -180779.31, -2887.71, 20748.56, 0.00, 0.00, 0.00
1984.0, 36114.72, -4169.29, 107.13, -19052.89, -36562.69, -180750.58, -2637.24, 20691.14, 0.00, 0.00, 0.00
1988.0, 36046.75, -4034.13, 246.88, -18939.28, -36432.96, -180840.77, -2853.92, 20650.53, 0.00, 0.00, 0.00
1992.0, 36179.00, -4021.53, 247.70, -18890.31, -36398.18, -180866.67, -3080.61, 20680.64, 0.00, 0.00, 0.00
1996.0, 36270.53, -4183.80, 77.72, -19016.60, -36547.58, -180724.83, -2821.06, 20700.58, 0.00, 0.00, 0.00
2000.0, 36156.72, -4226.54, 45.69, -19072.77, -36600.42, -180636.16, -2497.23, 20643.04, 0.00, 0.00, 0.00
2004.0, 36067.24, -4085.25, 195.58, -18957.79, -36468.81, -180685.34, -2626.15, 20600.48, 0.00, 0.00, 0.00
2008.0, 36168.12, -4030.29, 240.04, -18877.54, -36399.08, -180722.50, -2902.69, 20622.72, 0.00, 0.00, 0.00
2012.0, 36273.24, -4208.48, 53.42, -19004.55, -36552.16, -180587.83, -2713.19, 20662.82, 0.00, 0.00, 0.00
2016.0, 36170.73, -4287.87, -16.94, -19092.88, -36641.46, -180464.25, -2341.14, 20626.32, 0.00, 0.00, 0.00
2020.0, 36049.38, -4142.09, 138.04, -18984.79, -36511.08, -180498.22, -2390.25, 20583.03, 0.00, 0.00, 0.00
2024.0, 36121.34, -4044.21, 228.75, -18875.29, -36405.56, -180553.08, -2698.70, 20599.88, 0.00, 0.00, 0.00
2028.0, 36271.61, -4130.58, 134.71, -18918.40, -36475.16, -180454.88, -2610.24, 20659.61, 0.00, 0.00, 0.00
2032.0, 36230.12, -4223.29, 45.37, -19008.62, -36567.09, -180337.27, -2244.58, 20652.92, 0.00, 0.00, 0.00
2036.0, 36106.70, -4156.84, 120.92, -18977.14, -36513.00, -180341.17, -2196.55, 20608.62, 0.00, 0.00, 0.00
2040.0, 36142.01, -4042.85, 231.77, -18869.54, -36396.73, -180391.22, -2496.73, 20610.03, 0.00, 0.00, 0.00
2044.0, 36292.75, -4119.99, 140.53, -18904.97, -36456.25, -180305.95, -2485.87, 20664.23, 0.00, 0.00, 0.00
2048.0, 36269.88, -4247.93, 14.35, -19019.81, -36580.35, -180164.13, -2109.62, 20661.17, 0.00, 0.00, 0.00
2052.0, 36128.31, -4193.63, 74.74, -19000.19, -36540.32, -180146.34, -1969.55, 20609.54, 0.00, 0.00, 0.00
2056.0, 36113.67, -4055.21, 207.76, -18873.05, -36404.64, -180214.58, -2255.38, 20601.33, 0.00, 0.00, 0.00
2060.0, 36256.81, -4111.76, 131.45, -18888.92, -36442.51, -180165.72, -2332.67, 20657.24, 0.00, 0.00, 0.00
2064.0, 36270.49, -4248.04, -4.49, -19005.91, -36568.91, -180028.66, -1988.84, 20668.26, 0.00, 0.00, 0.00
2068.0, 36132.73, -4222.87, 32.19, -19006.43, -36550.09, -180007.73, -1787.67, 20626.90, 0.00, 0.00, 0.00
2072.0, 36088.77, -4076.98, 181.18, -18882.17, -36410.68, -180093.78, -2049.86, 20608.11, 0.00, 0.00, 0.00
2076.0, 36217.16, -4093.99, 156.75, -18867.42, -36414.66, -180083.66, -2220.00, 20651.87, 0.00, 0.00, 0.00
2080.0, 36273.77, -4213.39, 36.63, -18963.53, -36526.37, -179963.19, -1941.34, 20671.23, 0.00, 0.00, 0.00
2084.0, 36153.88, -4216.19, 43.61, -18990.09, -36533.03, -179926.58, -1683.87, 20638.39, 0.00, 0.00, 0.00
2088.0, 36082.78, -4106.48, 160.69, -18907.76, -36427.44, -179988.63, -1871.53, 20608.13, 0.00, 0.00, 0.00
2092.0, 36186.22, -4085.03, 175.08, -18861.43, -36396.71, -180001.56, -2108.91, 20624.63, 0.00, 0.00, 0.00
2096.0, 36265.05, -4219.27, 40.75, -18961.90, -36516.56, -179879.70, -1886.31, 20648.99, 0.00, 0.00, 0.00
2100.0, 36160.65, -4278.21, -3.26, -19033.61, -36579.84, -179798.08, -1562.97, 20617.18, 0.00, 0.00, 0.00
2104.0, 36060.85, -4146.92, 138.36, -18940.38, -36463.34, -179843.27, -1674.55, 20572.19, 0.00, 0.00, 0.00
2108.0, 36152.45, -4056.17, 222.58, -18838.88, -36366.46, -179895.34, -1973.10, 20609.65, 0.00, 0.00, 0.00
2112.0, 36272.14, -4188.94, 85.81, -18937.94, -36486.94, -179794.47, -1826.27, 20662.18, 0.00, 0.00, 0.00
2116.0, 36193.87, -4301.86, -17.66, -19057.81, -36601.63, -179694.23, -1468.69, 20630.86, 0.00, 0.00, 0.00
2120.0, 36070.51, -4232.33, 65.85, -19028.55, -36545.88, -179705.56, -1476.71, 20560.45, 0.00, 0.00, 0.00
2124.0, 36114.58, -4110.02, 189.12, -18900.61, -36418.03, -179771.50, -1794.89, 20570.71, 0.00, 0.00, 0.00
2128.0, 36234.37, -4210.89, 80.35, -18958.57, -36496.46, -179695.45, -1736.53, 20631.73, 0.00, 0.00, 0.00
2132.0, 36181.26, -4300.94, -2.06, -19047.17, -36586.00, -179606.19, -1388.96, 20627.91, 0.00, 0.00, 0.00
2136.0, 36054.77, -4220.32, 88.94, -19004.93, -36519.17, -179638.53, -1342.65, 20576.37, 0.00, 0.00, 0.00
2140.0, 36070.17, -4113.75, 190.86, -18899.38, -36406.74, -179714.92, -1661.20, 20572.97, 0.00, 0.00, 0.00
2144.0, 36188.61, -4185.63, 107.76, -18928.28, -36457.06, -179666.25, -1698.53, 20616.24, 0.00, 0.00, 0.00
2148.0, 36173.93, -4308.61, -15.11, -19036.38, -36575.72, -179563.61, -1366.27, 20621.85, 0.00, 0.00, 0.00
2152.0, 36050.57, -4249.83, 49.17, -19005.96, -36528.36, -179570.22, -1241.71, 20589.04, 0.00, 0.00, 0.00
2156.0, 36036.11, -4119.27, 180.74, -18879.65, -36389.58, -179659.09, -1552.75, 20587.19, 0.00, 0.00, 0.00
2160.0, 36160.02, -4165.16, 124.52, -18881.39, -36412.20, -179637.64, -1687.27, 20642.57, 0.00, 0.00, 0.00
2164.0, 36184.77, -4311.45, -28.65, -18999.23, -36550.02, -179508.42, -1381.43, 20667.45, 0.00, 0.00, 0.00
2168.0, 36063.73, -4320.26, -33.77, -19029.38, -36567.03, -179464.34, -1173.29, 20620.18, 0.00, 0.00, 0.00
2172.0, 36014.96, -4223.65, 63.10, -18948.96, -36469.55, -179503.03, -1406.17, 20589.15, 0.00, 0.00, 0.00
2176.0, 36122.34, -4232.95, 42.02, -18922.25, -36460.86, -179468.78, -1587.24, 20625.16, 0.00, 0.00, 0.00
2180.0, 36174.75, -4362.88, -96.07, -19027.14, -36584.17, -179326.67, -1318.42, 20658.58, 0.00, 0.00, 0.00
2184.0, 36075.67, -4377.34, -105.75, -19070.20, -36612.69, -179254.92, -1037.86, 20632.58, 0.00, 0.00, 0.00
2188.0, 36011.88, -4259.17, 17.97, -18984.95, -36504.29, -179281.45, -1198.79, 20617.38, 0.00, 0.00, 0.00
2192.0, 36109.71, -4231.88, 34.35, -18939.62, -36464.77, -179258.06, -1427.58, 20669.60, 0.00, 0.00, 0.00
2196.0, 36199.66, -4357.03, -98.68, -19040.71, -36582.65, -179094.70, -1197.03, 20718.41, 0.00, 0.00, 0.00
2200.0, 36122.45, -4420.37, -155.61, -19116.08, -36649.98, -178972.78, -849.48, 20709.36, 0.00, 0.00, 0.00
2204.0, 36033.02, -4306.33, -32.72, -19047.98, -36553.57, -178971.66, -915.01, 20666.78, 0.00, 0.00, 0.00
2208.0, 36108.15, -4210.98, 55.52, -18942.57, -36445.25, -178988.47, -1191.50, 20711.88, 0.00, 0.00, 0.00
2212.0, 36209.40, -4336.06, -79.35, -19037.79, -36554.67, -178856.19, -1033.79, 20776.75, 0.00, 0.00, 0.00
2216.0, 36148.20, -4404.28, -148.28, -19124.42, -36633.97, -178730.84, -660.72, 20766.60, 0.00, 0.00, 0.00
2220.0, 36048.98, -4331.08, -73.56, -19090.00, -36575.81, -178717.95, -637.25, 20732.29, 0.00, 0.00, 0.00
2224.0, 36070.93, -4236.30, 16.99, -19005.44, -36485.94, -178739.94, -919.04, 20736.18, 0.00, 0.00, 0.00
2228.0, 36172.54, -4326.16, -79.10, -19057.81, -36560.37, -178640.30, -857.19, 20787.26, 0.00, 0.00, 0.00
2232.0, 36140.71, -4424.48, -168.55, -19153.81, -36659.96, -178511.02, -477.92, 20775.81, 0.00, 0.00, 0.00
2236.0, 36041.27, -4341.74, -76.64, -19108.37, -36593.43, -178500.41, -379.73, 20738.86, 0.00, 0.00, 0.00
2240.0, 36061.50, -4188.27, 75.48, -18963.71, -36440.99, -178566.31, -677.28, 20753.33, 0.00, 0.00, 0.00
2244.0, 36169.57, -4301.06, -45.96, -19033.65, -36535.64, -178496.02, -694.18, 20799.15, 0.00, 0.00, 0.00
2248.0, 36150.88, -4448.65, -189.25, -19169.08, -36682.88, -178356.67, -323.54, 20777.58, 0.00, 0.00, 0.00
2252.0, 36038.75, -4421.73, -152.93, -19174.06, -36672.35, -178315.03, -131.38, 20719.57, 0.00, 0.00, 0.00
2256.0, 36017.13, -4239.95, 19.69, -19025.60, -36509.61, -178377.27, -399.45, 20702.16, 0.00, 0.00, 0.00
2260.0, 36119.99, -4247.81, -5.16, -19004.93, -36503.04, -178357.48, -533.63, 20761.48, 0.00, 0.00, 0.00
2264.0, 36134.41, -4392.88, -152.10, -19130.14, -36640.03, -178235.63, -226.00, 20786.99, 0.00, 0.00, 0.00
2268.0, 36024.15, -4388.65, -143.14, -19154.04, -36651.63, -178207.92, 2.03, 20738.98, 0.00, 0.00, 0.00
2272.0, 35979.38, -4254.94, -8.92, -19053.16, -36530.04, -178279.36, -226.24, 20700.13, 0.00, 0.00, 0.00
2276.0, 36062.93, -4221.57, 17.97, -18995.67, -36482.94, -178297.78, -440.02, 20745.17, 0.00, 0.00, 0.00
2280.0, 36113.06, -4347.37, -110.44, -19088.41, -36592.20, -178202.30, -206.42, 20794.83, 0.00, 0.00, 0.00
2284.0, 36026.05, -4415.68, -167.12, -19174.76, -36666.00, -178141.03, 81.20, 20750.53, 0.00, 0.00, 0.00
2288.0, 35961.63, -4281.63, -27.58, -19079.65, -36547.54, -178200.63, -81.63, 20693.94, 0.00, 0.00, 0.00
2292.0, 36028.91, -4217.01, 28.25, -18996.48, -36472.17, -178257.25, -368.31, 20726.77, 0.00, 0.00, 0.00
2296.0, 36086.20, -4358.93, -120.72, -19103.95, -36604.73, -178171.06, -201.48, 20776.68, 0.00, 0.00, 0.00
2300.0, 36013.15, -4413.96, -168.29, -19171.54, -36668.66, -178116.78, 103.96, 20747.04, 0.00, 0.00, 0.00
2304.0, 35953.32, -4303.90, -53.78, -19097.80, -36569.13, -178168.30, 19.58, 20697.78, 0.00, 0.00, 0.00
2308.0, 36010.71, -4199.58, 47.50, -18988.12, -36454.84, -178238.66, -297.30, 20721.03, 0.00, 0.00, 0.00
2312.0, 36088.07, -4320.01, -79.17, -19068.81, -36554.42, -178172.88, -213.33, 20773.06, 0.00, 0.00, 0.00
2316.0, 36040.38, -4410.09, -161.09, -19163.87, -36648.63, -178088.75, 127.32, 20748.56, 0.00, 0.00, 0.00
2320.0, 35968.38, -4335.70, -80.00, -19122.95, -36583.81, -178114.39, 138.38, 20697.92, 0.00, 0.00, 0.00
2324.0, 36002.36, -4229.98, 26.02, -19023.35, -36479.79, -178168.19, -163.99, 20686.65, 0.00, 0.00, 0.00
2328.0, 36089.71, -4265.20, -13.12, -19020.42, -36498.70, -178133.47, -171.75, 20750.15, 0.00, 0.00, 0.00
2332.0, 36069.37, -4391.87, -133.19, -19133.63, -36620.23, -178045.16, 161.96, 20769.26, 0.00, 0.00, 0.00
2336.0, 35997.84, -4335.72, -67.26, -19117.31, -36582.63, -178052.33, 254.34, 20718.57, 0.00, 0.00, 0.00
2340.0, 36019.25, -4200.25, 72.49, -18998.00, -36451.13, -178127.84, -49.33, 20696.69, 0.00, 0.00, 0.00
2344.0, 36099.25, -4246.12, 16.54, -18999.00, -36468.39, -178108.28, -132.68, 20745.08, 0.00, 0.00, 0.00
2348.0, 36086.31, -4376.78, -116.16, -19106.40, -36585.31, -178019.25, 174.01, 20767.41, 0.00, 0.00, 0.00
2352.0, 36002.54, -4401.51, -129.66, -19157.48, -36624.02, -177991.47, 352.62, 20714.03, 0.00, 0.00, 0.00
2356.0, 35994.40, -4283.60, -4.94, -19061.16, -36514.81, -178048.20, 98.41, 20674.87, 0.00, 0.00, 0.00
2360.0, 36060.74, -4291.29, -20.12, -19037.29, -36512.04, -178044.61, -59.95, 20710.52, 0.00, 0.00, 0.00
2364.0, 36056.58, -4409.04, -139.18, -19128.49, -36620.20, -177952.98, 202.60, 20742.60, 0.00, 0.00, 0.00
2368.0, 35975.54, -4434.32, -151.61, -19171.56, -36652.64, -177922.58, 426.49, 20693.56, 0.00, 0.00, 0.00
2372.0, 35961.56, -4307.18, -22.08, -19070.33, -36533.16, -177994.41, 206.51, 20655.43, 0.00, 0.00, 0.00
2376.0, 36027.75, -4288.23, -10.17, -19029.74, -36498.21, -178015.59, -20.32, 20695.35, 0.00, 0.00, 0.00
2380.0, 36037.07, -4385.97, -109.28, -19096.79, -36580.17, -177944.78, 170.97, 20744.23, 0.00, 0.00, 0.00
2384.0, 35966.05, -4451.51, -169.07, -19170.26, -36645.71, -177903.14, 437.00, 20715.66, 0.00, 0.00, 0.00
2388.0, 35939.68, -4331.72, -40.95, -19084.61, -36536.54, -177954.06, 293.03, 20661.04, 0.00, 0.00, 0.00
2392.0, 36003.36, -4278.35, 5.23, -19014.05, -36469.62, -177997.42, 12.72, 20683.92, 0.00, 0.00, 0.00
2396.0, 36027.61, -4396.12, -117.48, -19097.87, -36571.57, -177921.75, 147.68, 20720.54, 0.00, 0.00, 0.00
2400.0, 35960.98, -4466.97, -183.66, -19170.31, -36644.95, -177859.22, 447.84, 20689.96, 0.00, 0.00, 0.00
2404.0, 35928.62, -4382.44, -93.88, -19116.37, -36573.98, -177887.27, 386.89, 20634.50, 0.00, 0.00, 0.00
2408.0, 35986.62, -4292.85, -10.77, -19020.78, -36477.51, -177940.27, 78.54, 20640.85, 0.00, 0.00, 0.00
2412.0, 36021.49, -4402.96, -127.63, -19091.83, -36568.48, -177866.44, 151.25, 20693.31, 0.00, 0.00, 0.00
2416.0, 35962.57, -4492.63, -208.68, -19176.50, -36654.31, -177782.63, 477.97, 20692.37, 0.00, 0.00, 0.00
2420.0, 35915.23, -4428.15, -135.70, -19141.05, -36601.81, -177799.22, 502.00, 20643.67, 0.00, 0.00, 0.00
2424.0, 35962.79, -4309.53, -19.71, -19030.59, -36483.86, -177874.19, 185.41, 20640.38, 0.00, 0.00, 0.00
2428.0, 36009.29, -4383.78, -102.62, -19071.69, -36539.45, -177855.22, 151.57, 20686.67, 0.00, 0.00, 0.00
2432.0, 35960.54, -4482.28, -202.60, -19168.83, -36641.19, -177785.86, 460.56, 20679.25, 0.00, 0.00, 0.00
2436.0, 35917.20, -4443.95, -159.08, -19159.40, -36615.40, -177796.09, 564.14, 20625.83, 0.00, 0.00, 0.00
2440.0, 35959.89, -4341.58, -60.15, -19069.77, -36514.25, -177861.08, 286.86, 20600.11, 0.00, 0.00, 0.00
2444.0, 36011.59, -4367.60, -94.41, -19072.94, -36526.93, -177848.59, 195.42, 20642.19, 0.00, 0.00, 0.00
2448.0, 35975.20, -4460.16, -186.35, -19150.62, -36612.58, -177777.83, 480.65, 20657.08, 0.00, 0.00, 0.00
2452.0, 35919.25, -4466.71, -188.63, -19169.39, -36622.73, -177769.72, 653.14, 20609.34, 0.00, 0.00, 0.00
2456.0, 35947.32, -4349.11, -70.43, -19070.06, -36512.49, -177830.72, 417.06, 20575.56, 0.00, 0.00, 0.00
2460.0, 36012.08, -4352.87, -83.68, -19044.85, -36499.32, -177842.31, 247.05, 20611.08, 0.00, 0.00, 0.00
2464.0, 35992.14, -4474.08, -201.21, -19141.09, -36608.36, -177765.11, 493.10, 20633.52, 0.00, 0.00, 0.00
2468.0, 35929.45, -4465.30, -181.05, -19144.98, -36605.65, -177755.06, 707.95, 20591.28, 0.00, 0.00, 0.00
2472.0, 35953.85, -4349.47, -64.53, -19050.64, -36497.18, -177827.70, 510.20, 20545.52, 0.00, 0.00, 0.00
2476.0, 36030.18, -4306.76, -29.12, -18994.67, -36444.52, -177869.20, 275.53, 20533.85, 0.00, 0.00, 0.00
2480.0, 36029.11, -4426.85, -151.32, -19084.79, -36548.57, -177804.03, 465.05, 20515.30, 0.00, 0.00, 0.00
2484.0, 35961.16, -4470.44, -190.75, -19137.16, -36598.05, -177768.88, 738.12, 20432.91, 0.00, 0.00, 0.00
2488.0, 35954.41, -4388.97, -104.27, -19077.93, -36525.88, -177818.31, 622.92, 20325.49, 0.00, 0.00, 0.00
2492.0, 36019.05, -4325.60, -44.75, -19009.85, -36455.36, -177869.05, 354.16, 20266.97, 0.00, 0.00, 0.00
2496.0, 36035.39, -4399.11, -121.08, -19056.31, -36514.21, -177829.38, 465.63, 20260.54, 0.00, 0.00, 0.00
2500.0, 35968.43, -4497.64, -216.10, -19153.12, -36609.92, -177780.22, 769.30, 20193.93, 0.00, 0.00, 0.00
2504.0, 35940.89, -4446.03, -156.60, -19122.72, -36562.89, -177799.38, 754.08, 20108.48, 0.00, 0.00, 0.00
2508.0, 35991.70, -4350.63, -61.82, -19025.87, -36461.73, -177856.63, 476.23, 20118.45, 0.00, 0.00, 0.00
2512.0, 36016.77, -4386.93, -107.13, -19038.81, -36479.30, -177843.38, 512.10, 20223.59, 0.00, 0.00, 0.00
2516.0, 35957.47, -4514.29, -232.15, -19158.71, -36602.90, -177788.23, 830.12, 20266.10, 0.00, 0.00, 0.00
2520.0, 35910.29, -4501.37, -209.53, -19164.65, -36601.23, -177791.73, 895.52, 20230.99, 0.00, 0.00, 0.00
2524.0, 35951.55, -4388.61, -98.62, -19060.25, -36487.77, -177849.19, 621.78, 20243.50, 0.00, 0.00, 0.00
2528.0, 35995.56, -4391.85, -110.51, -19040.15, -36475.52, -177859.47, 577.19, 20338.79, 0.00, 0.00, 0.00
2532.0, 35954.21, -4481.52, -198.35, -19116.53, -36562.11, -177825.58, 866.42, 20381.86, 0.00, 0.00, 0.00
2536.0, 35909.17, -4483.22, -193.01, -19128.91, -36570.36, -177839.61, 986.00, 20346.19, 0.00, 0.00, 0.00
2540.0, 35957.34, -4358.28, -62.27, -19015.23, -36448.45, -177919.08, 723.35, 20335.01, 0.00, 0.00, 0.00
2544.0, 36015.07, -4377.63, -85.09, -19016.53, -36453.37, -177947.89, 615.81, 20401.84, 0.00, 0.00, 0.00
2548.0, 35973.21, -4510.94, -220.08, -19136.60, -36578.50, -177907.63, 898.83, 20423.44, 0.00, 0.00, 0.00
2552.0, 35909.55, -4489.95, -190.91, -19131.66, -36568.44, -177923.05, 1082.16, 20388.32, 0.00, 0.00, 0.00
2556.0, 35944.82, -4400.66, -100.00, -19055.33, -36483.10, -177984.81, 873.98, 20376.10, 0.00, 0.00, 0.00
2560.0, 36012.70, -4364.65, -69.47, -19009.76, -36440.47, -178038.03, 697.87, 20414.56, 0.00, 0.00, 0.00
2564.0, 35992.61, -4467.49, -172.76, -19096.06, -36534.57, -178039.13, 914.99, 20432.85, 0.00, 0.00, 0.00
2568.0, 35926.92, -4495.14, -193.21, -19134.01, -36571.16, -178047.11, 1154.65, 20386.89, 0.00, 0.00, 0.00
2572.0, 35941.45, -4391.80, -87.31, -19040.82, -36474.20, -178118.34, 990.05, 20348.27, 0.00, 0.00, 0.00
2576.0, 36020.10, -4342.77, -42.40, -18981.01, -36413.27, -178181.03, 765.21, 20382.73, 0.00, 0.00, 0.00
2580.0, 36025.64, -4451.01, -151.23, -19072.25, -36507.13, -178172.44, 948.90, 20435.55, 0.00, 0.00, 0.00
2584.0, 35958.21, -4519.86, -211.13, -19145.41, -36581.38, -178156.56, 1244.99, 20406.05, 0.00, 0.00, 0.00
2588.0, 35961.65, -4417.00, -96.58, -19054.84, -36486.56, -178200.94, 1161.33, 20368.23, 0.00, 0.00, 0.00
2592.0, 36033.83, -4368.07, -47.23, -18999.16, -36423.48, -178248.20, 910.14, 20392.95, 0.00, 0.00, 0.00
2596.0, 36036.49, -4449.72, -128.23, -19068.25, -36490.81, -178244.27, 1020.18, 20442.14, 0.00, 0.00, 0.00
2600.0, 35970.19, -4508.82, -178.84, -19129.56, -36548.81, -178235.08, 1321.46, 20442.01, 0.00, 0.00, 0.00
2604.0, 35954.14, -4443.44, -101.34, -19076.23, -36490.54, -178254.73, 1323.02, 20423.48, 0.00, 0.00, 0.00
2608.0, 36018.36, -4369.25, -22.11, -19002.71, -36414.39, -178289.22, 1065.80, 20446.39, 0.00, 0.00, 0.00
2612.0, 36039.15, -4439.17, -90.66, -19061.16, -36476.35, -178295.17, 1098.50, 20502.32, 0.00, 0.00, 0.00
2616.0, 35968.83, -4551.08, -196.63, -19171.11, -36591.44, -178273.50, 1407.56, 20495.39, 0.00, 0.00, 0.00
2620.0, 35933.27, -4496.21, -126.42, -19131.86, -36549.71, -178274.73, 1483.69, 20446.55, 0.00, 0.00, 0.00
2624.0, 35991.65, -4400.88, -23.63, -19032.93, -36448.86, -178310.41, 1219.49, 20455.27, 0.00, 0.00, 0.00
2628.0, 36030.09, -4442.05, -62.27, -19060.49, -36474.04, -178320.09, 1177.18, 20522.46, 0.00, 0.00, 0.00
2632.0, 35982.04, -4549.79, -167.41, -19157.43, -36573.58, -178298.47, 1469.85, 20559.69, 0.00, 0.00, 0.00
2636.0, 35932.30, -4554.61, -164.49, -19171.78, -36589.16, -178274.38, 1627.01, 20523.79, 0.00, 0.00, 0.00
2640.0, 35979.18, -4429.13, -38.82, -19050.55, -36469.17, -178295.36, 1391.91, 20512.66, 0.00, 0.00, 0.00
2644.0, 36059.35, -4434.79, -52.88, -19030.88, -36449.59, -178307.03, 1276.02, 20576.79, 0.00, 0.00, 0.00
2648.0, 36027.79, -4544.87, -164.55, -19120.51, -36547.38, -178272.86, 1547.03, 20616.53, 0.00, 0.00, 0.00
2652.0, 35943.64, -4560.67, -168.38, -19136.27, -36568.44, -178245.33, 1760.49, 20600.08, 0.00, 0.00, 0.00
2656.0, 36004.05, -4404.99, -12.34, -18987.45, -36422.25, -178266.64, 1560.46, 20613.70, 0.00, 0.00, 0.00
2660.0, 36125.45, -4386.66, -4.11, -18951.06, -36390.07, -178277.63, 1379.86, 20689.40, 0.00, 0.00, 0.00
2664.0, 36135.26, -4511.81, -131.36, -19058.84, -36505.25, -178237.47, 1609.01, 20740.70, 0.00, 0.00, 0.00
2668.0, 36083.74, -4556.54, -169.96, -19102.07, -36557.77, -178193.58, 1873.72, 20721.47, 0.00, 0.00, 0.00
2672.0, 36109.06, -4473.41, -88.04, -19026.12, -36481.06, -178174.36, 1751.62, 20692.82, 0.00, 0.00, 0.00
2676.0, 36189.24, -4450.46, -73.13, -18997.82, -36450.64, -178140.64, 1553.36, 20711.10, 0.00, 0.00, 0.00
2680.0, 36192.26, -4504.08, -134.13, -19052.43, -36502.10, -178103.55, 1727.95, 20760.05, 0.00, 0.00, 0.00
2684.0, 36113.58, -4558.57, -187.17, -19109.67, -36557.71, -178089.91, 2021.67, 20777.76, 0.00, 0.00, 0.00
2688.0, 36087.96, -4483.98, -106.68, -19049.29, -36494.03, -178072.70, 1976.32, 20760.81, 0.00, 0.00, 0.00
2692.0, 36139.89, -4397.15, -21.39, -18964.81, -36405.56, -178071.30, 1721.67, 20786.65, 0.00, 0.00, 0.00
2696.0, 36147.62, -4478.42, -109.43, -19043.17, -36476.61, -178040.20, 1828.62, 20835.49, 0.00, 0.00, 0.00
2700.0, 36069.48, -4587.11, -214.71, -19160.61, -36587.32, -177978.89, 2182.00, 20820.69, 0.00, 0.00, 0.00
2704.0, 36033.20, -4494.65, -113.14, -19097.02, -36510.72, -177945.19, 2204.35, 20779.72, 0.00, 0.00, 0.00
2708.0, 36082.00, -4370.95, 6.84, -18978.78, -36383.63, -177938.72, 1904.32, 20814.97, 0.00, 0.00, 0.00
2712.0, 36091.41, -4392.83, -20.36, -18998.47, -36397.18, -177916.80, 1900.52, 20883.19, 0.00, 0.00, 0.00
2716.0, 36019.63, -4467.09, -91.22, -19049.74, -36467.94, -177885.02, 2193.38, 20903.73, 0.00, 0.00, 0.00
2720.0, 35973.52, -4425.91, -40.64, -19025.29, -36434.73, -177859.33, 2257.73, 20874.94, 0.00, 0.00, 0.00
2724.0, 36019.79, -4343.08, 43.94, -18950.14, -36349.19, -177842.14, 1980.32, 20871.52, 0.00, 0.00, 0.00
2728.0, 36056.47, -4375.40, 7.22, -18970.53, -36356.86, -177825.08, 1906.34, 20915.29, 0.00, 0.00, 0.00
2732.0, 36002.40, -4486.82, -102.39, -19093.89, -36453.44, -177773.61, 2191.90, 20925.46, 0.00, 0.00, 0.00
2736.0, 35960.89, -4463.58, -71.48, -19111.93, -36442.44, -177710.36, 2334.44, 20881.80, 0.00, 0.00, 0.00
2740.0, 36022.27, -4340.02, 51.14, -19036.04, -36324.96, -177672.80, 2066.40, 20868.84, 0.00, 0.00, 0.00
2744.0, 36089.33, -4337.71, 44.35, -19083.27, -36313.02, -177658.97, 1883.60, 20902.63, 0.00, 0.00, 0.00
2748.0, 36062.66, -4410.09, -33.75, -19221.18, -36380.32, -177661.73, 2114.94, 20923.89, 0.00, 0.00, 0.00
2752.0, 36019.97, -4425.13, -48.19, -19265.15, -36407.55, -177672.20, 2325.72, 20888.20, 0.00, 0.00, 0.00
2756.0, 36058.37, -4359.24, 14.55, -19186.20, -36355.60, -177684.77, 2149.10, 20840.90, 0.00, 0.00, 0.00
2760.0, 36127.10, -4282.01, 87.22, -19091.76, -36272.45, -177726.42, 1929.80, 20860.57, 0.00, 0.00, 0.00
2764.0, 36123.61, -4371.17, -3.06, -19164.94, -36347.33, -177770.39, 2107.19, 20902.97, 0.00, 0.00, 0.00
2768.0, 36060.38, -4431.90, -59.75, -19238.10, -36428.18, -177842.09, 2361.86, 20869.60, 0.00, 0.00, 0.00
2772.0, 36069.43, -4345.34, 31.20, -19171.25, -36350.91, -178049.77, 2233.56, 20829.68, 0.00, 0.00, 0.00
2776.0, 36135.57, -4295.96, 78.75, -19130.77, -36298.54, -178441.22, 1983.25, 20848.16, 0.00, 0.00, 0.00
2780.0, 36142.79, -4317.37, 53.71, -19162.51, -36310.65, -179082.59, 2077.82, 20907.35, 0.00, 0.00, 0.00
2784.0, 36106.09, -4325.80, 46.45, -19197.33, -36321.34, -179724.16, 2311.73, 20928.09, 0.00, 0.00, 0.00
2788.0, 36118.27, -4246.52, 127.09, -19148.45, -36243.49, -180161.11, 2212.91, 20914.93, 0.00, 0.00, 0.00
2792.0, 36199.83, -4185.12, 188.63, -19100.50, -36176.86, -180632.98, 1918.49, 20938.73, 0.00, 0.00, 0.00
2796.0, 36232.76, -4243.59, 125.73, -19164.14, -36225.40, -180945.56, 1960.76, 20992.78, 0.00, 0.00, 0.00
2800.0, 36177.62, -4313.66, 57.06, -19246.39, -36291.27, -181080.14, 2230.26, 20998.37, 0.00, 0.00, 0.00
2804.0, 36157.88, -4294.02, 77.81, -19244.63, -36273.82, -181080.28, 2242.26, 20962.43, 0.00, 0.00, 0.00
2808.0, 36220.11, -4206.06, 165.63, -19173.37, -36180.52, -181015.78, 1957.50, 20970.38, 0.00, 0.00, 0.00
2812.0, 36263.13, -4243.86, 119.31, -19224.38, -36206.98, -180956.78, 1930.61, 21030.06, 0.00, 0.00, 0.00
2816.0, 36204.82, -4372.58, -7.64, -19364.79, -36329.52, -180845.44, 2215.24, 21033.95, 0.00, 0.00, 0.00
2820.0, 36149.81, -4365.21, 7.89, -19379.30, -36329.61, -180707.56, 2300.22, 20974.70, 0.00, 0.00, 0.00
2824.0, 36193.44, -4253.16, 116.30, -19288.64, -36223.48, -180598.72, 2019.21, 20956.97, 0.00, 0.00, 0.00
2828.0, 36237.18, -4302.40, 53.53, -19336.81, -36264.16, -180449.27, 1931.21, 20991.39, 0.00, 0.00, 0.00
2832.0, 36177.84, -4418.25, -62.94, -19452.77, -36378.04, -180266.64, 2217.27, 20977.36, 0.00, 0.00, 0.00
2836.0, 36102.85, -4419.59, -64.51, -19450.42, -36385.31, -180135.78, 2389.02, 20920.12, 0.00, 0.00, 0.00
2840.0, 36121.45, -4354.52, -1.88, -19384.64, -36320.40, -179983.91, 2183.47, 20864.57, 0.00, 0.00, 0.00
2844.0, 36179.23, -4332.53, 11.98, -19357.93, -36285.02, -179874.03, 2022.05, 20866.22, 0.00, 0.00, 0.00
2848.0, 36155.60, -4438.18, -103.04, -19456.52, -36379.52, -179850.91, 2242.24, 20865.26, 0.00, 0.00, 0.00
2852.0, 36104.19, -4465.86, -128.32, -19489.47, -36408.35, -179723.91, 2449.82, 20810.93, 0.00, 0.00, 0.00
2856.0, 36137.38, -4385.05, -48.53, -19419.15, -36335.96, -179375.72, 2278.31, 20767.45, 0.00, 0.00, 0.00
2860.0, 36209.60, -4342.77, -12.34, -19372.95, -36291.45, -179079.98, 2069.32, 20784.35, 0.00, 0.00, 0.00
2864.0, 36200.23, -4441.02, -109.81, -19448.81, -36377.82, -178999.27, 2240.27, 20807.84, 0.00, 0.00, 0.00
2868.0, 36131.04, -4484.34, -139.27, -19490.50, -36422.97, -179077.70, 2486.94, 20762.91, 0.00, 0.00, 0.00
2872.0, 36139.35, -4386.98, -34.44, -19406.77, -36328.11, -179130.61, 2343.11, 20728.22, 0.00, 0.00, 0.00
2876.0, 36219.61, -4335.17, 14.46, -19372.50, -36268.92, -179104.33, 2068.97, 20748.88, 0.00, 0.00, 0.00
2880.0, 36243.42, -4392.23, -43.72, -19406.99, -36317.23, -179053.58, 2160.83, 20794.19, 0.00, 0.00, 0.00
2884.0, 36198.31, -4454.90, -102.35, -19391.03, -36377.22, -178984.27, 2429.70, 20794.97, 0.00, 0.00, 0.00
2888.0, 36179.74, -4435.44, -77.72, -19208.42, -36363.05, -178901.33, 2399.66, 20750.15, 0.00, 0.00, 0.00
2892.0, 36234.66, -4388.14, -33.13, -18883.04, -36313.07, -178824.28, 2129.90, 20739.91, 0.00, 0.00, 0.00
2896.0, 36260.81, -4430.56, -83.28, -18693.48, -36347.13, -178771.30, 2159.40, 20775.74, 0.00, 0.00, 0.00
2900.0, 36194.18, -4520.01, -164.91, -18624.66, -36431.44, -178704.50, 2450.02, 20773.73, 0.00, 0.00, 0.00
2904.0, 36155.27, -4433.02, -70.14, -18480.60, -36357.35, -178682.56, 2464.82, 20738.53, 0.00, 0.00, 0.00
2908.0, 36212.42, -4304.63, 56.57, -18311.38, -36229.92, -178767.03, 2149.25, 20758.98, 0.00, 0.00, 0.00
2912.0, 36273.66, -4311.27, 45.46, -18282.59, -36223.10, -178885.08, 2083.76, 20831.69, 0.00, 0.00, 0.00
2916.0, 36229.94, -4428.82, -70.54, -18377.87, -36326.61, -178982.92, 2358.62, 20840.90, 0.00, 0.00, 0.00
2920.0, 36159.71, -4414.78, -45.62, -18375.57, -36317.52, -179042.31, 2462.60, 20791.26, 0.00, 0.00, 0.00
2924.0, 36197.64, -4335.88, 36.28, -18316.27, -36238.52, -179076.27, 2205.11, 20771.90, 0.00, 0.00, 0.00
2928.0, 36234.16, -4340.57, 29.73, -18349.80, -36233.23, -179088.39, 2100.55, 20802.12, 0.00, 0.00, 0.00
2932.0, 36185.55, -4430.54, -62.18, -18488.27, -36310.77, -179087.92, 2351.31, 20823.62, 0.00, 0.00, 0.00
2936.0, 36136.42, -4427.68, -54.94, -18528.95, -36310.39, -179056.89, 2504.71, 20779.95, 0.00, 0.00, 0.00
2940.0, 36175.67, -4337.11, 36.95, -18484.98, -36222.48, -178995.98, 2266.44, 20745.01, 0.00, 0.00, 0.00
2944.0, 36226.50, -4321.40, 48.15, -18561.16, -36198.40, -178973.77, 2084.37, 20770.60, 0.00, 0.00, 0.00
2948.0, 36216.98, -4391.42, -25.01, -18720.66, -36260.92, -178948.16, 2283.86, 20800.22, 0.00, 0.00, 0.00
2952.0, 36170.66, -4428.10, -61.44, -18878.44, -36308.87, -178836.38, 2495.15, 20765.71, 0.00, 0.00, 0.00
2956.0, 36177.37, -4309.06, 58.32, -18874.93, -36199.59, -178729.34, 2305.40, 20733.95, 0.00, 0.00, 0.00
2960.0, 36237.43, -4309.01, 51.05, -18939.04, -36188.52, -178618.70, 2087.61, 20760.95, 0.00, 0.00, 0.00
2964.0, 36219.46, -4407.34, -54.00, -19120.73, -36280.72, -178515.02, 2280.79, 20779.81, 0.00, 0.00, 0.00
2968.0, 36146.99, -4457.45, -101.68, -19255.63, -36332.45, -178443.56, 2562.43, 20748.74, 0.00, 0.00, 0.00
2972.0, 36141.09, -4383.65, -21.79, -19260.39, -36267.11, -178387.34, 2472.19, 20708.04, 0.00, 0.00, 0.00
2976.0, 36204.04, -4323.92, 34.02, -19228.91, -36205.93, -178352.59, 2225.63, 20721.59, 0.00, 0.00, 0.00
2980.0, 36215.70, -4353.58, 1.43, -19267.00, -36226.32, -178330.39, 2313.52, 20772.75, 0.00, 0.00, 0.00
2984.0, 36155.69, -4424.44, -68.78, -19363.27, -36286.96, -178322.61, 2594.75, 20766.09, 0.00, 0.00, 0.00
2988.0, 36144.25, -4361.72, -1.77, -19344.03, -36231.55, -178415.44, 2571.21, 20731.33, 0.00, 0.00, 0.00
2992.0, 36222.81, -4270.70, 88.20, -19274.18, -36144.34, -178663.95, 2291.79, 20744.41, 0.00, 0.00, 0.00
2996.0, 36273.71, -4328.39, 25.19, -19306.95, -36198.34, -178948.75, 2324.67, 20800.85, 0.00, 0.00, 0.00
3000.0, 36250.95, -4416.41, -51.72, -19380.19, -36302.70, -179165.03, 2634.47, 20806.68, 0.00, 0.00, 0.00
3004.0, 36275.25, -4337.15, 27.89, -19321.16, -36241.12, -179434.25, 2670.65, 20790.45, 0.00, 0.00, 0.00
3008.0, 36393.96, -4240.33, 114.13, -19279.77, -36150.26, -179714.08, 2384.84, 20809.18, 0.00, 0.00, 0.00
3012.0, 36490.81, -4255.08, 92.56, -19340.34, -36168.12, -179969.67, 2333.19, 20864.03, 0.00, 0.00, 0.00
3016.0, 36487.61, -4326.52, 24.88, -19432.92, -36235.77, -180170.16, 2595.69, 20900.36, 0.00, 0.00, 0.00
3020.0, 36476.17, -4353.76, 4.92, -19480.42, -36273.30, -180286.38, 2723.90, 20869.73, 0.00, 0.00, 0.00
3024.0, 36499.41, -4246.81, 111.56, -19376.82, -36182.45, -180363.06, 2459.41, 20838.60, 0.00, 0.00, 0.00
3028.0, 36511.48, -4250.39, 107.60, -19292.35, -36188.34, -180322.22, 2323.37, 20876.71, 0.00, 0.00, 0.00
3032.0, 36473.64, -4327.77, 45.55, -19375.47, -36269.91, -180294.95, 2573.74, 20897.79, 0.00, 0.00, 0.00
3036.0, 36420.85, -4350.81, 36.28, -19422.41, -36300.77, -180241.23, 2741.13, 20865.76, 0.00, 0.00, 0.00
3040.0, 36427.22, -4272.71, 120.83, -19341.63, -36230.21, -179994.23, 2530.87, 20820.07, 0.00, 0.00, 0.00
3044.0, 36461.17, -4251.84, 132.72, -19267.05, -36197.55, -179726.59, 2349.66, 20851.47, 0.00, 0.00, 0.00
3048.0, 36402.09, -4375.96, 4.92, -19382.29, -36315.37, -179490.30, 2592.49, 20872.73, 0.00, 0.00, 0.00
3052.0, 36299.70, -4390.53, -5.72, -19442.31, -36334.55, -179271.95, 2837.80, 20836.47, 0.00, 0.00, 0.00
3056.0, 36290.69, -4311.32, 70.77, -19399.97, -36260.72, -179079.05, 2693.74, 20807.39, 0.00, 0.00, 0.00
3060.0, 36355.63, -4262.63, 107.22, -19370.29, -36204.28, -179046.39, 2467.05, 20835.38, 0.00, 0.00, 0.00
3064.0, 36359.54, -4344.22, 15.62, -19462.54, -36280.72, -179018.16, 2623.76, 20866.49, 0.00, 0.00, 0.00
3068.0, 36277.62, -4404.77, -40.26, -19539.04, -36353.25, -178868.05, 2904.01, 20824.81, 0.00, 0.00, 0.00
3072.0, 36268.03, -4324.08, 64.13, -19492.87, -36291.12, -178715.25, 2801.63, 20773.40, 0.00, 0.00, 0.00
3076.0, 36327.64, -4283.53, 105.39, -19430.77, -36258.64, -178686.75, 2535.31, 20808.80, 0.00, 0.00, 0.00
3080.0, 36329.09, -4347.77, 41.57, -19453.10, -36336.27, -178708.69, 2604.38, 20850.76, 0.00, 0.00, 0.00
3084.0, 36261.32, -4437.80, -42.02, -19509.94, -36440.02, -178702.13, 2904.07, 20850.33, 0.00, 0.00, 0.00
3088.0, 36221.98, -4367.24, 44.10, -19466.40, -36386.85, -178804.92, 2884.27, 20805.74, 0.00, 0.00, 0.00
3092.0, 36265.28, -4271.89, 146.16, -19377.93, -36302.68, -178892.36, 2582.74, 20815.08, 0.00, 0.00, 0.00
3096.0, 36280.77, -4346.81, 78.32, -19421.30, -36380.75, -178735.36, 2601.77, 20861.17, 0.00, 0.00, 0.00
3100.0, 36191.77, -4531.66, -99.11, -19589.67, -36573.06, -178066.86, 2934.40, 20831.85, 0.00, 0.00, 0.00
3104.0, 36100.43, -4519.75, -65.60, -19614.53, -36578.45, -177249.14, 3073.43, 20733.66, 0.00, 0.00, 0.00
3108.0, 36146.08, -4456.11, 9.19, -19564.30, -36518.03, -176505.80, 2832.59, 20704.44, 0.00, 0.00, 0.00
3112.0, 36159.40, -4543.13, -77.34, -19638.51, -36601.74, -175628.84, 2851.72, 20695.21, 0.00, 0.00, 0.00
3116.0, 36043.21, -4628.51, -184.80, -19753.26, -36725.23, -174874.19, 3152.13, 20627.60, 0.00, 0.00, 0.00
3120.0, 35959.75, -4576.16, -121.30, -19748.48, -36770.77, -174466.78, 3317.85, 20562.78, 0.00, 0.00, 0.00
3124.0, 35977.61, -4403.83, 47.07, -19623.80, -36678.94, -174344.70, 3033.31, 20570.51, 0.00, 0.00, 0.00
3128.0, 36036.20, -4368.36, 80.04, -19655.90, -36698.93, -174223.81, 2870.57, 20639.13, 0.00, 0.00, 0.00
3132.0, 36071.16, -4493.21, -54.47, -19877.23, -36870.00, -174052.83, 3069.88, 20644.09, 0.00, 0.00, 0.00
3136.0, 36089.86, -4568.74, -73.58, -20042.72, -36981.56, -173707.38, 3292.50, 20571.74, 0.00, 0.00, 0.00
3140.0, 36182.94, -4466.50, 76.58, -19980.65, -36986.93, -173325.41, 3097.97, 20513.69, 0.00, 0.00, 0.00
3144.0, 36221.07, -4414.96, 103.98, -19988.74, -37080.76, -173165.42, 2958.50, 20560.14, 0.00, 0.00, 0.00
3148.0, 36218.25, -4527.84, -64.73, -20167.24, -37328.17, -173079.03, 3278.91, 20571.45, 0.00, 0.00, 0.00
3152.0, 36164.29, -4607.72, -168.96, -20277.44, -37517.76, -172996.45, 3674.58, 20475.49, 0.00, 0.00, 0.00
3156.0, 36181.41, -4541.85, -76.29, -20202.89, -37535.13, -172855.00, 3643.16, 20377.82, 0.00, 0.00, 0.00
3160.0, 36256.68, -4465.30, 57.38, -20093.19, -37579.74, -172800.81, 3470.91, 20424.29, 0.00, 0.00, 0.00
3164.0, 36262.62, -4522.52, 10.93, -20217.49, -37791.81, -172894.84, 3719.24, 20513.94, 0.00, 0.00, 0.00
3168.0, 36228.36, -4602.58, -88.38, -20379.81, -37997.74, -172943.59, 4111.02, 20478.60, 0.00, 0.00, 0.00
3172.0, 36242.26, -4495.49, -22.28, -20376.65, -38096.63, -172940.94, 4079.37, 20402.45, 0.00, 0.00, 0.00
3176.0, 36312.29, -4433.02, -16.07, -20137.07, -38254.29, -172867.47, 3885.78, 20400.82, 0.00, 0.00, 0.00
3180.0, 36387.41, -4576.77, -177.29, -19828.48, -38537.76, -172815.05, 4100.74, 20420.13, 0.00, 0.00, 0.00
3184.0, 36313.65, -4675.16, -259.84, -19425.61, -38749.92, -172902.30, 4542.39, 20361.50, 0.00, 0.00, 0.00
3188.0, 36247.73, -4581.64, -130.67, -19081.04, -38776.59, -173050.00, 4677.01, 20247.08, 0.00, 0.00, 0.00
3192.0, 36310.99, -4553.88, -63.14, -18678.68, -38840.13, -173236.16, 4523.84, 20282.96, 0.00, 0.00, 0.00
3196.0, 36366.85, -4725.65, -216.57, -18431.43, -39052.12, -173351.88, 4715.86, 20382.67, 0.00, 0.00, 0.00
3200.0, 36318.21, -4822.81, -314.67, -18280.20, -39189.74, -173276.50, 5107.42, 20402.22, 0.00, 0.00, 0.00
3204.0, 36289.49, -4791.30, -306.73, -18192.51, -39272.95, -172744.73, 5281.02, 20303.07, 0.00, 0.00, 0.00
3208.0, 36351.69, -4673.84, -252.84, -17908.42, -39283.79, -172372.20, 5178.99, 20240.49, 0.00, 0.00, 0.00
3212.0, 36371.81, -4725.07, -302.35, -17682.55, -39408.89, -172190.55, 5410.40, 20256.04, 0.00, 0.00, 0.00
3216.0, 36329.79, -4870.76, -423.88, -17525.42, -39577.65, -172083.48, 5941.90, 20232.89, 0.00, 0.00, 0.00
3220.0, 36279.03, -4880.75, -455.15, -17300.38, -39678.68, -171954.13, 6272.75, 20144.31, 0.00, 0.00, 0.00
3224.0, 36321.05, -4760.54, -418.29, -17048.79, -39643.48, -171788.81, 6168.17, 20076.65, 0.00, 0.00, 0.00
3228.0, 36386.76, -4748.72, -553.18, -16956.97, -39713.68, -171414.66, 6263.43, 20161.56, 0.00, 0.00, 0.00
3232.0, 36347.58, -4902.34, -772.50, -16900.42, -39887.22, -170924.14, 6675.48, 20186.06, 0.00, 0.00, 0.00
3236.0, 36153.41, -4912.40, -772.90, -16633.03, -39983.02, -170554.31, 6980.96, 20062.59, 0.00, 0.00, 0.00
3240.0, 36074.06, -4824.31, -732.85, -16320.24, -39989.04, -170059.36, 6886.30, 19998.71, 0.00, 0.00, 0.00
3244.0, 36210.03, -4927.49, -952.88, -16190.62, -40145.88, -168783.77, 6914.76, 19990.01, 0.00, 0.00, 0.00
3248.0, 36134.43, -5121.61, -1265.00, -16137.11, -40351.69, -167078.88, 7361.50, 19950.07, 0.00, 0.00, 0.00
3252.0, 35957.00, -5219.18, -1415.94, -15974.93, -40451.76, -165605.67, 7957.42, 19828.23, 0.00, 0.00, 0.00
3256.0, 35906.69, -5195.37, -1432.19, -15716.11, -40439.58, -164236.48, 8110.15, 19688.98, 0.00, 0.00, 0.00
3260.0, 35946.95, -5193.25, -1463.12, -15492.37, -40423.57, -162904.05, 8119.99, 19743.21, 0.00, 0.00, 0.00
3264.0, 35937.20, -5313.81, -1532.97, -15379.43, -40500.69, -161492.39, 8530.48, 19801.88, 0.00, 0.00, 0.00
3268.0, 35869.48, -5474.03, -1623.47, -15314.57, -40601.03, -159944.36, 9145.24, 19739.03, 0.00, 0.00, 0.00
3272.0, 35813.89, -5640.78, -1695.92, -15106.14, -40569.91, -158464.50, 9361.56, 19631.51, 0.00, 0.00, 0.00
3276.0, 35828.21, -5897.64, -1867.02, -14951.48, -40559.54, -156706.64, 9394.75, 19662.09, 0.00, 0.00, 0.00
3280.0, 35783.15, -6203.86, -2155.56, -14974.91, -40674.52, -154337.05, 9766.62, 19698.88, 0.00, 0.00, 0.00
3284.0, 35639.09, -6384.69, -2370.76, -15048.92, -40827.52, -151400.08, 10375.32, 19666.38, 0.00, 0.00, 0.00
3288.0, 35530.24, -6384.24, -2373.22, -15058.91, -40925.30, -147968.63, 10789.39, 19543.29, 0.00, 0.00, 0.00
3292.0, 35492.02, -6349.73, -2366.04, -15025.60, -40940.59, -144295.41, 10910.85, 19395.57, 0.00, 0.00, 0.00
3296.0, 35402.99, -6493.11, -2529.06, -15051.31, -41065.99, -140277.20, 11317.67, 19259.36, 0.00, 0.00, 0.00
3300.0, 35224.83, -6694.93, -2771.57, -15152.87, -41290.91, -135635.39, 12057.16, 19137.88, 0.00, 0.00, 0.00
3304.0, 35083.43, -6727.00, -2898.95, -15235.24, -41351.82, -130988.80, 12535.04, 19049.25, 0.00, 0.00, 0.00
3308.0, 35060.45, -6729.31, -2887.89, -15243.82, -41314.05, -126594.45, 12609.67, 19054.95, 0.00, 0.00, 0.00
3312.0, 35011.46, -6914.56, -2974.15, -15268.72, -41474.87, -121961.40, 13024.90, 19326.90, 0.00, 0.00, 0.00
3316.0, 34822.25, -7145.27, -3172.61, -15433.90, -41697.22, -116860.82, 13794.65, 19538.31, 0.00, 0.00, 0.00
3320.0, 34578.97, -7290.74, -3348.47, -15593.05, -41816.71, -110846.70, 14414.28, 19540.23, 0.00, 0.00, 0.00
3324.0, 34431.63, -7299.05, -3419.30, -15519.31, -41843.94, -104255.77, 14589.05, 19465.31, 0.00, 0.00, 0.00
3328.0, 34242.29, -7461.10, -3614.48, -15559.00, -42009.81, -97486.03, 14982.80, 19504.09, 0.00, 0.00, 0.00
3332.0, 34012.11, -7702.57, -3880.24, -15645.80, -42251.55, -90714.62, 15723.69, 19660.84, 0.00, 0.00, 0.00
3336.0, 33807.37, -7859.30, -4024.54, -15609.09, -42397.05, -84155.52, 16445.94, 19872.62, 0.00, 0.00, 0.00
3340.0, 33712.22, -7827.85, -4003.67, -15494.79, -42327.32, -77847.08, 16734.97, 20081.88, 0.00, 0.00, 0.00
3344.0, 33678.20, -7848.41, -4086.08, -15435.11, -42317.89, -71910.12, 17057.04, 20346.14, 0.00, 0.00, 0.00
3348.0, 33578.87, -7868.42, -4078.75, -15310.43, -42328.66, -66789.54, 17721.04, 20489.35, 0.00, 0.00, 0.00
3352.0, 33482.51, -7934.02, -4086.61, -15236.87, -42421.98, -62048.24, 18524.79, 20880.91, 0.00, 0.00, 0.00
3356.0, 33413.38, -7882.74, -4040.55, -15118.58, -42392.65, -57212.02, 18945.61, 21329.73, 0.00, 0.00, 0.00
3360.0, 33345.29, -7797.67, -3971.32, -15066.21, -42301.17, -52704.14, 19163.67, 21630.45, 0.00, 0.00, 0.00
3364.0, 33233.20, -7861.00, -4042.38, -15159.89, -42341.13, -48565.40, 19642.60, 21918.92, 0.00, 0.00, 0.00
3368.0, 33102.29, -7892.83, -4072.17, -15225.18, -42320.39, -44571.66, 20241.52, 22093.54, 0.00, 0.00, 0.00
3372.0, 33050.27, -7799.91, -3990.28, -15033.42, -42181.05, -40791.42, 20504.01, 22450.70, 0.00, 0.00, 0.00
3376.0, 33105.35, -7676.80, -3903.11, -14907.88, -42070.27, -37330.74, 20558.20, 23075.29, 0.00, 0.00, 0.00
3380.0, 33100.29, -7736.18, -4019.56, -14886.62, -42162.54, -33959.36, 20975.75, 23818.60, 0.00, 0.00, 0.00
3384.0, 32992.25, -7827.60, -4115.22, -14853.00, -42260.46, -30467.39, 21644.98, 24524.98, 0.00, 0.00, 0.00
3388.0, 32912.41, -7799.91, -4058.61, -14702.28, -42219.49, -26951.29, 22054.96, 25138.02, 0.00, 0.00, 0.00
3392.0, 32948.79, -7688.11, -3924.23, -14568.87, -42081.43, -23535.11, 22130.73, 25602.31, 0.00, 0.00, 0.00
3396.0, 32972.71, -7706.99, -3931.58, -14547.25, -42064.11, -20261.28, 22473.52, 26130.57, 0.00, 0.00, 0.00
3400.0, 32913.99, -7791.08, -4016.14, -14575.71, -42140.01, -17162.79, 23101.04, 26736.91, 0.00, 0.00, 0.00
3404.0, 32868.08, -7734.78, -3981.20, -14490.64, -42080.67, -14247.83, 23547.07, 27315.57, 0.00, 0.00, 0.00
3408.0, 32956.26, -7540.56, -3835.22, -14304.87, -41849.35, -11569.98, 23554.00, 27716.79, 0.00, 0.00, 0.00
3412.0, 33046.25, -7467.70, -3811.58, -14338.46, -41774.36, -9197.54, 23722.26, 28100.95, 0.00, 0.00, 0.00
3416.0, 33027.63, -7518.14, -3865.49, -14381.22, -41833.90, -7044.46, 24202.51, 28518.61, 0.00, 0.00, 0.00
3420.0, 33005.12, -7457.19, -3812.92, -14217.99, -41791.82, -5046.67, 24617.32, 28813.28, 0.00, 0.00, 0.00
3424.0, 33115.85, -7236.65, -3605.58, -13906.16, -41599.25, -3212.44, 24577.82, 28828.81, 0.00, 0.00, 0.00
3428.0, 33272.05, -7173.21, -3561.86, -13849.19, -41578.42, -1507.83, 24651.58, 28852.95, 0.00, 0.00, 0.00
3432.0, 33317.60, -7193.44, -3595.43, -13881.53, -41636.65, 63.84, 25049.55, 29048.04, 0.00, 0.00, 0.00
3436.0, 33287.85, -7195.18, -3607.55, -13853.37, -41669.21, 1526.45, 25467.76, 29334.16, 0.00, 0.00, 0.00
3440.0, 33350.50, -6981.03, -3384.57, -13583.56, -41488.01, 2870.59, 25435.64, 29433.51, 0.00, 0.00, 0.00
3444.0, 33482.87, -6885.14, -3280.25, -13462.86, -41420.89, 4127.07, 25402.06, 29512.01, 0.00, 0.00, 0.00
3448.0, 33526.99, -6948.26, -3339.91, -13507.47, -41499.81, 5337.31, 25726.39, 29728.22, 0.00, 0.00, 0.00
3452.0, 33492.93, -6972.98, -3363.76, -13510.91, -41535.24, 6497.50, 26136.99, 29991.37, 0.00, 0.00, 0.00
3456.0, 33543.11, -6838.49, -3209.64, -13371.19, -41392.12, 7592.51, 26146.71, 30110.21, 0.00, 0.00, 0.00
3460.0, 33692.71, -6700.92, -3055.33, -13256.33, -41249.50, 8617.40, 26012.91, 30151.88, 0.00, 0.00, 0.00
3464.0, 33752.14, -6749.47, -3096.86, -13318.49, -41317.98, 9629.38, 26230.96, 30327.49, 0.00, 0.00, 0.00
3468.0, 33728.80, -6801.10, -3151.42, -13368.06, -41400.68, 10607.67, 26613.64, 30572.11, 0.00, 0.00, 0.00
3472.0, 33762.69, -6675.66, -3038.63, -13252.33, -41295.99, 11568.93, 26662.41, 30695.27, 0.00, 0.00, 0.00
3476.0, 33886.65, -6509.95, -2904.65, -13125.01, -41162.61, 12571.58, 26483.91, 30702.69, 0.00, 0.00, 0.00
3480.0, 33941.68, -6542.49, -2980.36, -13262.00, -41240.66, 13662.03, 26628.64, 30830.39, 0.00, 0.00, 0.00
3484.0, 33909.43, -6553.75, -3049.49, -13383.64, -41309.44, 14635.05, 26955.85, 31027.15, 0.00, 0.00, 0.00
3488.0, 33915.15, -6483.77, -3027.41, -13371.46, -41281.79, 15530.75, 27060.74, 31199.64, 0.00, 0.00, 0.00
3492.0, 34019.89, -6327.13, -2904.14, -13170.88, -41180.32, 16263.89, 26864.47, 31205.13, 0.00, 0.00, 0.00
3496.0, 34110.19, -6291.75, -2876.45, -13092.40, -41168.49, 16957.84, 26883.49, 31249.37, 0.00, 0.00, 0.00
3500.0, 34065.71, -6402.32, -2969.70, -13223.38, -41281.35, 18009.61, 27173.22, 31488.87, 0.00, 0.00, 0.00
3504.0, 34024.11, -6422.66, -3019.99, -13324.99, -41301.04, 19316.62, 27314.30, 31681.76, 0.00, 0.00, 0.00
3508.0, 34085.31, -6227.02, -2911.49, -13123.76, -41129.46, 20551.22, 27001.31, 31734.47, 0.00, 0.00, 0.00
3512.0, 34155.10, -6236.72, -2966.17, -13205.05, -41182.84, 21762.57, 26843.35, 31875.64, 0.00, 0.00, 0.00
3516.0, 34094.63, -6341.52, -3045.25, -13337.04, -41268.67, 23111.88, 27075.18, 32083.87, 0.00, 0.00, 0.00
3520.0, 34034.73, -6370.49, -3049.27, -13377.88, -41310.63, 24533.90, 27287.88, 32332.87, 0.00, 0.00, 0.00
3524.0, 34104.92, -6209.92, -2902.71, -13266.94, -41196.34, 25976.44, 27080.23, 32480.44, 0.00, 0.00, 0.00
3528.0, 34210.98, -6155.60, -2894.06, -13251.16, -41165.56, 27448.32, 26918.63, 32666.25, 0.00, 0.00, 0.00
3532.0, 34185.18, -6275.79, -3075.42, -13406.11, -41279.02, 28881.49, 27046.06, 32985.96, 0.00, 0.00, 0.00
3536.0, 34107.84, -6354.69, -3173.90, -13484.40, -41378.98, 30373.07, 27255.00, 33290.22, 0.00, 0.00, 0.00
3540.0, 34104.47, -6224.94, -2998.51, -13403.74, -41310.07, 31805.26, 27115.19, 33421.54, 0.00, 0.00, 0.00
3544.0, 34189.65, -6096.35, -2866.95, -13326.31, -41238.03, 33036.50, 26900.53, 33479.11, 0.00, 0.00, 0.00
3548.0, 34215.00, -6062.62, -2945.20, -13433.96, -41277.57, 34144.41, 26970.93, 33655.02, 0.00, 0.00, 0.00
3552.0, 34191.13, -6011.70, -3004.66, -13498.02, -41285.68, 35254.42, 27118.77, 33858.98, 0.00, 0.00, 0.00
3556.0, 34273.36, -5802.47, -2843.07, -13357.33, -41182.06, 36146.21, 26872.27, 33932.36, 0.00, 0.00, 0.00
3560.0, 34415.23, -5681.19, -2723.52, -13291.62, -41107.79, 36938.52, 26556.15, 34067.39, 0.00, 0.00, 0.00
3564.0, 34437.36, -5675.02, -2767.10, -13368.87, -41117.29, 37876.32, 26576.25, 34308.94, 0.00, 0.00, 0.00
3568.0, 34358.52, -5726.85, -2885.25, -13559.17, -41244.64, 38704.46, 26764.96, 34516.08, 0.00, 0.00, 0.00
3572.0, 34343.14, -5660.82, -2799.13, -13588.27, -41179.58, 39524.54, 26629.42, 34577.10, 0.00, 0.00, 0.00
3576.0, 34436.95, -5547.73, -2621.68, -13525.53, -41061.92, 40414.19, 26266.52, 34537.82, 0.00, 0.00, 0.00
3580.0, 34465.11, -5560.94, -2606.53, -13571.06, -41107.29, 41367.78, 26308.05, 34614.63, 0.00, 0.00, 0.00
3584.0, 34409.41, -5571.31, -2660.93, -13611.00, -41143.86, 42211.89, 26607.18, 34763.22, 0.00, 0.00, 0.00
3588.0, 34373.61, -5499.04, -2622.51, -13560.56, -41086.53, 42874.18, 26573.85, 34835.89, 0.00, 0.00, 0.00
3592.0, 34523.57, -5313.66, -2403.28, -13342.11, -40933.20, 43221.81, 26099.95, 34796.86, 0.00, 0.00, 0.00
3596.0, 34620.19, -5373.67, -2464.68, -13412.79, -41032.84, 44358.58, 25976.06, 34886.89, 0.00, 0.00, 0.00
3600.0, 34523.63, -5397.41, -2536.72, -13459.21, -41123.81, 45444.13, 26177.45, 35033.77, 0.00, 0.00, 0.00
3604.0, 34502.64, -5351.34, -2527.38, -13402.78, -41091.76, 46342.43, 26107.33, 35106.16, 0.00, 0.00, 0.00
3608.0, 34623.43, -5219.18, -2331.18, -13210.39, -40917.26, 47083.59, 25663.58, 35001.07, 0.00, 0.00, 0.00
3612.0, 34706.27, -5245.15, -2300.49, -13151.54, -40937.53, 47669.07, 25509.33, 34930.14, 0.00, 0.00, 0.00
3616.0, 34700.39, -5319.27, -2356.68, -13187.10, -41025.71, 48153.46, 25785.57, 34987.23, 0.00, 0.00, 0.00
3620.0, 34705.87, -5332.05, -2358.49, -13249.69, -41022.22, 48597.27, 25911.44, 35062.20, 0.00, 0.00, 0.00
3624.0, 34743.73, -5216.72, -2274.83, -13168.71, -40910.11, 49199.74, 25590.13, 35018.21, 0.00, 0.00, 0.00
3628.0, 34832.49, -5180.69, -2217.83, -13114.19, -40838.87, 50122.85, 25306.55, 35030.37, 0.00, 0.00, 0.00
3632.0, 34885.42, -5267.61, -2244.14, -13188.15, -40897.50, 51355.52, 25383.22, 35183.90, 0.00, 0.00, 0.00
3636.0, 34797.71, -5290.28, -2202.70, -13123.92, -40917.26, 52063.74, 25574.62, 35289.80, 0.00, 0.00, 0.00
3640.0, 34868.72, -5169.49, -2028.69, -12958.40, -40760.17, 52464.53, 25328.17, 35243.78, 0.00, 0.00, 0.00
3644.0, 34963.29, -5086.41, -1948.27, -12858.31, -40627.96, 52875.60, 24954.52, 35180.59, 0.00, 0.00, 0.00
3648.0, 34930.59, -5100.58, -2001.00, -12944.16, -40611.91, 53056.73, 24863.79, 35247.14, 0.00, 0.00, 0.00
3652.0, 34907.77, -5195.06, -2088.90, -13288.20, -40691.37, 53140.06, 24979.10, 35434.55, 0.00, 0.00, 0.00
3656.0, 34877.95, -5057.98, -1874.71, -13593.19, -40502.39, 53239.53, 24793.38, 35530.62, 0.00, 0.00, 0.00
3660.0, 34999.72, -4991.30, -1750.63, -13982.89, -40405.29, 53319.86, 24500.84, 35635.21, 0.00, 0.00, 0.00
3664.0, 35005.45, -5060.32, -1770.84, -14296.15, -40432.09, 53429.38, 24507.81, 35899.31, 0.00, 0.00, 0.00
3668.0, 34926.95, -5152.66, -1831.01, -14536.99, -40482.27, 53580.82, 24680.04, 36265.50, 0.00, 0.00, 0.00
3672.0, 34876.32, -5103.04, -1736.91, -14675.06, -40386.65, 53746.49, 24641.72, 36593.67, 0.00, 0.00, 0.00
3676.0, 34974.49, -5019.35, -1615.05, -14735.41, -40270.62, 53975.46, 24372.07, 36930.29, 0.00, 0.00, 0.00
3680.0, 35022.93, -5078.56, -1655.77, -14923.50, -40297.80, 54245.18, 24394.54, 37429.22, 0.00, 0.00, 0.00
3684.0, 34944.96, -5230.55, -1778.80, -15185.42, -40409.74, 54690.61, 24653.01, 38021.63, 0.00, 0.00, 0.00
3688.0, 34958.69, -5246.71, -1752.80, -15329.18, -40384.21, 55418.96, 24700.82, 38407.40, 0.00, 0.00, 0.00
3692.0, 35119.98, -5147.99, -1623.76, -15357.77, -40242.35, 55698.29, 24425.43, 38660.56, 0.00, 0.00, 0.00
3696.0, 35234.75, -5055.27, -1528.95, -15380.73, -40128.06, 55176.20, 24345.85, 38880.28, 0.00, 0.00, 0.00
3700.0, 35178.38, -5095.04, -1592.43, -15523.04, -40155.91, 54412.04, 24568.50, 39007.17, 0.00, 0.00, 0.00
3704.0, 35059.25, -5094.54, -1588.07, -15604.51, -40139.20, 54083.64, 24722.50, 39052.18, 0.00, 0.00, 0.00
3708.0, 35088.62, -4969.93, -1439.45, -15530.71, -39997.93, 54260.94, 24478.82, 39005.13, 0.00, 0.00, 0.00
3712.0, 35129.21, -4977.13, -1437.08, -15582.32, -39993.84, 54227.74, 24350.64, 38972.86, 0.00, 0.00, 0.00
3716.0, 35060.57, -5041.68, -1490.10, -15686.48, -40045.21, 53915.47, 24529.96, 38980.73, 0.00, 0.00, 0.00
3720.0, 35015.55, -5032.50, -1466.52, -15715.40, -40020.51, 53744.41, 24708.47, 38965.91, 0.00, 0.00, 0.00
3724.0, 35053.59, -4926.37, -1353.17, -15639.16, -39904.57, 53644.70, 24513.43, 38828.73, 0.00, 0.00, 0.00
3728.0, 35113.72, -4929.14, -1345.62, -15656.90, -39890.84, 53656.50, 24334.68, 38727.52, 0.00, 0.00, 0.00
3732.0, 35084.93, -5019.04, -1423.72, -15753.38, -39962.93, 53618.08, 24521.54, 38722.63, 0.00, 0.00, 0.00
3736.0, 35024.11, -5017.77, -1403.58, -15761.06, -39942.43, 53479.30, 24735.36, 38664.20, 0.00, 0.00, 0.00
3740.0, 35073.86, -4875.50, -1251.16, -15619.42, -39786.53, 53178.44, 24580.23, 38438.72, 0.00, 0.00, 0.00
3744.0, 35167.63, -4818.41, -1186.45, -15556.17, -39723.65, 52948.69, 24340.18, 38185.92, 0.00, 0.00, 0.00
3748.0, 35184.39, -4866.38, -1213.79, -15570.69, -39746.27, 52495.24, 24440.02, 38046.60, 0.00, 0.00, 0.00
3752.0, 35132.83, -4963.41, -1286.68, -15629.97, -39811.52, 52264.50, 24680.73, 37970.85, 0.00, 0.00, 0.00
3756.0, 35131.93, -4960.32, -1262.67, -15580.95, -39788.50, 52555.36, 24634.84, 37828.18, 0.00, 0.00, 0.00
3760.0, 35214.14, -4883.48, -1172.57, -15398.90, -39696.14, 52697.39, 24394.09, 37601.85, 0.00, 0.00, 0.00
3764.0, 35225.99, -5017.45, -1292.15, -15353.59, -39808.43, 52939.28, 24495.14, 37483.85, 0.00, 0.00, 0.00
3768.0, 35148.77, -5091.15, -1342.80, -15263.89, -39860.47, 53141.70, 24811.73, 37399.79, 0.00, 0.00, 0.00
3772.0, 35095.77, -5067.12, -1296.11, -15141.12, -39817.33, 53146.07, 24856.73, 37230.96, 0.00, 0.00, 0.00
3776.0, 35150.64, -4955.20, -1157.53, -14996.37, -39688.79, 53069.16, 24582.98, 36958.14, 0.00, 0.00, 0.00
3780.0, 35200.96, -4975.95, -1163.21, -15067.27, -39696.38, 52991.07, 24567.34, 36764.02, 0.00, 0.00, 0.00
3784.0, 35185.64, -5081.94, -1255.59, -15267.43, -39780.49, 52908.97, 24840.59, 36682.95, 0.00, 0.00, 0.00
3788.0, 35241.32, -5050.85, -1213.50, -15319.62, -39725.66, 52825.84, 24879.21, 36544.14, 0.00, 0.00, 0.00
3792.0, 35304.13, -4922.44, -1076.26, -15215.66, -39579.75, 52700.65, 24587.77, 36299.39, 0.00, 0.00, 0.00
3796.0, 35360.21, -4907.08, -1047.60, -15230.95, -39548.93, 52515.76, 24515.79, 36100.59, 0.00, 0.00, 0.00
3800.0, 35342.98, -5050.64, -1182.59, -15420.67, -39671.64, 52437.73, 24794.16, 36050.84, 0.00, 0.00, 0.00
3804.0, 35269.80, -5056.72, -1176.62, -15443.02, -39656.93, 52348.81, 24960.17, 35982.66, 0.00, 0.00, 0.00
3808.0, 35316.07, -4932.99, -1044.65, -15359.96, -39519.85, 52206.45, 24756.25, 35794.77, 0.00, 0.00, 0.00
3812.0, 35395.68, -4896.06, -1006.14, -15403.95, -39469.74, 52031.80, 24597.92, 35629.48, 0.00, 0.00, 0.00
3816.0, 35385.96, -5006.59, -1108.65, -15583.68, -39562.47, 52174.87, 24814.71, 35590.75, 0.00, 0.00, 0.00
3820.0, 35330.91, -5097.58, -1181.27, -15791.86, -39631.83, 52625.86, 25059.12, 35557.73, 0.00, 0.00, 0.00
3824.0, 35339.27, -5057.55, -1119.51, -15820.18, -39557.60, 53005.39, 24977.76, 35418.93, 0.00, 0.00, 0.00
3828.0, 35368.10, -5045.93, -1091.37, -15807.58, -39512.52, 53173.43, 24853.75, 35291.82, 0.00, 0.00, 0.00
3832.0, 35348.70, -5092.58, -1150.35, -15925.66, -39546.87, 52973.27, 25041.29, 35276.73, 0.00, 0.00, 0.00
3836.0, 35299.62, -5199.73, -1242.35, -15796.07, -39636.35, 52996.95, 25321.93, 35266.09, 0.00, 0.00, 0.00
3840.0, 35315.66, -5180.49, -1181.87, -15168.25, -39599.22, 53309.94, 25279.17, 35115.06, 0.00, 0.00, 0.00
3844.0, 35344.43, -5125.95, -1082.32, -14887.54, -39534.65, 53508.93, 25110.98, 34931.48, 0.00, 0.00, 0.00
3848.0, 35361.00, -5188.78, -1127.76, -15080.23, -39599.24, 53551.38, 25262.43, 34931.35, 0.00, 0.00, 0.00
3852.0, 35300.11, -5236.37, -1178.47, -15228.76, -39611.69, 53483.12, 25483.67, 34957.97, 0.00, 0.00, 0.00
3856.0, 35326.13, -5131.80, -1043.71, -15189.53, -39498.53, 53236.45, 25379.04, 34800.97, 0.00, 0.00, 0.00
3860.0, 35420.50, -5137.48, -1008.87, -15169.99, -39442.49, 53113.91, 25195.42, 34567.80, 0.00, 0.00, 0.00
3864.0, 35404.27, -5330.09, -1168.04, -15271.36, -39548.30, 53045.96, 25408.08, 34502.40, 0.00, 0.00, 0.00
3868.0, 35292.24, -5432.21, -1258.47, -15357.46, -39630.60, 53085.68, 25766.15, 34492.68, 0.00, 0.00, 0.00
3872.0, 35282.18, -5369.54, -1214.93, -15352.32, -39585.92, 53189.75, 25780.08, 34376.40, 0.00, 0.00, 0.00
3876.0, 35374.81, -5295.78, -1134.22, -15193.20, -39445.53, 53013.42, 25475.13, 34205.12, 0.00, 0.00, 0.00
3880.0, 35405.25, -5379.89, -1269.91, -15204.35, -39447.48, 52780.60, 25425.96, 34121.25, 0.00, 0.00, 0.00
3884.0, 35371.70, -5494.66, -1462.01, -15375.63, -39556.04, 52648.21, 25737.54, 34124.47, 0.00, 0.00, 0.00
3888.0, 35348.41, -5433.22, -1441.82, -15449.53, -39535.54, 52542.31, 25894.74, 34076.71, 0.00, 0.00, 0.00
3892.0, 35410.50, -5353.85, -1352.79, -15440.76, -39405.83, 52435.58, 25698.31, 33931.54, 0.00, 0.00, 0.00
3896.0, 35460.84, -5395.08, -1458.90, -15613.70, -39392.96, 52371.88, 25630.32, 33867.34, 0.00, 0.00, 0.00
3900.0, 35378.21, -5564.73, -1710.22, -15954.29, -39569.16, 52334.06, 25939.02, 33934.28, 0.00, 0.00, 0.00
3904.0, 35227.60, -5526.27, -1758.88, -16072.22, -39575.24, 52115.37, 26175.28, 33897.07, 0.00, 0.00, 0.00
3908.0, 35241.59, -5407.13, -1622.18, -16118.16, -39454.63, 51949.07, 25970.40, 33703.99, 0.00, 0.00, 0.00
3912.0, 35311.64, -5397.36, -1651.26, -16217.69, -39385.25, 51748.38, 25805.33, 33540.00, 0.00, 0.00, 0.00
3916.0, 35367.48, -5500.76, -1926.85, -16391.12, -39496.00, 51332.01, 26000.60, 33533.18, 0.00, 0.00, 0.00
3920.0, 35396.98, -5669.70, -2058.24, -16436.11, -39553.36, 50855.96, 26263.59, 33565.52, 0.00, 0.00, 0.00
3924.0, 35493.65, -5926.16, -1990.89, -16340.17, -39428.05, 50572.70, 26156.59, 33512.08, 0.00, 0.00, 0.00
3928.0, 35567.68, -6073.95, -2034.37, -16269.72, -39362.47, 50169.50, 25910.30, 33428.55, 0.00, 0.00, 0.00
3932.0, 35540.26, -6203.59, -2183.56, -16348.15, -39484.00, 49476.28, 26044.77, 33427.57, 0.00, 0.00, 0.00
3936.0, 35438.38, -6171.09, -2157.77, -16278.78, -39481.83, 48688.31, 26272.15, 33479.63, 0.00, 0.00, 0.00
3940.0, 35368.71, -6099.63, -2309.20, -16160.78, -39476.98, 48043.31, 26173.87, 33577.17, 0.00, 0.00, 0.00
3944.0, 35320.47, -6117.47, -2295.90, -15973.23, -39488.67, 47838.12, 25936.61, 33574.24, 0.00, 0.00, 0.00
3948.0, 35154.49, -6206.77, -2364.41, -16050.54, -39523.45, 47834.03, 26087.46, 33603.59, 0.00, 0.00, 0.00
3952.0, 34913.31, -6265.13, -2550.76, -16407.68, -39605.41, 47764.87, 26398.46, 33710.23, 0.00, 0.00, 0.00
3956.0, 34814.67, -6194.20, -2611.58, -16600.37, -39576.78, 47599.69, 26373.13, 33742.71, 0.00, 0.00, 0.00
3960.0, 34829.00, -6113.34, -2655.05, -16529.09, -39516.21, 47246.18, 26157.15, 33696.93, 0.00, 0.00, 0.00
3964.0, 34713.96, -6242.37, -2725.21, -16464.94, -39650.03, 47020.87, 26274.90, 33721.81, 0.00, 0.00, 0.00
3968.0, 34562.81, -6364.52, -2790.32, -16359.04, -39724.10, 46757.75, 26604.39, 33829.18, 0.00, 0.00, 0.00
3972.0, 34480.38, -6335.38, -2804.38, -16193.26, -39726.96, 46665.55, 26662.03, 33859.00, 0.00, 0.00, 0.00
3976.0, 34464.55, -6217.36, -2759.48, -15914.73, -39678.84, 46593.15, 26379.04, 33779.63, 0.00, 0.00, 0.00
3980.0, 34421.37, -6245.81, -2827.52, -15617.99, -39732.01, 46457.59, 26356.97, 33794.92, 0.00, 0.00, 0.00
3984.0, 34274.70, -6361.66, -2939.41, -15341.50, -39796.43, 46283.89, 26668.20, 33941.55, 0.00, 0.00, 0.00
3988.0, 34209.75, -6348.45, -2863.30, -15158.44, -39771.66, 46052.06, 26796.03, 34002.43, 0.00, 0.00, 0.00
3992.0, 34316.99, -6229.92, -2778.05, -15036.64, -39673.32, 46020.03, 26616.50, 33926.73, 0.00, 0.00, 0.00
3996.0, 34379.02, -6278.58, -2839.05, -15061.45, -39686.55, 46118.42, 26595.63, 33914.43, 0.00, 0.00, 0.00
4000.0, 34268.78, -6441.17, -2987.22, -15073.75, -39820.93, 46287.36, 26810.71, 33988.26, 0.00, 0.00, 0.00
4004.0, 34147.30, -6529.15, -3053.49, -14845.42, -39860.16, 46445.09, 26928.82, 34026.95, 0.00, 0.00, 0.00
4008.0, 34145.26, -6443.69, -3193.55, -14550.23, -39699.69, 46462.86, 26752.85, 33910.14, 0.00, 0.00, 0.00
4012.0, 34198.48, -6512.54, -3175.00, -14570.30, -39677.41, 46640.73, 26607.76, 33867.65, 0.00, 0.00, 0.00
4016.0, 34110.91, -6658.56, -3135.46, -14727.85, -39831.77, 47074.70, 26825.45, 34016.70, 0.00, 0.00, 0.00
4020.0, 33950.87, -6675.50, -3133.51, -14678.23, -39890.24, 47343.65, 26978.51, 34195.57, 0.00, 0.00, 0.00
4024.0, 33928.14, -6578.72, -2971.42, -14360.79, -39783.00, 47420.18, 26808.21, 34218.64, 0.00, 0.00, 0.00
4028.0, 34018.19, -6536.83, -2883.67, -14218.37, -39722.38, 47564.51, 26674.15, 34166.63, 0.00, 0.00, 0.00
4032.0, 33981.42, -6768.76, -2978.35, -14282.25, -39870.28, 47794.11, 26916.89, 34224.16, 0.00, 0.00, 0.00
4036.0, 33863.00, -6892.81, -3042.30, -14161.48, -39940.69, 47894.31, 27118.66, 34325.71, 0.00, 0.00, 0.00
4040.0, 33870.07, -6803.02, -2958.01, -14005.33, -39825.60, 47742.41, 26957.07, 34322.20, 0.00, 0.00, 0.00
4044.0, 33965.22, -6689.59, -2814.35, -13917.42, -39663.53, 47463.95, 26705.10, 34251.05, 0.00, 0.00, 0.00
4048.0, 34065.31, -6763.66, -2811.18, -14018.05, -39684.83, 47046.87, 26828.20, 34305.37, 0.00, 0.00, 0.00
4052.0, 34044.63, -6876.38, -2816.25, -14189.60, -39777.77, 46571.63, 27094.20, 34449.42, 0.00, 0.00, 0.00
4056.0, 34051.68, -6816.37, -2705.14, -14167.03, -39751.86, 46095.58, 26985.66, 34550.45, 0.00, 0.00, 0.00
4060.0, 34161.71, -6667.66, -2525.17, -14114.12, -39651.28, 45610.05, 26656.91, 34573.05, 0.00, 0.00, 0.00
4064.0, 34200.20, -6685.00, -2516.38, -14111.93, -39697.61, 45066.21, 26616.68, 34626.83, 0.00, 0.00, 0.00
4068.0, 34133.59, -6787.82, -2534.02, -14121.85, -39794.39, 44508.80, 26837.89, 34717.80, 0.00, 0.00, 0.00
4072.0, 34098.46, -6738.02, -2414.46, -14009.00, -39785.59, 44002.89, 26875.92, 34741.38, 0.00, 0.00, 0.00
4076.0, 34161.46, -6547.76, -2232.16, -13780.79, -39685.21, 43529.48, 26609.21, 34661.54, 0.00, 0.00, 0.00
4080.0, 34202.21, -6505.34, -2167.02, -13634.16, -39713.37, 43054.55, 26535.99, 34647.80, 0.00, 0.00, 0.00
4084.0, 34114.66, -6599.93, -2188.73, -13549.25, -39827.45, 42633.36, 26761.38, 34732.91, 0.00, 0.00, 0.00
4088.0, 34060.57, -6530.78, -2041.43, -13308.05, -39769.90, 42212.30, 26817.40, 34761.77, 0.00, 0.00, 0.00
4092.0, 34134.04, -6412.63, -1843.33, -13133.46, -39628.79, 41784.51, 26562.52, 34733.85, 0.00, 0.00, 0.00
4096.0, 34217.30, -6283.01, -2112.17, -13262.72, -39539.14, 41309.33, 26416.43, 34685.88, 0.00, 0.00, 0.00
4100.0, 34197.77, -6269.80, -2353.10, -13580.09, -39646.88, 40890.08, 26610.11, 34750.70, 0.00, 0.00, 0.00
4104.0, 34138.27, -6210.54, -2134.46, -13680.18, -39772.20, 40599.57, 26755.89, 34856.70, 0.00, 0.00, 0.00
4108.0, 34144.16, -6068.81, -1922.61, -13468.71, -39751.70, 40314.50, 26533.53, 34845.61, 0.00, 0.00, 0.00
4112.0, 34172.11, -5923.70, -1659.04, -13222.91, -39731.54, 40045.00, 26334.47, 34825.45, 0.00, 0.00, 0.00
4116.0, 34113.10, -5911.03, -1595.53, -13277.29, -39833.02, 39753.71, 26510.08, 34913.63, 0.00, 0.00, 0.00
4120.0, 34054.42, -5885.68, -1482.12, -13344.33, -39868.16, 39488.98, 26689.84, 35018.39, 0.00, 0.00, 0.00
4124.0, 34098.50, -5769.75, -1292.06, -13280.49, -39789.16, 39280.08, 26528.01, 34996.75, 0.00, 0.00, 0.00
4128.0, 34188.73, -5615.94, -1140.70, -13263.64, -39705.61, 39116.49, 26307.96, 34958.08, 0.00, 0.00, 0.00
4132.0, 34190.10, -5561.31, -1120.96, -13411.54, -39758.70, 38907.93, 26418.44, 35032.02, 0.00, 0.00, 0.00
4136.0, 34104.25, -5477.21, -1109.94, -13618.90, -39804.97, 38679.83, 26585.68, 35130.19, 0.00, 0.00, 0.00
4140.0, 34136.95, -5275.95, -1033.48, -13663.75, -39689.48, 38418.47, 26435.72, 35136.45, 0.00, 0.00, 0.00
4144.0, 34244.84, -5049.28, -1129.48, -13740.87, -39571.46, 38171.04, 26145.26, 35073.82, 0.00, 0.00, 0.00
4148.0, 34289.23, -5106.57, -1342.42, -13941.83, -39655.19, 37984.66, 26215.62, 35115.46, 0.00, 0.00, 0.00
4152.0, 34212.79, -5504.05, -1241.77, -14071.94, -39723.09, 37839.85, 26500.81, 35242.00, 0.00, 0.00, 0.00
4156.0, 34168.48, -5443.03, -1091.82, -14729.08, -39591.00, 37642.88, 26489.63, 35267.61, 0.00, 0.00, 0.00
4160.0, 34292.74, -5378.81, -912.20, -15398.94, -39488.47, 37536.87, 26245.06, 35228.32, 0.00, 0.00, 0.00
4164.0, 34354.70, -5543.81, -1109.36, -15726.62, -39542.52, 37474.00, 26274.03, 35287.57, 0.00, 0.00, 0.00
4168.0, 34336.73, -5637.49, -1464.78, -15999.36, -39649.42, 37424.84, 26501.88, 35440.14, 0.00, 0.00, 0.00
4172.0, 34319.38, -5575.80, -1598.91, -16232.91, -39605.52, 37350.86, 26505.95, 35484.33, 0.00, 0.00, 0.00
4176.0, 34445.98, -5511.85, -1432.21, -16575.94, -39527.92, 37265.30, 26233.75, 35440.81, 0.00, 0.00, 0.00
4180.0, 34546.09, -5647.59, -1352.10, -16978.43, -39602.66, 37221.60, 26180.51, 35481.67, 0.00, 0.00, 0.00
4184.0, 34448.75, -5861.12, -1267.66, -17043.74, -39762.81, 37210.07, 26454.76, 35639.61, 0.00, 0.00, 0.00
4188.0, 34283.98, -5883.22, -1022.68, -16978.43, -39724.93, 37170.28, 26569.09, 35714.84, 0.00, 0.00, 0.00
4192.0, 34224.57, -5807.01, -736.51, -16893.98, -39606.93, 37132.13, 26366.85, 35690.21, 0.00, 0.00, 0.00
4196.0, 34138.13, -5806.31, -582.73, -16812.45, -39592.36, 37056.42, 26290.72, 35704.52, 0.00, 0.00, 0.00
4200.0, 33917.34, -5892.08, -608.06, -16794.90, -39671.13, 36971.17, 26539.70, 35831.95, 0.00, 0.00, 0.00
4204.0, 33739.67, -5875.69, -541.67, -16636.31, -39639.23, 36890.12, 26722.69, 35940.87, 0.00, 0.00, 0.00
4208.0, 33698.07, -5800.28, -409.42, -16441.92, -39572.02, 36827.58, 26563.62, 35956.09, 0.00, 0.00, 0.00
4212.0, 33598.49, -5750.12, -310.04, -16275.96, -39571.88, 36862.47, 26408.90, 35982.86, 0.00, 0.00, 0.00
4216.0, 33306.78, -5738.81, -279.42, -16309.49, -39651.03, 36891.24, 26569.32, 36129.00, 0.00, 0.00, 0.00
4220.0, 33127.09, -5644.11, -186.03, -17138.02, -39641.02, 36760.77, 26731.68, 36249.48, 0.00, 0.00, 0.00
4224.0, 33192.61, -5486.39, -43.52, -17353.94, -39566.70, 36664.41, 26534.63, 36254.84, 0.00, 0.00, 0.00
4228.0, 33289.46, -5364.26, 53.33, -16880.15, -39501.30, 36575.07, 26218.55, 36232.55, 0.00, 0.00, 0.00
4232.0, 33261.79, -5440.10, -13.01, -16670.65, -39581.65, 36514.66, 26279.64, 36338.23, 0.00, 0.00, 0.00
4236.0, 33168.22, -5522.15, -19.47, -16492.59, -39655.84, 36544.95, 26512.59, 36488.51, 0.00, 0.00, 0.00
4240.0, 33191.07, -5467.39, 92.67, -16266.75, -39623.52, 36530.39, 26484.47, 36558.38, 0.00, 0.00, 0.00
4244.0, 33309.44, -5339.74, 288.14, -16014.73, -39522.71, 36505.34, 26284.22, 36550.51, 0.00, 0.00, 0.00
4248.0, 33339.70, -5363.88, 363.82, -16010.49, -39568.42, 36486.85, 26367.55, 36631.69, 0.00, 0.00, 0.00
4252.0, 33266.50, -5497.97, 362.63, -16033.00, -39690.35, 36464.48, 26606.85, 36783.80, 0.00, 0.00, 0.00
4256.0, 33262.81, -5482.41, 512.84, -15798.93, -39653.85, 36479.25, 26559.79, 36845.55, 0.00, 0.00, 0.00
4260.0, 33384.43, -5384.38, 708.66, -15528.43, -39539.07, 36441.19, 26286.34, 36808.20, 0.00, 0.00, 0.00
4264.0, 33418.23, -5479.64, 701.15, -15457.77, -39604.21, 36410.97, 26300.60, 36883.86, 0.00, 0.00, 0.00
4268.0, 33349.29, -5603.43, 697.44, -15394.03, -39677.74, 36384.66, 26532.10, 37036.46, 0.00, 0.00, 0.00
4272.0, 33326.96, -5650.39, 746.44, -15164.21, -39666.41, 36378.27, 26539.16, 37098.30, 0.00, 0.00, 0.00
4276.0, 33417.78, -5558.90, 945.50, -14769.99, -39508.63, 36357.44, 26271.75, 36985.36, 0.00, 0.00, 0.00
4280.0, 33474.55, -5614.13, 978.63, -14485.96, -39527.98, 36344.16, 26211.62, 36951.30, 0.00, 0.00, 0.00
4284.0, 33400.84, -5783.09, 877.28, -14353.08, -39684.70, 36380.21, 26440.48, 37074.61, 0.00, 0.00, 0.00
4288.0, 33343.35, -5839.77, 888.88, -14135.73, -39718.85, 36430.75, 26510.51, 37171.26, 0.00, 0.00, 0.00
4292.0, 33416.91, -5734.70, 1061.51, -13769.21, -39563.57, 36455.56, 26244.37, 37125.44, 0.00, 0.00, 0.00
4296.0, 33492.99, -5737.83, 1101.81, -13463.48, -39513.79, 36516.11, 26103.35, 37093.57, 0.00, 0.00, 0.00
4300.0, 33450.48, -5851.26, 1019.66, -13369.56, -39574.23, 36607.73, 26272.22, 37176.38, 0.00, 0.00, 0.00
4304.0, 33402.11, -5909.96, 1002.61, -13465.76, -39582.43, 36653.35, 26365.16, 37257.63, 0.00, 0.00, 0.00
4308.0, 33521.78, -5719.48, 1218.13, -14214.08, -39364.57, 36629.05, 26115.38, 37190.30, 0.00, 0.00, 0.00
4312.0, 33698.54, -5573.79, 1373.72, -15770.05, -39212.91, 36570.16, 25920.60, 37085.43, 0.00, 0.00, 0.00
4316.0, 33620.02, -5773.30, 1212.31, -16137.62, -39363.70, 36579.48, 26083.52, 37147.88, 0.00, 0.00, 0.00
4320.0, 33454.50, -5854.06, 1144.14, -16105.75, -39382.45, 36601.90, 26223.96, 37244.96, 0.00, 0.00, 0.00
4324.0, 33447.66, -5765.41, 1167.50, -15922.51, -39315.29, 36678.07, 26098.88, 37239.86, 0.00, 0.00, 0.00
4328.0, 33529.09, -5709.57, 1230.82, -15818.42, -39246.02, 36696.51, 25993.45, 37198.24, 0.00, 0.00, 0.00
4332.0, 33507.14, -5859.20, 1189.25, -16013.73, -39334.80, 36699.86, 26161.24, 37273.16, 0.00, 0.00, 0.00
4336.0, 33372.56, -6019.12, 1137.90, -16094.24, -39421.64, 36781.52, 26322.60, 37396.37, 0.00, 0.00, 0.00
4340.0, 33334.03, -6002.74, 1242.62, -15999.60, -39340.10, 36876.91, 26240.08, 37433.61, 0.00, 0.00, 0.00
4344.0, 33425.65, -5953.21, 1371.35, -15899.40, -39249.26, 36939.12, 26044.21, 37415.28, 0.00, 0.00, 0.00
4348.0, 33421.98, -6078.06, 1298.46, -16026.22, -39355.41, 36979.95, 26180.62, 37527.66, 0.00, 0.00, 0.00
4352.0, 33335.97, -6217.94, 1226.17, -16202.80, -39483.04, 37026.82, 26496.25, 37700.53, 0.00, 0.00, 0.00
4356.0, 33330.29, -6209.29, 1310.21, -16191.65, -39454.49, 37064.29, 26498.26, 37744.00, 0.00, 0.00, 0.00
4360.0, 33433.36, -6099.48, 1461.51, -16049.00, -39334.33, 37069.50, 26172.73, 37658.84, 0.00, 0.00, 0.00
4364.0, 33462.19, -6085.62, 1452.93, -16083.40, -39364.50, 37067.46, 26023.20, 37653.73, 0.00, 0.00, 0.00
4368.0, 33403.16, -6106.41, 1379.59, -16277.28, -39506.30, 37062.97, 26043.51, 37736.52, 0.00, 0.00, 0.00
4372.0, 33382.73, -6013.76, 1440.30, -16546.41, -39551.12, 37049.42, 25889.47, 37769.33, 0.00, 0.00, 0.00
4376.0, 33463.24, -5936.15, 1614.65, -16829.37, -39491.78, 37013.73, 25461.16, 37704.04, 0.00, 0.00, 0.00
4380.0, 33491.56, -6006.94, 1650.41, -17089.23, -39552.95, 36960.02, 25022.84, 37703.01, 0.00, 0.00, 0.00
4384.0, 33459.51, -6107.97, 1605.32, -17262.90, -39640.39, 36868.15, 24662.62, 37779.50, 0.00, 0.00, 0.00
4388.0, 33409.78, -6147.20, 1588.69, -17558.01, -39651.99, 36771.99, 24406.43, 37815.11, 0.00, 0.00, 0.00
4392.0, 33358.84, -6101.29, 1644.69, -17863.94, -39590.13, 36702.21, 24286.20, 37769.51, 0.00, 0.00, 0.00
4396.0, 33191.31, -6109.00, 1638.00, -18198.01, -39590.14, 36632.99, 24434.66, 37760.43, 0.00, 0.00, 0.00
4400.0, 32901.57, -6280.42, 1518.33, -18483.35, -39697.79, 36571.34, 24994.28, 37884.08, 0.00, 0.00, 0.00
4404.0, 32574.96, -6429.39, 1477.74, -18583.29, -39734.11, 36496.91, 25648.65, 37995.57, 0.00, 0.00, 0.00
4408.0, 32259.80, -6405.72, 1526.62, -18538.85, -39679.24, 36427.11, 25985.82, 38015.76, 0.00, 0.00, 0.00
4412.0, 31944.62, -6352.19, 1587.47, -18475.08, -39609.35, 36359.34, 26182.74, 38014.53, 0.00, 0.00, 0.00
4416.0, 31491.46, -6463.41, 1492.11, -18383.28, -39699.74, 36339.26, 26642.25, 38103.26, 0.00, 0.00, 0.00
4420.0, 31097.45, -6499.17, 1473.34, -18267.05, -39724.91, 36319.59, 26933.47, 38160.77, 0.00, 0.00, 0.00
4424.0, 30839.80, -6397.54, 1594.04, -17808.46, -39625.44, 36272.88, 26397.61, 38122.73, 0.00, 0.00, 0.00
4428.0, 30646.14, -6247.22, 1736.75, -17202.84, -39509.99, 36261.28, 25225.84, 38057.78, 0.00, 0.00, 0.00
4432.0, 30467.42, -6149.55, 1786.64, -17226.78, -39469.09, 36228.78, 23734.40, 38075.32, 0.00, 0.00, 0.00
4436.0, 30279.66, -6048.54, 1863.89, -17421.44, -39440.37, 36157.77, 22003.12, 38104.49, 0.00, 0.00, 0.00
4440.0, 30213.34, -5903.30, 1996.26, -17255.21, -39394.70, 36162.62, 20177.84, 38061.93, 0.00, 0.00, 0.00
4444.0, 30349.33, -5858.91, 2071.34, -16967.37, -39357.33, 36218.68, 18519.18, 37976.66, 0.00, 0.00, 0.00
4448.0, 30382.41, -5901.24, 2064.03, -17457.61, -39396.45, 36284.08, 17822.41, 38003.22, 0.00, 0.00, 0.00
4452.0, 30241.15, -5936.73, 2065.99, -18912.86, -39421.46, 36311.66, 17993.33, 38088.96, 0.00, 0.00, 0.00
4456.0, 30169.69, -5845.63, 2188.33, -21108.63, -39327.60, 36369.48, 18224.27, 38093.32, 0.00, 0.00, 0.00
4460.0, 30058.04, -5771.60, 2299.79, -22590.44, -39248.99, 36585.80, 17919.19, 38000.67, 0.00, 0.00, 0.00
4464.0, 29867.16, -5825.69, 2286.25, -23684.15, -39293.29, 36952.64, 17444.13, 37949.95, 0.00, 0.00, 0.00
4468.0, 29679.09, -5925.42, 2217.25, -25450.28, -39380.33, 37260.65, 17193.63, 38007.91, 0.00, 0.00, 0.00
4472.0, 29571.58, -5921.22, 2244.81, -27196.30, -39364.91, 37543.55, 16929.05, 38034.42, 0.00, 0.00, 0.00
4476.0, 29557.37, -5893.24, 2285.20, -27936.93, -39331.20, 37841.34, 16431.37, 37976.84, 0.00, 0.00, 0.00
4480.0, 29500.70, -5983.92, 2214.70, -28210.11, -39430.38, 38203.91, 16292.66, 37979.90, 0.00, 0.00, 0.00
4484.0, 29301.95, -6206.41, 2020.98, -28075.27, -39668.29, 38684.25, 16622.95, 38107.64, 0.00, 0.00, 0.00
4488.0, 29122.11, -6483.03, 1753.92, -26219.78, -39948.38, 39330.71, 16752.34, 38260.02, 0.00, 0.00, 0.00
4492.0, 29227.39, -6679.80, 1576.38, -23054.26, -40131.08, 40060.88, 16430.68, 38328.90, 0.00, 0.00, 0.00
4496.0, 29222.42, -6855.53, 1427.83, -19613.68, -40284.04, 40764.86, 16159.55, 38390.26, 0.00, 0.00, 0.00
4500.0, 29057.51, -7068.76, 1237.19, -16773.73, -40470.87, 41338.75, 16275.76, 38545.92, 0.00, 0.00, 0.00
4504.0, 28925.84, -7159.35, 1179.70, -14386.21, -40550.67, 41744.70, 16396.19, 38670.19, 0.00, 0.00, 0.00
