%OpenBCI Raw EEG Data
%
%Sample Rate = 250.0 Hz
%First Column = SampleIndex
%Other Columns = EEG data in microvolts followed by Accel Data (in G) interleaved with Aux Data
0, 0.00, 0.00, 0.00, 0.00, 0.00, 0.00, 0.00, 0.00, -10358.49, 35254.40, -2753.76, -8568.05, 0.00, 0.00, 0.00, 0.00, 0.09, 0.35, 0.95
1, 2544.10, 61034.14, 3068.25, 27991.42, -18666.75, -2232.00, 10336.18, -49607.30, -10358.49, 35254.40, -2753.76, -8568.05, 0.00, 0.00, 0.00, 0.00, 0.00, 0.00, 0.00
2, 2544.10, 61034.14, 3068.25, 27991.42, -18666.75, -2232.00, 10336.18, -49607.30, -10321.86, 35254.82, -2300.11, -8628.91, 0.00, 0.00, 0.00, 0.00, 0.00, 0.00, 0.00
3, 2516.16, 60999.50, 3044.49, 27960.56, -18688.40, -2255.98, 10304.51, -49636.65, -10321.86, 35254.82, -2300.11, -8628.91, 0.00, 0.00, 0.00, 0.00, 0.00, 0.00, 0.00
4, 2516.16, 60999.50, 3044.49, 27960.56, -18688.40, -2255.98, 10304.51, -49636.65, -10328.27, 35236.43, -2317.14, -8612.60, 0.00, 0.00, 0.00, 0.00, 0.00, 0.00, 0.00
5, 2531.65, 61016.17, 3057.36, 27983.36, -18673.81, -2236.56, 10327.27, -49617.94, -10328.27, 35236.43, -2317.14, -8612.60, 0.00, 0.00, 0.00, 0.00, 0.00, 0.00, 0.00
6, 2531.65, 61016.17, 3057.36, 27983.36, -18673.81, -2236.56, 10327.27, -49617.94, -10321.39, 35255.74, -2298.77, -8629.29, 0.00, 0.00, 0.00, 0.00, 0.10, 0.34, 0.95
7, 2510.70, 60998.82, 3041.65, 27959.51, -18687.60, -2255.27, 10304.00, -49638.33, -10321.39, 35255.74, -2298.77, -8629.29, 0.00, 0.00, 0.00, 0.00, 0.00, 0.00, 0.00
8, 2510.70, 60998.82, 3041.65, 27959.51, -18687.60, -2255.27, 10304.00, -49638.33, -10324.07, 35236.07, -2316.31, -8600.86, 0.00, 0.00, 0.00, 0.00, 0.00, 0.00, 0.00
9, 2538.09, 61025.58, 3060.53, 27980.85, -18671.64, -2237.43, 10327.40, -49616.89, -10324.07, 35236.07, -2316.31, -8600.86, 0.00, 0.00, 0.00, 0.00, 0.00, 0.00, 0.00
10, 2538.09, 61025.58, 3060.53, 27980.85, -18671.64, -2237.43, 10327.40, -49616.89, -10321.39, 35257.55, -2290.09, -8637.12, 0.00, 0.00, 0.00, 0.00, 0.00, 0.00, 0.00
11, 2518.26, 61005.48, 3047.77, 27960.71, -18685.99, -2257.70, 10306.30, -49635.73, -10321.39, 35257.55, -2290.09, -8637.12, 0.00, 0.00, 0.00, 0.00, 0.00, 0.00, 0.00
12, 2518.26, 61005.48, 3047.77, 27960.71, -18685.99, -2257.70, 10306.30, -49635.73, -10329.08, 35231.18, -2318.79, -8596.41, 0.00, 0.00, 0.00, 0.00, 0.00, 0.00, 0.00
13, 2535.07, 61020.55, 3058.37, 27976.83, -18676.25, -2241.52, 10321.61, -49620.98, -10329.08, 35231.18, -2318.79, -8596.41, 0.00, 0.00, 0.00, 0.00, 0.00, 0.00, 0.00
14, 2535.07, 61020.55, 3058.37, 27976.83, -18676.25, -2241.52, 10321.61, -49620.98, -10322.64, 35262.45, -2282.81, -8641.18, 0.00, 0.00, 0.00, 0.00, 0.00, 0.00, 0.00
15, 2532.47, 61020.46, 3056.15, 27968.85, -18677.94, -2250.51, 10309.34, -49629.90, -10322.64, 35262.45, -2282.81, -8641.18, 0.00, 0.00, 0.00, 0.00, 0.00, 0.00, 0.00
16, 2532.47, 61020.46, 3056.15, 27968.85, -18677.94, -2250.51, 10309.34, -49629.90, -10330.98, 35230.26, -2316.87, -8592.43, 0.00, 0.00, 0.00, 0.00, 0.10, 0.34, 0.95
17, 2539.69, 61026.59, 3061.92, 27976.96, -18674.32, -2243.62, 10318.91, -49621.96, -10330.98, 35230.26, -2316.87, -8592.43, 0.00, 0.00, 0.00, 0.00, 0.00, 0.00, 0.00
18, 2539.69, 61026.59, 3061.92, 27976.96, -18674.32, -2243.62, 10318.91, -49621.96, -10327.04, 35259.92, -2286.11, -8645.48, 0.00, 0.00, 0.00, 0.00, 0.00, 0.00, 0.00
19, 2535.20, 61028.78, 3058.28, 27969.29, -18677.70, -2249.90, 10312.98, -49625.81, -10327.04, 35259.92, -2286.11, -8645.48, 0.00, 0.00, 0.00, 0.00, 0.00, 0.00, 0.00
20, 2535.20, 61028.78, 3058.28, 27969.29, -18677.70, -2249.90, 10312.98, -49625.81, -10325.52, 35236.74, -2312.35, -8583.29, 0.00, 0.00, 0.00, 0.00, 0.00, 0.00, 0.00
21, 2538.38, 61031.28, 3063.62, 27978.84, -18670.52, -2243.80, 10320.76, -49617.61, -10325.52, 35236.74, -2312.35, -8583.29, 0.00, 0.00, 0.00, 0.00, 0.00, 0.00, 0.00
22, 2538.38, 61031.28, 3063.62, 27978.84, -18670.52, -2243.80, 10320.76, -49617.61, -10315.11, 35273.22, -2275.88, -8636.65, 0.00, 0.00, 0.00, 0.00, 0.00, 0.00, 0.00
23, 2532.88, 61018.29, 3057.43, 27974.41, -18672.56, -2247.74, 10322.86, -49616.85, -10315.11, 35273.22, -2275.88, -8636.65, 0.00, 0.00, 0.00, 0.00, 0.00, 0.00, 0.00
24, 2532.88, 61018.29, 3057.43, 27974.41, -18672.56, -2247.74, 10322.86, -49616.85, -10332.58, 35228.76, -2324.36, -8583.09, 0.00, 0.00, 0.00, 0.00, 0.00, 0.00, 0.00
25, 2521.30, 61009.33, 3048.71, 27966.79, -18686.91, -2251.96, 10312.74, -49629.95, -10332.58, 35228.76, -2324.36, -8583.09, 0.00, 0.00, 0.00, 0.00, 0.00, 0.00, 0.00
26, 2521.30, 61009.33, 3048.71, 27966.79, -18686.91, -2251.96, 10312.74, -49629.95, -10318.77, 35263.77, -2283.92, -8642.35, 0.00, 0.00, 0.00, 0.00, 0.10, 0.34, 0.95
27, 2542.22, 61025.65, 3067.04, 27984.65, -18668.76, -2240.61, 10325.59, -49617.90, -10318.77, 35263.77, -2283.92, -8642.35, 0.00, 0.00, 0.00, 0.00, 0.00, 0.00, 0.00
28, 2542.22, 61025.65, 3067.04, 27984.65, -18668.76, -2240.61, 10325.59, -49617.90, -10328.38, 35229.48, -2314.61, -8584.21, 0.00, 0.00, 0.00, 0.00, 0.00, 0.00, 0.00
29, 2540.16, 61023.10, 3060.27, 27974.46, -18674.79, -2247.31, 10318.75, -49624.78, -10328.38, 35229.48, -2314.61, -8584.21, 0.00, 0.00, 0.00, 0.00, 0.00, 0.00, 0.00
30, 2540.16, 61023.10, 3060.27, 27974.46, -18674.79, -2247.31, 10318.75, -49624.78, -10317.01, 35264.73, -2279.92, -8637.47, 0.00, 0.00, 0.00, 0.00, 0.00, 0.00, 0.00
31, 2554.60, 61041.88, 3078.66, 27993.84, -18661.27, -2231.69, 10337.50, -49608.91, -10317.01, 35264.73, -2279.92, -8637.47, 0.00, 0.00, 0.00, 0.00, 0.00, 0.00, 0.00
32, 2554.60, 61041.88, 3078.66, 27993.84, -18661.27, -2231.69, 10337.50, -49608.91, -10320.92, 35240.21, -2304.24, -8583.25, 0.00, 0.00, 0.00, 0.00, 0.00, 0.00, 0.00
33, 2542.40, 61032.24, 3065.68, 27975.26, -18674.26, -2251.29, 10321.48, -49622.10, -10320.92, 35240.21, -2304.24, -8583.25, 0.00, 0.00, 0.00, 0.00, 0.00, 0.00, 0.00
34, 2542.40, 61032.24, 3065.68, 27975.26, -18674.26, -2251.29, 10321.48, -49622.10, -10314.88, 35260.90, -2275.43, -8633.79, 0.00, 0.00, 0.00, 0.00, 0.00, 0.00, 0.00
35, 2549.08, 61037.96, 3075.35, 27989.55, -18666.59, -2236.05, 10334.02, -49612.51, -10314.88, 35260.90, -2275.43, -8633.79, 0.00, 0.00, 0.00, 0.00, 0.00, 0.00, 0.00
36, 2549.08, 61037.96, 3075.35, 27989.55, -18666.59, -2236.05, 10334.02, -49612.51, -10329.21, 35232.25, -2303.24, -8594.07, 0.00, 0.00, 0.00, 0.00, 0.10, 0.35, 0.95
37, 2531.76, 61013.69, 3058.37, 27968.83, -18681.56, -2253.15, 10315.91, -49631.15, -10329.21, 35232.25, -2303.24, -8594.07, 0.00, 0.00, 0.00, 0.00, 0.00, 0.00, 0.00
38, 2531.76, 61013.69, 3058.37, 27968.83, -18681.56, -2253.15, 10315.91, -49631.15, -10325.83, 35246.20, -2290.00, -8637.67, 0.00, 0.00, 0.00, 0.00, 0.00, 0.00, 0.00
39, 2546.82, 61028.78, 3069.52, 27989.43, -18669.88, -2238.33, 10335.27, -49614.05, -10325.83, 35246.20, -2290.00, -8637.67, 0.00, 0.00, 0.00, 0.00, 0.00, 0.00, 0.00
40, 2546.82, 61028.78, 3069.52, 27989.43, -18669.88, -2238.33, 10335.27, -49614.05, -10328.09, 35237.30, -2308.71, -8601.76, 0.00, 0.00, 0.00, 0.00, 0.00, 0.00, 0.00
41, 2527.00, 61006.63, 3052.87, 27963.89, -18688.63, -2256.83, 10312.25, -49633.95, -10328.09, 35237.30, -2308.71, -8601.76, 0.00, 0.00, 0.00, 0.00, 0.00, 0.00, 0.00
42, 2527.00, 61006.63, 3052.87, 27963.89, -18688.63, -2256.83, 10312.25, -49633.95, -10324.65, 35241.37, -2300.67, -8631.15, 0.00, 0.00, 0.00, 0.00, 0.00, 0.00, 0.00
43, 2544.79, 61030.39, 3070.79, 27989.03, -18669.38, -2235.13, 10341.39, -49611.17, -10324.65, 35241.37, -2300.67, -8631.15, 0.00, 0.00, 0.00, 0.00, 0.00, 0.00, 0.00
44, 2544.79, 61030.39, 3070.79, 27989.03, -18669.38, -2235.13, 10341.39, -49611.17, -10329.57, 35234.73, -2305.00, -8615.05, 0.00, 0.00, 0.00, 0.00, 0.00, 0.00, 0.00
45, 2529.01, 61015.81, 3053.74, 27965.59, -18688.94, -2255.92, 10314.84, -49635.13, -10329.57, 35234.73, -2305.00, -8615.05, 0.00, 0.00, 0.00, 0.00, 0.00, 0.00, 0.00
46, 2529.01, 61015.81, 3053.74, 27965.59, -18688.94, -2255.92, 10314.84, -49635.13, -10327.06, 35234.48, -2302.68, -8620.98, 0.00, 0.00, 0.00, 0.00, 0.09, 0.35, 0.95
47, 2547.70, 61041.76, 3076.34, 27989.43, -18665.05, -2235.69, 10346.53, -49606.84, -10327.06, 35234.48, -2302.68, -8620.98, 0.00, 0.00, 0.00, 0.00, 0.00, 0.00, 0.00
48, 2547.70, 61041.76, 3076.34, 27989.43, -18665.05, -2235.69, 10346.53, -49606.84, -10321.01, 35246.89, -2292.39, -8620.15, 0.00, 0.00, 0.00, 0.00, 0.00, 0.00, 0.00
49, 2532.27, 61020.80, 3061.63, 27969.45, -18684.89, -2253.08, 10320.40, -49627.73, -10321.01, 35246.89, -2292.39, -8620.15, 0.00, 0.00, 0.00, 0.00, 0.00, 0.00, 0.00
50, 2532.27, 61020.80, 3061.63, 27969.45, -18684.89, -2253.08, 10320.40, -49627.73, -10326.06, 35232.25, -2303.01, -8614.76, 0.00, 0.00, 0.00, 0.00, 0.00, 0.00, 0.00
51, 2544.77, 61029.54, 3071.98, 27988.00, -18671.35, -2238.28, 10344.81, -49606.36, -10326.06, 35232.25, -2303.01, -8614.76, 0.00, 0.00, 0.00, 0.00, 0.00, 0.00, 0.00
52, 2544.77, 61029.54, 3071.98, 27988.00, -18671.35, -2238.28, 10344.81, -49606.36, -10324.72, 35249.08, -2291.88, -8627.26, 0.00, 0.00, 0.00, 0.00, 0.00, 0.00, 0.00
53, 2530.55, 61010.47, 3053.81, 27968.89, -18684.47, -2251.96, 10325.75, -49625.97, -10324.72, 35249.08, -2291.88, -8627.26, 0.00, 0.00, 0.00, 0.00, 0.00, 0.00, 0.00
54, 2530.55, 61010.47, 3053.81, 27968.89, -18684.47, -2251.96, 10325.75, -49625.97, -10332.29, 35229.86, -2325.05, -8597.15, 0.00, 0.00, 0.00, 0.00, 0.00, 0.00, 0.00
55, 2542.62, 61032.04, 3066.99, 27988.25, -18675.22, -2234.44, 10346.98, -49603.53, -10332.29, 35229.86, -2325.05, -8597.15, 0.00, 0.00, 0.00, 0.00, 0.09, 0.35, 0.95
56, 2542.62, 61032.04, 3066.99, 27988.25, -18675.22, -2234.44, 10346.98, -49603.53, -10321.77, 35263.32, -2287.92, -8629.52, 0.00, 0.00, 0.00, 0.00, 0.00, 0.00, 0.00
57, 2530.53, 61010.71, 3056.60, 27970.41, -18681.45, -2249.52, 10330.01, -49616.80, -10321.77, 35263.32, -2287.92, -8629.52, 0.00, 0.00, 0.00, 0.00, 0.00, 0.00, 0.00
58, 2530.53, 61010.71, 3056.60, 27970.41, -18681.45, -2249.52, 10330.01, -49616.80, -10325.52, 35229.90, -2319.53, -8586.02, 0.00, 0.00, 0.00, 0.00, 0.00, 0.00, 0.00
59, 2543.56, 61027.59, 3068.00, 27989.50, -18668.40, -2233.05, 10355.05, -49596.15, -10325.52, 35229.90, -2319.53, -8586.02, 0.00, 0.00, 0.00, 0.00, 0.00, 0.00, 0.00
60, 2543.56, 61027.59, 3068.00, 27989.50, -18668.40, -2233.05, 10355.05, -49596.15, -10317.77, 35272.75, -2283.52, -8625.05, 0.00, 0.00, 0.00, 0.00, 0.00, 0.00, 0.00
61, 2536.88, 61017.13, 3059.57, 27976.67, -18675.24, -2242.68, 10341.75, -49607.21, -10317.77, 35272.75, -2283.52, -8625.05, 0.00, 0.00, 0.00, 0.00, 0.00, 0.00, 0.00
62, 2536.88, 61017.13, 3059.57, 27976.67, -18675.24, -2242.68, 10341.75, -49607.21, -10330.35, 35227.98, -2322.30, -8575.18, 0.00, 0.00, 0.00, 0.00, 0.00, 0.00, 0.00
63, 2540.43, 61025.22, 3063.28, 27983.85, -18677.68, -2238.48, 10346.96, -49604.02, -10330.35, 35227.98, -2322.30, -8575.18, 0.00, 0.00, 0.00, 0.00, 0.00, 0.00, 0.00
64, 2540.43, 61025.22, 3063.28, 27983.85, -18677.68, -2238.48, 10346.96, -49604.02, -10326.95, 35265.35, -2286.85, -8642.57, 0.00, 0.00, 0.00, 0.00, 0.00, 0.00, 0.00
65, 2542.22, 61031.44, 3068.65, 27981.23, -18669.21, -2242.60, 10345.62, -49604.02, -10326.95, 35265.35, -2286.85, -8642.57, 0.00, 0.00, 0.00, 0.00, 0.10, 0.34, 0.95
66, 2542.22, 61031.44, 3068.65, 27981.23, -18669.21, -2242.60, 10345.62, -49604.02, -10322.39, 35232.38, -2313.56, -8567.80, 0.00, 0.00, 0.00, 0.00, 0.00, 0.00, 0.00
67, 2541.62, 61035.77, 3071.38, 27987.85, -18668.82, -2237.74, 10351.54, -49597.78, -10322.39, 35232.38, -2313.56, -8567.80, 0.00, 0.00, 0.00, 0.00, 0.00, 0.00, 0.00
68, 2541.62, 61035.77, 3071.38, 27987.85, -18668.82, -2237.74, 10351.54, -49597.78, -10325.63, 35265.02, -2283.14, -8641.88, 0.00, 0.00, 0.00, 0.00, 0.00, 0.00, 0.00
69, 2542.02, 61028.60, 3066.91, 27984.54, -18674.17, -2237.88, 10346.35, -49601.74, -10325.63, 35265.02, -2283.14, -8641.88, 0.00, 0.00, 0.00, 0.00, 0.00, 0.00, 0.00
70, 2542.02, 61028.60, 3066.91, 27984.54, -18674.17, -2237.88, 10346.35, -49601.74, -10334.02, 35224.63, -2323.40, -8566.75, 0.00, 0.00, 0.00, 0.00, 0.00, 0.00, 0.00
71, 2534.42, 61018.00, 3059.95, 27980.56, -18677.23, -2241.81, 10346.09, -49604.75, -10334.02, 35224.63, -2323.40, -8566.75, 0.00, 0.00, 0.00, 0.00, 0.00, 0.00, 0.00
72, 2534.42, 61018.00, 3059.95, 27980.56, -18677.23, -2241.81, 10346.09, -49604.75, -10331.33, 35262.65, -2293.89, -8643.73, 0.00, 0.00, 0.00, 0.00, 0.00, 0.00, 0.00
73, 2540.66, 61020.26, 3062.90, 27984.09, -18674.97, -2240.78, 10349.08, -49600.48, -10331.33, 35262.65, -2293.89, -8643.73, 0.00, 0.00, 0.00, 0.00, 0.00, 0.00, 0.00
74, 2540.66, 61020.26, 3062.90, 27984.09, -18674.97, -2240.78, 10349.08, -49600.48, -10332.43, 35227.38, -2324.42, -8567.62, 0.00, 0.00, 0.00, 0.00, 0.00, 0.00, 0.00
75, 2534.02, 61025.67, 3061.79, 27981.39, -18675.40, -2241.50, 10347.25, -49602.36, -10332.43, 35227.38, -2324.42, -8567.62, 0.00, 0.00, 0.00, 0.00, 0.10, 0.35, 0.95
76, 2534.02, 61025.67, 3061.79, 27981.39, -18675.40, -2241.50, 10347.25, -49602.36, -10320.22, 35270.63, -2291.37, -8633.72, 0.00, 0.00, 0.00, 0.00, 0.00, 0.00, 0.00
77, 2542.40, 61031.57, 3069.81, 27994.42, -18666.84, -2233.03, 10358.96, -49589.94, -10320.22, 35270.63, -2291.37, -8633.72, 0.00, 0.00, 0.00, 0.00, 0.00, 0.00, 0.00
78, 2542.40, 61031.57, 3069.81, 27994.42, -18666.84, -2233.03, 10358.96, -49589.94, -10334.15, 35230.75, -2323.67, -8561.75, 0.00, 0.00, 0.00, 0.00, 0.00, 0.00, 0.00
79, 2530.75, 61006.58, 3052.44, 27975.91, -18683.06, -2248.34, 10342.96, -49610.01, -10334.15, 35230.75, -2323.67, -8561.75, 0.00, 0.00, 0.00, 0.00, 0.00, 0.00, 0.00
80, 2530.75, 61006.58, 3052.44, 27975.91, -18683.06, -2248.34, 10342.96, -49610.01, -10333.28, 35260.84, -2309.47, -8632.80, 0.00, 0.00, 0.00, 0.00, 0.00, 0.00, 0.00
81, 2544.88, 61030.63, 3067.37, 27996.74, -18668.69, -2230.75, 10359.43, -49592.55, -10333.28, 35260.84, -2309.47, -8632.80, 0.00, 0.00, 0.00, 0.00, 0.00, 0.00, 0.00
82, 2544.88, 61030.63, 3067.37, 27996.74, -18668.69, -2230.75, 10359.43, -49592.55, -10334.66, 35232.32, -2327.80, -8572.68, 0.00, 0.00, 0.00, 0.00, 0.00, 0.00, 0.00
83, 2526.33, 61010.87, 3054.54, 27977.16, -18682.93, -2249.17, 10339.80, -49609.52, -10334.66, 35232.32, -2327.80, -8572.68, 0.00, 0.00, 0.00, 0.00, 0.00, 0.00, 0.00
84, 2526.33, 61010.87, 3054.54, 27977.16, -18682.93, -2249.17, 10339.80, -49609.52, -10327.04, 35258.45, -2306.99, -8626.95, 0.00, 0.00, 0.00, 0.00, 0.00, 0.00, 0.00
85, 2546.38, 61034.01, 3070.66, 27998.22, -18663.17, -2229.56, 10367.57, -49585.82, -10327.04, 35258.45, -2306.99, -8626.95, 0.00, 0.00, 0.00, 0.00, 0.09, 0.35, 0.96
86, 2546.38, 61034.01, 3070.66, 27998.22, -18663.17, -2229.56, 10367.57, -49585.82, -10332.16, 35242.20, -2320.20, -8569.39, 0.00, 0.00, 0.00, 0.00, 0.00, 0.00, 0.00
87, 2532.21, 61016.37, 3052.87, 27976.43, -18682.75, -2245.14, 10344.52, -49607.13, -10332.16, 35242.20, -2320.20, -8569.39, 0.00, 0.00, 0.00, 0.00, 0.00, 0.00, 0.00
88, 2532.21, 61016.37, 3052.87, 27976.43, -18682.75, -2245.14, 10344.52, -49607.13, -10330.98, 35261.13, -2309.52, -8610.85, 0.00, 0.00, 0.00, 0.00, 0.00, 0.00, 0.00
89, 2541.46, 61037.72, 3072.47, 28002.31, -18663.64, -2225.43, 10371.23, -49581.11, -10330.98, 35261.13, -2309.52, -8610.85, 0.00, 0.00, 0.00, 0.00, 0.00, 0.00, 0.00
90, 2541.46, 61037.72, 3072.47, 28002.31, -18663.64, -2225.43, 10371.23, -49581.11, -10331.92, 35252.68, -2317.74, -8579.90, 0.00, 0.00, 0.00, 0.00, 0.00, 0.00, 0.00
91, 2524.27, 61012.79, 3051.48, 27975.33, -18681.70, -2247.91, 10344.39, -49603.46, -10331.92, 35252.68, -2317.74, -8579.90, 0.00, 0.00, 0.00, 0.00, 0.00, 0.00, 0.00
92, 2524.27, 61012.79, 3051.48, 27975.33, -18681.70, -2247.91, 10344.39, -49603.46, -10330.37, 35253.75, -2317.16, -8604.37, 0.00, 0.00, 0.00, 0.00, 0.00, 0.00, 0.00
93, 2542.76, 61038.39, 3072.60, 28003.09, -18663.57, -2227.08, 10373.58, -49579.81, -10330.37, 35253.75, -2317.16, -8604.37, 0.00, 0.00, 0.00, 0.00, 0.00, 0.00, 0.00
94, 2542.76, 61038.39, 3072.60, 28003.09, -18663.57, -2227.08, 10373.58, -49579.81, -10328.07, 35256.88, -2310.79, -8589.28, 0.00, 0.00, 0.00, 0.00, 0.09, 0.35, 0.96
95, 2531.96, 61012.75, 3053.47, 27983.67, -18676.60, -2240.83, 10350.29, -49599.79, -10328.07, 35256.88, -2310.79, -8589.28, 0.00, 0.00, 0.00, 0.00, 0.00, 0.00, 0.00
96, 2531.96, 61012.75, 3053.47, 27983.67, -18676.60, -2240.83, 10350.29, -49599.79, -10329.05, 35249.41, -2327.24, -8583.81, 0.00, 0.00, 0.00, 0.00, 0.00, 0.00, 0.00
97, 2542.24, 61033.87, 3068.74, 28005.91, -18666.57, -2222.43, 10374.12, -49580.55, -10329.05, 35249.41, -2327.24, -8583.81, 0.00, 0.00, 0.00, 0.00, 0.00, 0.00, 0.00
98, 2542.24, 61033.87, 3068.74, 28005.91, -18666.57, -2222.43, 10374.12, -49580.55, -10332.32, 35259.43, -2314.14, -8603.32, 0.00, 0.00, 0.00, 0.00, 0.00, 0.00, 0.00
99, 2520.99, 61004.91, 3048.00, 27977.19, -18681.65, -2248.34, 10345.68, -49606.01, -10332.32, 35259.43, -2314.14, -8603.32, 0.00, 0.00, 0.00, 0.00, 0.00, 0.00, 0.00
100, 2520.99, 61004.91, 3048.00, 27977.19, -18681.65, -2248.34, 10345.68, -49606.01, -10333.59, 35241.39, -2336.09, -8584.88, 0.00, 0.00, 0.00, 0.00, 0.00, 0.00, 0.00
101, 2541.95, 61030.30, 3065.83, 28000.07, -18667.71, -2227.04, 10374.54, -49579.50, -10333.59, 35241.39, -2336.09, -8584.88, 0.00, 0.00, 0.00, 0.00, 0.00, 0.00, 0.00
102, 2541.95, 61030.30, 3065.83, 28000.07, -18667.71, -2227.04, 10374.54, -49579.50, -10332.47, 35262.71, -2314.66, -8610.47, 0.00, 0.00, 0.00, 0.00, 0.00, 0.00, 0.00
103, 2522.89, 61004.75, 3045.16, 27977.19, -18681.59, -2245.05, 10349.66, -49601.78, -10332.47, 35262.71, -2314.66, -8610.47, 0.00, 0.00, 0.00, 0.00, 0.00, 0.00, 0.00
104, 2522.89, 61004.75, 3045.16, 27977.19, -18681.59, -2245.05, 10349.66, -49601.78, -10333.81, 35235.24, -2342.37, -8571.02, 0.00, 0.00, 0.00, 0.00, 0.09, 0.35, 0.96
105, 2534.55, 61027.99, 3062.90, 28000.10, -18667.17, -2227.19, 10373.89, -49580.57, -10333.81, 35235.24, -2342.37, -8571.02, 0.00, 0.00, 0.00, 0.00, 0.00, 0.00, 0.00
106, 2534.55, 61027.99, 3062.90, 28000.10, -18667.17, -2227.19, 10373.89, -49580.57, -10328.25, 35269.53, -2312.53, -8614.94, 0.00, 0.00, 0.00, 0.00, 0.00, 0.00, 0.00
107, 2520.49, 61007.81, 3049.60, 27981.12, -18678.99, -2241.95, 10355.18, -49595.25, -10328.25, 35269.53, -2312.53, -8614.94, 0.00, 0.00, 0.00, 0.00, 0.00, 0.00, 0.00
108, 2520.49, 61007.81, 3049.60, 27981.12, -18678.99, -2241.95, 10355.18, -49595.25, -10334.69, 35235.45, -2340.72, -8558.57, 0.00, 0.00, 0.00, 0.00, 0.00, 0.00, 0.00
109, 2533.59, 61028.98, 3067.11, 28002.40, -18667.66, -2224.22, 10378.12, -49577.55, -10334.69, 35235.45, -2340.72, -8558.57, 0.00, 0.00, 0.00, 0.00, 0.00, 0.00, 0.00
110, 2533.59, 61028.98, 3067.11, 28002.40, -18667.66, -2224.22, 10378.12, -49577.55, -10325.25, 35276.33, -2304.51, -8623.33, 0.00, 0.00, 0.00, 0.00, 0.00, 0.00, 0.00
111, 2533.44, 61014.29, 3057.38, 27988.29, -18670.95, -2234.44, 10363.72, -49589.46, -10325.25, 35276.33, -2304.51, -8623.33, 0.00, 0.00, 0.00, 0.00, 0.00, 0.00, 0.00
112, 2533.44, 61014.29, 3057.38, 27988.29, -18670.95, -2234.44, 10363.72, -49589.46, -10333.90, 35231.62, -2340.54, -8555.13, 0.00, 0.00, 0.00, 0.00, 0.00, 0.00, 0.00
113, 2536.01, 61027.77, 3064.18, 28000.03, -18669.96, -2225.90, 10375.66, -49580.84, -10333.90, 35231.62, -2340.54, -8555.13, 0.00, 0.00, 0.00, 0.00, 0.00, 0.00, 0.00
114, 2536.01, 61027.77, 3064.18, 28000.03, -18669.96, -2225.90, 10375.66, -49580.84, -10322.50, 35277.76, -2301.29, -8627.66, 0.00, 0.00, 0.00, 0.00, 0.09, 0.35, 0.95
115, 2531.40, 61021.94, 3063.17, 27994.08, -18663.71, -2229.23, 10371.28, -49581.46, -10322.50, 35277.76, -2301.29, -8627.66, 0.00, 0.00, 0.00, 0.00, 0.00, 0.00, 0.00
116, 2531.40, 61021.94, 3063.17, 27994.08, -18663.71, -2229.23, 10371.28, -49581.46, -10333.48, 35232.11, -2340.63, -8550.30, 0.00, 0.00, 0.00, 0.00, 0.00, 0.00, 0.00
117, 2529.86, 61019.48, 3058.14, 27994.84, -18667.91, -2231.75, 10372.86, -49583.10, -10333.48, 35232.11, -2340.63, -8550.30, 0.00, 0.00, 0.00, 0.00, 0.00, 0.00, 0.00
118, 2529.86, 61019.48, 3058.14, 27994.84, -18667.91, -2231.75, 10372.86, -49583.10, -10323.20, 35278.16, -2305.40, -8626.72, 0.00, 0.00, 0.00, 0.00, 0.00, 0.00, 0.00
119, 2536.63, 61022.50, 3063.84, 27998.89, -18663.48, -2225.61, 10375.17, -49576.93, -10323.20, 35278.16, -2305.40, -8626.72, 0.00, 0.00, 0.00, 0.00, 0.00, 0.00, 0.00
120, 2536.63, 61022.50, 3063.84, 27998.89, -18663.48, -2225.61, 10375.17, -49576.93, -10331.69, 35233.34, -2337.95, -8544.09, 0.00, 0.00, 0.00, 0.00, 0.00, 0.00, 0.00
121, 2527.87, 61019.34, 3061.90, 27995.89, -18667.55, -2230.12, 10373.02, -49578.83, -10331.69, 35233.34, -2337.95, -8544.09, 0.00, 0.00, 0.00, 0.00, 0.00, 0.00, 0.00
122, 2527.87, 61019.34, 3061.90, 27995.89, -18667.55, -2230.12, 10373.02, -49578.83, -10321.61, 35278.25, -2295.81, -8625.96, 0.00, 0.00, 0.00, 0.00, 0.00, 0.00, 0.00
123, 2539.72, 61031.39, 3069.88, 28005.19, -18662.01, -2219.66, 10381.92, -49572.79, -10321.61, 35278.25, -2295.81, -8625.96, 0.00, 0.00, 0.00, 0.00, 0.00, 0.00, 0.00
124, 2539.72, 61031.39, 3069.88, 28005.19, -18662.01, -2219.66, 10381.92, -49572.79, -10331.29, 35241.08, -2334.04, -8541.96, 0.00, 0.00, 0.00, 0.00, 0.09, 0.36, 0.95
125, 2523.13, 61015.25, 3057.50, 27990.22, -18669.41, -2230.61, 10371.88, -49582.00, -10331.29, 35241.08, -2334.04, -8541.96, 0.00, 0.00, 0.00, 0.00, 0.00, 0.00, 0.00
126, 2523.13, 61015.25, 3057.50, 27990.22, -18669.41, -2230.61, 10371.88, -49582.00, -10320.98, 35282.05, -2300.02, -8615.23, 0.00, 0.00, 0.00, 0.00, 0.00, 0.00, 0.00
127, 2538.09, 61025.98, 3069.50, 28004.66, -18657.45, -2220.20, 10386.23, -49565.30, -10320.98, 35282.05, -2300.02, -8615.23, 0.00, 0.00, 0.00, 0.00, 0.00, 0.00, 0.00
128, 2538.09, 61025.98, 3069.50, 28004.66, -18657.45, -2220.20, 10386.23, -49565.30, -10335.38, 35238.30, -2333.16, -8550.48, 0.00, 0.00, 0.00, 0.00, 0.00, 0.00, 0.00
129, 2515.96, 61002.67, 3051.08, 27984.43, -18679.58, -2236.78, 10365.53, -49587.12, -10335.38, 35238.30, -2333.16, -8550.48, 0.00, 0.00, 0.00, 0.00, 0.00, 0.00, 0.00
130, 2515.96, 61002.67, 3051.08, 27984.43, -18679.58, -2236.78, 10365.53, -49587.12, -10324.40, 35269.62, -2307.77, -8616.80, 0.00, 0.00, 0.00, 0.00, 0.00, 0.00, 0.00
131, 2527.67, 61021.63, 3067.69, 28001.77, -18660.04, -2219.68, 10384.42, -49567.52, -10324.40, 35269.62, -2307.77, -8616.80, 0.00, 0.00, 0.00, 0.00, 0.00, 0.00, 0.00
132, 2527.67, 61021.63, 3067.69, 28001.77, -18660.04, -2219.68, 10384.42, -49567.52, -10332.90, 35239.38, -2331.62, -8560.63, 0.00, 0.00, 0.00, 0.00, 0.00, 0.00, 0.00
133, 2512.36, 61011.57, 3051.39, 27977.07, -18675.11, -2242.77, 10361.89, -49588.82, -10332.90, 35239.38, -2331.62, -8560.63, 0.00, 0.00, 0.00, 0.00, 0.10, 0.35, 0.95
134, 2512.36, 61011.57, 3051.39, 27977.07, -18675.11, -2242.77, 10361.89, -49588.82, -10326.51, 35266.34, -2307.48, -8611.03, 0.00, 0.00, 0.00, 0.00, 0.00, 0.00, 0.00
135, 2534.73, 61024.17, 3071.00, 28006.58, -18658.30, -2218.30, 10389.85, -49565.33, -10326.51, 35266.34, -2307.48, -8611.03, 0.00, 0.00, 0.00, 0.00, 0.00, 0.00, 0.00
136, 2534.73, 61024.17, 3071.00, 28006.58, -18658.30, -2218.30, 10389.85, -49565.33, -10334.40, 35246.42, -2325.03, -8563.02, 0.00, 0.00, 0.00, 0.00, 0.00, 0.00, 0.00
137, 2514.71, 60998.80, 3049.20, 27977.37, -18680.60, -2239.96, 10358.18, -49590.25, -10334.40, 35246.42, -2325.03, -8563.02, 0.00, 0.00, 0.00, 0.00, 0.00, 0.00, 0.00
138, 2514.71, 60998.80, 3049.20, 27977.37, -18680.60, -2239.96, 10358.18, -49590.25, -10328.34, 35260.37, -2315.62, -8597.80, 0.00, 0.00, 0.00, 0.00, 0.00, 0.00, 0.00
139, 2527.22, 61026.56, 3071.46, 28004.46, -18660.26, -2220.22, 10387.41, -49562.55, -10328.34, 35260.37, -2315.62, -8597.80, 0.00, 0.00, 0.00, 0.00, 0.00, 0.00, 0.00
140, 2527.22, 61026.56, 3071.46, 28004.46, -18660.26, -2220.22, 10387.41, -49562.55, -10331.00, 35254.76, -2320.60, -8577.48, 0.00, 0.00, 0.00, 0.00, 0.00, 0.00, 0.00
141, 2509.97, 60995.96, 3043.82, 27969.25, -18684.25, -2247.87, 10353.31, -49593.54, -10331.00, 35254.76, -2320.60, -8577.48, 0.00, 0.00, 0.00, 0.00, 0.00, 0.00, 0.00
142, 2509.97, 60995.96, 3043.82, 27969.25, -18684.25, -2247.87, 10353.31, -49593.54, -10330.98, 35254.64, -2327.33, -8588.63, 0.00, 0.00, 0.00, 0.00, 0.00, 0.00, 0.00
143, 2533.10, 61030.74, 3070.84, 28003.49, -18661.34, -2217.52, 10390.45, -49562.40, -10330.98, 35254.64, -2327.33, -8588.63, 0.00, 0.00, 0.00, 0.00, 0.10, 0.35, 0.95
144, 2533.10, 61030.74, 3070.84, 28003.49, -18661.34, -2217.52, 10390.45, -49562.40, -10329.43, 35262.96, -2311.64, -8584.46, 0.00, 0.00, 0.00, 0.00, 0.00, 0.00, 0.00
145, 2517.48, 61006.85, 3053.09, 27976.36, -18679.44, -2242.91, 10355.94, -49591.16, -10329.43, 35262.96, -2311.64, -8584.46, 0.00, 0.00, 0.00, 0.00, 0.00, 0.00, 0.00
146, 2517.48, 61006.85, 3053.09, 27976.36, -18679.44, -2242.91, 10355.94, -49591.16, -10328.12, 35249.82, -2322.99, -8578.98, 0.00, 0.00, 0.00, 0.00, 0.00, 0.00, 0.00
147, 2538.13, 61033.11, 3074.15, 28006.69, -18660.80, -2217.96, 10387.26, -49562.04, -10328.12, 35249.82, -2322.99, -8578.98, 0.00, 0.00, 0.00, 0.00, 0.00, 0.00, 0.00
148, 2538.13, 61033.11, 3074.15, 28006.69, -18660.80, -2217.96, 10387.26, -49562.04, -10332.99, 35265.87, -2307.91, -8594.33, 0.00, 0.00, 0.00, 0.00, 0.00, 0.00, 0.00
149, 2515.71, 61012.06, 3052.18, 27975.67, -18679.67, -2242.08, 10357.26, -49590.03, -10332.99, 35265.87, -2307.91, -8594.33, 0.00, 0.00, 0.00, 0.00, 0.00, 0.00, 0.00
150, 2515.71, 61012.06, 3052.18, 27975.67, -18679.67, -2242.08, 10357.26, -49590.03, -10328.61, 35247.11, -2322.91, -8563.51, 0.00, 0.00, 0.00, 0.00, 0.00, 0.00, 0.00
151, 2542.00, 61038.07, 3078.06, 28007.61, -18653.27, -2215.91, 10393.83, -49557.19, -10328.61, 35247.11, -2322.91, -8563.51, 0.00, 0.00, 0.00, 0.00, 0.00, 0.00, 0.00
152, 2542.00, 61038.07, 3078.06, 28007.61, -18653.27, -2215.91, 10393.83, -49557.19, -10323.29, 35279.16, -2295.10, -8600.37, 0.00, 0.00, 0.00, 0.00, 0.00, 0.00, 0.00
153, 2518.66, 61009.89, 3055.53, 27980.20, -18673.70, -2237.79, 10364.03, -49581.82, -10323.29, 35279.16, -2295.10, -8600.37, 0.00, 0.00, 0.00, 0.00, 0.09, 0.35, 0.95
154, 2518.66, 61009.89, 3055.53, 27980.20, -18673.70, -2237.79, 10364.03, -49581.82, -10330.95, 35245.08, -2326.95, -8552.04, 0.00, 0.00, 0.00, 0.00, 0.00, 0.00, 0.00
155, 2532.79, 61028.78, 3072.38, 28005.28, -18660.24, -2217.96, 10387.79, -49561.01, -10330.95, 35245.08, -2326.95, -8552.04, 0.00, 0.00, 0.00, 0.00, 0.00, 0.00, 0.00
156, 2532.79, 61028.78, 3072.38, 28005.28, -18660.24, -2217.96, 10387.79, -49561.01, -10326.42, 35281.49, -2296.46, -8606.81, 0.00, 0.00, 0.00, 0.00, 0.00, 0.00, 0.00
157, 2521.03, 61013.04, 3061.94, 27987.02, -18671.28, -2233.01, 10367.07, -49579.16, -10326.42, 35281.49, -2296.46, -8606.81, 0.00, 0.00, 0.00, 0.00, 0.00, 0.00, 0.00
158, 2521.03, 61013.04, 3061.94, 27987.02, -18671.28, -2233.01, 10367.07, -49579.16, -10339.51, 35236.21, -2338.95, -8549.88, 0.00, 0.00, 0.00, 0.00, 0.00, 0.00, 0.00
159, 2535.40, 61023.34, 3067.60, 28001.73, -18668.45, -2221.88, 10383.73, -49567.90, -10339.51, 35236.21, -2338.95, -8549.88, 0.00, 0.00, 0.00, 0.00, 0.00, 0.00, 0.00
160, 2535.40, 61023.34, 3067.60, 28001.73, -18668.45, -2221.88, 10383.73, -49567.90, -10331.40, 35278.79, -2296.82, -8615.59, 0.00, 0.00, 0.00, 0.00, 0.00, 0.00, 0.00
161, 2533.59, 61021.40, 3065.61, 27993.12, -18669.03, -2230.99, 10371.25, -49576.73, -10331.40, 35278.79, -2296.82, -8615.59, 0.00, 0.00, 0.00, 0.00, 0.00, 0.00, 0.00
162, 2533.59, 61021.40, 3065.61, 27993.12, -18669.03, -2230.99, 10371.25, -49576.73, -10336.16, 35237.28, -2327.58, -8544.58, 0.00, 0.00, 0.00, 0.00, 0.00, 0.00, 0.00
163, 2534.67, 61035.17, 3078.44, 28003.00, -18661.22, -2223.22, 10383.57, -49565.08, -10336.16, 35237.28, -2327.58, -8544.58, 0.00, 0.00, 0.00, 0.00, 0.09, 0.35, 0.95
164, 2534.67, 61035.17, 3078.44, 28003.00, -18661.22, -2223.22, 10383.57, -49565.08, -10324.72, 35286.45, -2289.67, -8615.01, 0.00, 0.00, 0.00, 0.00, 0.00, 0.00, 0.00
165, 2530.28, 61028.31, 3070.48, 27995.92, -18667.42, -2228.16, 10376.66, -49571.68, -10324.72, 35286.45, -2289.67, -8615.01, 0.00, 0.00, 0.00, 0.00, 0.00, 0.00, 0.00
166, 2530.28, 61028.31, 3070.48, 27995.92, -18667.42, -2228.16, 10376.66, -49571.68, -10338.08, 35233.12, -2332.02, -8547.66, 0.00, 0.00, 0.00, 0.00, 0.00, 0.00, 0.00
167, 2532.32, 61018.27, 3063.89, 27992.94, -18673.32, -2232.00, 10373.91, -49575.96, -10338.08, 35233.12, -2332.02, -8547.66, 0.00, 0.00, 0.00, 0.00, 0.00, 0.00, 0.00
168, 2532.32, 61018.27, 3063.89, 27992.94, -18673.32, -2232.00, 10373.91, -49575.96, -10330.60, 35275.34, -2299.93, -8622.23, 0.00, 0.00, 0.00, 0.00, 0.00, 0.00, 0.00
169, 2526.08, 61016.86, 3064.04, 27992.38, -18671.37, -2228.22, 10374.76, -49574.36, -10330.60, 35275.34, -2299.93, -8622.23, 0.00, 0.00, 0.00, 0.00, 0.00, 0.00, 0.00
170, 2526.08, 61016.86, 3064.04, 27992.38, -18671.37, -2228.22, 10374.76, -49574.36, -10340.56, 35234.33, -2337.88, -8547.53, 0.00, 0.00, 0.00, 0.00, 0.00, 0.00, 0.00
171, 2521.41, 61014.89, 3064.20, 27986.44, -18675.64, -2235.82, 10369.38, -49578.80, -10340.56, 35234.33, -2337.88, -8547.53, 0.00, 0.00, 0.00, 0.00, 0.00, 0.00, 0.00
172, 2521.41, 61014.89, 3064.20, 27986.44, -18675.64, -2235.82, 10369.38, -49578.80, -10330.48, 35276.37, -2302.61, -8615.97, 0.00, 0.00, 0.00, 0.00, 0.09, 0.36, 0.96
173, 2520.56, 61019.75, 3067.62, 27991.56, -18671.17, -2229.65, 10379.03, -49573.66, -10330.48, 35276.37, -2302.61, -8615.97, 0.00, 0.00, 0.00, 0.00, 0.00, 0.00, 0.00
174, 2520.56, 61019.75, 3067.62, 27991.56, -18671.17, -2229.65, 10379.03, -49573.66, -10345.28, 35230.71, -2338.64, -8556.11, 0.00, 0.00, 0.00, 0.00, 0.00, 0.00, 0.00
175, 2514.01, 60998.36, 3050.48, 27977.25, -18686.68, -2242.24, 10361.69, -49587.52, -10345.28, 35230.71, -2338.64, -8556.11, 0.00, 0.00, 0.00, 0.00, 0.00, 0.00, 0.00
176, 2514.01, 60998.36, 3050.48, 27977.25, -18686.68, -2242.24, 10361.69, -49587.52, -10336.34, 35270.16, -2309.32, -8616.73, 0.00, 0.00, 0.00, 0.00, 0.00, 0.00, 0.00
177, 2528.14, 61020.30, 3068.78, 27999.31, -18667.77, -2221.94, 10382.92, -49569.21, -10336.34, 35270.16, -2309.32, -8616.73, 0.00, 0.00, 0.00, 0.00, 0.00, 0.00, 0.00
178, 2528.14, 61020.30, 3068.78, 27999.31, -18667.77, -2221.94, 10382.92, -49569.21, -10347.27, 35234.15, -2334.17, -8557.19, 0.00, 0.00, 0.00, 0.00, 0.00, 0.00, 0.00
179, 2516.34, 61004.28, 3057.45, 27979.85, -18683.60, -2239.78, 10364.17, -49588.64, -10347.27, 35234.15, -2334.17, -8557.19, 0.00, 0.00, 0.00, 0.00, 0.00, 0.00, 0.00
180, 2516.34, 61004.28, 3057.45, 27979.85, -18683.60, -2239.78, 10364.17, -49588.64, -10336.83, 35263.05, -2310.81, -8611.79, 0.00, 0.00, 0.00, 0.00, 0.00, 0.00, 0.00
181, 2534.78, 61029.29, 3080.76, 28008.61, -18662.63, -2218.08, 10391.97, -49561.66, -10336.83, 35263.05, -2310.81, -8611.79, 0.00, 0.00, 0.00, 0.00, 0.00, 0.00, 0.00
182, 2534.78, 61029.29, 3080.76, 28008.61, -18662.63, -2218.08, 10391.97, -49561.66, -10339.83, 35247.52, -2321.63, -8561.01, 0.00, 0.00, 0.00, 0.00, 0.09, 0.35, 0.95
183, 2525.17, 61008.88, 3059.13, 27979.11, -18684.11, -2239.26, 10364.06, -49587.41, -10339.83, 35247.52, -2321.63, -8561.01, 0.00, 0.00, 0.00, 0.00, 0.00, 0.00, 0.00
184, 2525.17, 61008.88, 3059.13, 27979.11, -18684.11, -2239.26, 10364.06, -49587.41, -10336.16, 35262.09, -2308.26, -8600.57, 0.00, 0.00, 0.00, 0.00, 0.00, 0.00, 0.00
185, 2540.32, 61036.51, 3086.87, 28011.38, -18660.82, -2215.01, 10393.74, -49562.02, -10336.16, 35262.09, -2308.26, -8600.57, 0.00, 0.00, 0.00, 0.00, 0.00, 0.00, 0.00
186, 2540.32, 61036.51, 3086.87, 28011.38, -18660.82, -2215.01, 10393.74, -49562.02, -10341.12, 35246.42, -2313.38, -8574.89, 0.00, 0.00, 0.00, 0.00, 0.00, 0.00, 0.00
187, 2517.63, 61002.22, 3058.90, 27978.06, -18682.15, -2242.42, 10364.77, -49588.68, -10341.12, 35246.42, -2313.38, -8574.89, 0.00, 0.00, 0.00, 0.00, 0.00, 0.00, 0.00
188, 2517.63, 61002.22, 3058.90, 27978.06, -18682.15, -2242.42, 10364.77, -49588.68, -10337.01, 35259.85, -2310.48, -8588.12, 0.00, 0.00, 0.00, 0.00, 0.00, 0.00, 0.00
189, 2540.99, 61033.89, 3083.36, 28008.23, -18659.48, -2213.85, 10401.12, -49559.20, -10337.01, 35259.85, -2310.48, -8588.12, 0.00, 0.00, 0.00, 0.00, 0.00, 0.00, 0.00
190, 2540.99, 61033.89, 3083.36, 28008.23, -18659.48, -2213.85, 10401.12, -49559.20, -10341.82, 35257.26, -2312.27, -8572.16, 0.00, 0.00, 0.00, 0.00, 0.00, 0.00, 0.00
191, 2511.87, 61005.22, 3058.79, 27974.71, -18683.22, -2241.75, 10365.15, -49586.43, -10341.82, 35257.26, -2312.27, -8572.16, 0.00, 0.00, 0.00, 0.00, 0.00, 0.00, 0.00
192, 2511.87, 61005.22, 3058.79, 27974.71, -18683.22, -2241.75, 10365.15, -49586.43, -10336.45, 35249.66, -2318.66, -8581.77, 0.00, 0.00, 0.00, 0.00, 0.10, 0.35, 0.95
193, 2529.61, 61030.88, 3080.92, 28004.43, -18662.16, -2219.48, 10394.52, -49561.71, -10336.45, 35249.66, -2318.66, -8581.77, 0.00, 0.00, 0.00, 0.00, 0.00, 0.00, 0.00
194, 2529.61, 61030.88, 3080.92, 28004.43, -18662.16, -2219.48, 10394.52, -49561.71, -10336.70, 35259.61, -2306.01, -8590.18, 0.00, 0.00, 0.00, 0.00, 0.00, 0.00, 0.00
195, 2515.00, 61008.35, 3063.17, 27978.84, -18680.78, -2241.21, 10368.84, -49589.06, -10336.70, 35259.61, -2306.01, -8590.18, 0.00, 0.00, 0.00, 0.00, 0.00, 0.00, 0.00
196, 2515.00, 61008.35, 3063.17, 27978.84, -18680.78, -2241.21, 10368.84, -49589.06, -10344.36, 35237.75, -2322.23, -8578.02, 0.00, 0.00, 0.00, 0.00, 0.00, 0.00, 0.00
197, 2539.38, 61031.10, 3082.01, 28005.53, -18661.02, -2219.06, 10398.28, -49561.97, -10344.36, 35237.75, -2322.23, -8578.02, 0.00, 0.00, 0.00, 0.00, 0.00, 0.00, 0.00
198, 2539.38, 61031.10, 3082.01, 28005.53, -18661.02, -2219.06, 10398.28, -49561.97, -10336.32, 35265.35, -2299.66, -8597.55, 0.00, 0.00, 0.00, 0.00, 0.00, 0.00, 0.00
199, 2526.04, 61013.93, 3065.79, 27979.51, -18680.07, -2240.81, 10369.06, -49585.15, -10336.32, 35265.35, -2299.66, -8597.55, 0.00, 0.00, 0.00, 0.00, 0.00, 0.00, 0.00
200, 2526.04, 61013.93, 3065.79, 27979.51, -18680.07, -2240.81, 10369.06, -49585.15, -10338.04, 35242.53, -2318.17, -8560.96, 0.00, 0.00, 0.00, 0.00, 0.00, 0.00, 0.00
201, 2539.18, 61041.16, 3088.74, 28004.05, -18660.35, -2219.22, 10400.13, -49559.65, -10338.04, 35242.53, -2318.17, -8560.96, 0.00, 0.00, 0.00, 0.00, 0.00, 0.00, 0.00
202, 2539.18, 61041.16, 3088.74, 28004.05, -18660.35, -2219.22, 10400.13, -49559.65, -10334.02, 35269.89, -2294.47, -8602.05, 0.00, 0.00, 0.00, 0.00, 0.09, 0.35, 0.95
203, 2526.44, 61019.75, 3073.36, 27984.43, -18675.20, -2237.59, 10378.07, -49582.83, -10334.02, 35269.89, -2294.47, -8602.05, 0.00, 0.00, 0.00, 0.00, 0.00, 0.00, 0.00
204, 2526.44, 61019.75, 3073.36, 27984.43, -18675.20, -2237.59, 10378.07, -49582.83, -10343.20, 35229.05, -2326.48, -8565.30, 0.00, 0.00, 0.00, 0.00, 0.00, 0.00, 0.00
205, 2535.76, 61032.69, 3082.22, 28000.70, -18666.46, -2220.47, 10396.22, -49568.14, -10343.20, 35229.05, -2326.48, -8565.30, 0.00, 0.00, 0.00, 0.00, 0.00, 0.00, 0.00
206, 2535.76, 61032.69, 3082.22, 28000.70, -18666.46, -2220.47, 10396.22, -49568.14, -10335.87, 35268.32, -2295.66, -8608.08, 0.00, 0.00, 0.00, 0.00, 0.00, 0.00, 0.00
207, 2524.54, 61016.89, 3071.76, 27984.09, -18675.91, -2235.17, 10380.33, -49582.36, -10335.87, 35268.32, -2295.66, -8608.08, 0.00, 0.00, 0.00, 0.00, 0.00, 0.00, 0.00
208, 2524.54, 61016.89, 3071.76, 27984.09, -18675.91, -2235.17, 10380.33, -49582.36, -10350.06, 35222.46, -2333.92, -8559.20, 0.00, 0.00, 0.00, 0.00, 0.00, 0.00, 0.00
209, 2528.45, 61019.34, 3075.94, 27994.02, -18677.05, -2228.85, 10390.32, -49575.77, -10350.06, 35222.46, -2333.92, -8559.20, 0.00, 0.00, 0.00, 0.00, 0.00, 0.00, 0.00
210, 2528.45, 61019.34, 3075.94, 27994.02, -18677.05, -2228.85, 10390.32, -49575.77, -10338.22, 35270.74, -2296.28, -8617.13, 0.00, 0.00, 0.00, 0.00, 0.00, 0.00, 0.00
211, 2531.83, 61020.42, 3076.74, 27992.09, -18673.94, -2229.92, 10387.48, -49578.34, -10338.22, 35270.74, -2296.28, -8617.13, 0.00, 0.00, 0.00, 0.00, 0.09, 0.35, 0.95
212, 2531.83, 61020.42, 3076.74, 27992.09, -18673.94, -2229.92, 10387.48, -49578.34, -10346.73, 35227.22, -2329.12, -8550.68, 0.00, 0.00, 0.00, 0.00, 0.00, 0.00, 0.00
213, 2534.42, 61025.00, 3079.53, 27996.59, -18670.99, -2226.46, 10390.74, -49575.61, -10346.73, 35227.22, -2329.12, -8550.68, 0.00, 0.00, 0.00, 0.00, 0.00, 0.00, 0.00
214, 2534.42, 61025.00, 3079.53, 27996.59, -18670.99, -2226.46, 10390.74, -49575.61, -10343.90, 35263.07, -2299.21, -8620.13, 0.00, 0.00, 0.00, 0.00, 0.00, 0.00, 0.00
215, 2532.63, 61021.31, 3077.68, 27992.07, -18673.56, -2230.06, 10387.84, -49579.90, -10343.90, 35263.07, -2299.21, -8620.13, 0.00, 0.00, 0.00, 0.00, 0.00, 0.00, 0.00
216, 2532.63, 61021.31, 3077.68, 27992.07, -18673.56, -2230.06, 10387.84, -49579.90, -10351.72, 35222.62, -2334.28, -8553.03, 0.00, 0.00, 0.00, 0.00, 0.00, 0.00, 0.00
217, 2527.22, 61014.96, 3072.25, 27988.56, -18679.08, -2232.72, 10387.97, -49581.13, -10351.72, 35222.62, -2334.28, -8553.03, 0.00, 0.00, 0.00, 0.00, 0.00, 0.00, 0.00
218, 2527.22, 61014.96, 3072.25, 27988.56, -18679.08, -2232.72, 10387.97, -49581.13, -10339.45, 35273.11, -2296.80, -8610.67, 0.00, 0.00, 0.00, 0.00, 0.00, 0.00, 0.00
219, 2540.03, 61026.81, 3082.93, 28001.53, -18665.74, -2219.68, 10400.98, -49568.43, -10339.45, 35273.11, -2296.80, -8610.67, 0.00, 0.00, 0.00, 0.00, 0.00, 0.00, 0.00
220, 2540.03, 61026.81, 3082.93, 28001.53, -18665.74, -2219.68, 10400.98, -49568.43, -10349.64, 35231.62, -2334.01, -8544.09, 0.00, 0.00, 0.00, 0.00, 0.00, 0.00, 0.00
221, 2525.75, 61019.23, 3071.06, 27989.30, -18678.84, -2230.84, 10388.87, -49581.73, -10349.64, 35231.62, -2334.01, -8544.09, 0.00, 0.00, 0.00, 0.00, 0.09, 0.35, 0.95
222, 2525.75, 61019.23, 3071.06, 27989.30, -18678.84, -2230.84, 10388.87, -49581.73, -10335.98, 35277.02, -2296.42, -8598.27, 0.00, 0.00, 0.00, 0.00, 0.00, 0.00, 0.00
223, 2536.32, 61029.40, 3085.05, 28002.76, -18662.34, -2218.37, 10406.97, -49566.46, -10335.98, 35277.02, -2296.42, -8598.27, 0.00, 0.00, 0.00, 0.00, 0.00, 0.00, 0.00
224, 2536.32, 61029.40, 3085.05, 28002.76, -18662.34, -2218.37, 10406.97, -49566.46, -10351.99, 35230.73, -2322.86, -8552.43, 0.00, 0.00, 0.00, 0.00, 0.00, 0.00, 0.00
225, 2518.71, 61010.43, 3069.32, 27976.36, -18683.91, -2242.53, 10381.78, -49593.76, -10351.99, 35230.73, -2322.86, -8552.43, 0.00, 0.00, 0.00, 0.00, 0.00, 0.00, 0.00
226, 2518.71, 61010.43, 3069.32, 27976.36, -18683.91, -2242.53, 10381.78, -49593.76, -10342.17, 35262.54, -2297.74, -8605.22, 0.00, 0.00, 0.00, 0.00, 0.00, 0.00, 0.00
227, 2541.01, 61038.07, 3092.94, 28006.98, -18662.83, -2217.00, 10408.96, -49568.61, -10342.17, 35262.54, -2297.74, -8605.22, 0.00, 0.00, 0.00, 0.00, 0.00, 0.00, 0.00
228, 2541.01, 61038.07, 3092.94, 28006.98, -18662.83, -2217.00, 10408.96, -49568.61, -10346.55, 35237.90, -2319.55, -8555.49, 0.00, 0.00, 0.00, 0.00, 0.00, 0.00, 0.00
229, 2525.81, 61009.33, 3068.31, 27978.21, -18683.40, -2241.01, 10385.83, -49592.95, -10346.55, 35237.90, -2319.55, -8555.49, 0.00, 0.00, 0.00, 0.00, 0.00, 0.00, 0.00
230, 2525.81, 61009.33, 3068.31, 27978.21, -18683.40, -2241.01, 10385.83, -49592.95, -10344.12, 35257.46, -2307.24, -8600.15, 0.00, 0.00, 0.00, 0.00, 0.00, 0.00, 0.00
231, 2543.49, 61036.67, 3087.71, 28002.91, -18667.73, -2220.96, 10409.81, -49572.46, -10344.12, 35257.46, -2307.24, -8600.15, 0.00, 0.00, 0.00, 0.00, 0.10, 0.34, 0.96
232, 2543.49, 61036.67, 3087.71, 28002.91, -18667.73, -2220.96, 10409.81, -49572.46, -10347.67, 35236.56, -2317.18, -8568.56, 0.00, 0.00, 0.00, 0.00, 0.00, 0.00, 0.00
233, 2517.25, 61006.43, 3065.59, 27974.41, -18688.96, -2244.23, 10380.24, -49601.27, -10347.67, 35236.56, -2317.18, -8568.56, 0.00, 0.00, 0.00, 0.00, 0.00, 0.00, 0.00
234, 2517.25, 61006.43, 3065.59, 27974.41, -18688.96, -2244.23, 10380.24, -49601.27, -10350.82, 35245.84, -2316.65, -8593.42, 0.00, 0.00, 0.00, 0.00, 0.00, 0.00, 0.00
235, 2542.82, 61031.48, 3084.74, 28000.45, -18670.14, -2221.74, 10412.65, -49574.09, -10350.82, 35245.84, -2316.65, -8593.42, 0.00, 0.00, 0.00, 0.00, 0.00, 0.00, 0.00
236, 2542.82, 61031.48, 3084.74, 28000.45, -18670.14, -2221.74, 10412.65, -49574.09, -10352.43, 35242.75, -2309.76, -8569.64, 0.00, 0.00, 0.00, 0.00, 0.00, 0.00, 0.00
237, 2527.45, 61006.22, 3067.40, 27972.98, -18686.62, -2244.09, 10386.99, -49599.64, -10352.43, 35242.75, -2309.76, -8569.64, 0.00, 0.00, 0.00, 0.00, 0.00, 0.00, 0.00
238, 2527.45, 61006.22, 3067.40, 27972.98, -18686.62, -2244.09, 10386.99, -49599.64, -10347.78, 35244.77, -2312.02, -8583.61, 0.00, 0.00, 0.00, 0.00, 0.00, 0.00, 0.00
239, 2539.07, 61039.30, 3091.20, 28003.31, -18664.20, -2220.38, 10416.43, -49570.85, -10347.78, 35244.77, -2312.02, -8583.61, 0.00, 0.00, 0.00, 0.00, 0.00, 0.00, 0.00
240, 2539.07, 61039.30, 3091.20, 28003.31, -18664.20, -2220.38, 10416.43, -49570.85, -10347.52, 35249.15, -2303.53, -8582.94, 0.00, 0.00, 0.00, 0.00, 0.00, 0.00, 0.00
241, 2513.27, 60996.84, 3058.61, 27965.74, -18689.19, -2246.01, 10388.04, -49600.53, -10347.52, 35249.15, -2303.53, -8582.94, 0.00, 0.00, 0.00, 0.00, 0.09, 0.34, 0.95
242, 2513.27, 60996.84, 3058.61, 27965.74, -18689.19, -2246.01, 10388.04, -49600.53, -10346.82, 35240.81, -2318.73, -8570.60, 0.00, 0.00, 0.00, 0.00, 0.00, 0.00, 0.00
243, 2535.96, 61030.07, 3086.49, 28001.01, -18665.29, -2219.51, 10424.09, -49567.41, -10346.82, 35240.81, -2318.73, -8570.60, 0.00, 0.00, 0.00, 0.00, 0.00, 0.00, 0.00
244, 2535.96, 61030.07, 3086.49, 28001.01, -18665.29, -2219.51, 10424.09, -49567.41, -10346.17, 35257.51, -2295.57, -8585.44, 0.00, 0.00, 0.00, 0.00, 0.00, 0.00, 0.00
245, 2519.44, 61013.22, 3070.64, 27971.71, -18685.34, -2245.57, 10393.43, -49598.47, -10346.17, 35257.51, -2295.57, -8585.44, 0.00, 0.00, 0.00, 0.00, 0.00, 0.00, 0.00
246, 2519.44, 61013.22, 3070.64, 27971.71, -18685.34, -2245.57, 10393.43, -49598.47, -10349.53, 35234.11, -2311.42, -8567.04, 0.00, 0.00, 0.00, 0.00, 0.00, 0.00, 0.00
247, 2533.95, 61042.30, 3093.84, 27999.78, -18664.35, -2221.34, 10422.24, -49572.52, -10349.53, 35234.11, -2311.42, -8567.04, 0.00, 0.00, 0.00, 0.00, 0.00, 0.00, 0.00
248, 2533.95, 61042.30, 3093.84, 27999.78, -18664.35, -2221.34, 10422.24, -49572.52, -10345.46, 35260.25, -2287.81, -8594.22, 0.00, 0.00, 0.00, 0.00, 0.00, 0.00, 0.00
249, 2525.32, 61007.83, 3068.09, 27972.85, -18678.41, -2242.62, 10401.94, -49594.90, -10345.46, 35260.25, -2287.81, -8594.22, 0.00, 0.00, 0.00, 0.00, 0.00, 0.00, 0.00
250, 2525.32, 61007.83, 3068.09, 27972.85, -18678.41, -2242.62, 10401.94, -49594.90, -10349.01, 35228.36, -2313.87, -8561.75, 0.00, 0.00, 0.00, 0.00, 0.09, 0.34, 0.95
251, 2538.11, 61032.66, 3088.85, 27998.06, -18663.37, -2224.42, 10425.86, -49574.60, -10349.01, 35228.36, -2313.87, -8561.75, 0.00, 0.00, 0.00, 0.00, 0.00, 0.00, 0.00
252, 2538.11, 61032.66, 3088.85, 27998.06, -18663.37, -2224.42, 10425.86, -49574.60, -10342.31, 35263.41, -2284.21, -8601.98, 0.00, 0.00, 0.00, 0.00, 0.00, 0.00, 0.00
253, 2523.09, 61018.50, 3077.48, 27977.92, -18674.03, -2236.56, 10408.65, -49591.37, -10342.31, 35263.41, -2284.21, -8601.98, 0.00, 0.00, 0.00, 0.00, 0.00, 0.00, 0.00
254, 2523.09, 61018.50, 3077.48, 27977.92, -18674.03, -2236.56, 10408.65, -49591.37, -10348.79, 35232.76, -2315.37, -8551.20, 0.00, 0.00, 0.00, 0.00, 0.00, 0.00, 0.00
255, 2530.11, 61037.29, 3089.30, 27992.65, -18666.37, -2223.98, 10428.97, -49576.04, -10348.79, 35232.76, -2315.37, -8551.20, 0.00, 0.00, 0.00, 0.00, 0.00, 0.00, 0.00
0, 2530.11, 61037.29, 3089.30, 27992.65, -18666.37, -2223.98, 10428.97, -49576.04, -10347.29, 35267.39, -2281.62, -8598.58, 0.00, 0.00, 0.00, 0.00, 0.00, 0.00, 0.00
1, 2530.73, 61022.00, 3078.93, 27980.81, -18671.26, -2235.22, 10418.55, -49586.43, -10347.29, 35267.39, -2281.62, -8598.58, 0.00, 0.00, 0.00, 0.00, 0.00, 0.00, 0.00
2, 2530.73, 61022.00, 3078.93, 27980.81, -18671.26, -2235.22, 10418.55, -49586.43, -10353.28, 35226.35, -2320.20, -8543.73, 0.00, 0.00, 0.00, 0.00, 0.00, 0.00, 0.00
3, 2530.11, 61027.86, 3081.84, 27990.20, -18668.04, -2227.78, 10430.53, -49578.65, -10353.28, 35226.35, -2320.20, -8543.73, 0.00, 0.00, 0.00, 0.00, 0.00, 0.00, 0.00
4, 2530.11, 61027.86, 3081.84, 27990.20, -18668.04, -2227.78, 10430.53, -49578.65, -10344.54, 35270.14, -2286.09, -8604.71, 0.00, 0.00, 0.00, 0.00, 0.10, 0.34, 0.95
5, 2524.54, 61021.20, 3080.90, 27984.70, -18668.82, -2228.89, 10427.27, -49582.67, -10344.54, 35270.14, -2286.09, -8604.71, 0.00, 0.00, 0.00, 0.00, 0.00, 0.00, 0.00
6, 2524.54, 61021.20, 3080.90, 27984.70, -18668.82, -2228.89, 10427.27, -49582.67, -10349.39, 35229.90, -2318.84, -8541.85, 0.00, 0.00, 0.00, 0.00, 0.00, 0.00, 0.00
7, 2517.30, 61020.28, 3077.28, 27981.28, -18673.79, -2232.60, 10426.62, -49585.42, -10349.39, 35229.90, -2318.84, -8541.85, 0.00, 0.00, 0.00, 0.00, 0.00, 0.00, 0.00
8, 2517.30, 61020.28, 3077.28, 27981.28, -18673.79, -2232.60, 10426.62, -49585.42, -10345.50, 35268.19, -2288.93, -8608.66, 0.00, 0.00, 0.00, 0.00, 0.00, 0.00, 0.00
9, 2525.21, 61020.95, 3078.44, 27982.55, -18669.27, -2232.40, 10432.43, -49582.65, -10345.50, 35268.19, -2288.93, -8608.66, 0.00, 0.00, 0.00, 0.00, 0.00, 0.00, 0.00
10, 2525.21, 61020.95, 3078.44, 27982.55, -18669.27, -2232.40, 10432.43, -49582.65, -10358.00, 35222.44, -2324.89, -8544.49, 0.00, 0.00, 0.00, 0.00, 0.00, 0.00, 0.00
11, 2517.75, 61011.07, 3072.31, 27977.95, -18679.15, -2237.48, 10426.80, -49593.51, -10358.00, 35222.44, -2324.89, -8544.49, 0.00, 0.00, 0.00, 0.00, 0.00, 0.00, 0.00
12, 2517.75, 61011.07, 3072.31, 27977.95, -18679.15, -2237.48, 10426.80, -49593.51, -10350.22, 35259.99, -2291.12, -8613.18, 0.00, 0.00, 0.00, 0.00, 0.00, 0.00, 0.00
13, 2523.58, 61021.76, 3080.85, 27987.96, -18670.08, -2227.55, 10439.72, -49584.26, -10350.22, 35259.99, -2291.12, -8613.18, 0.00, 0.00, 0.00, 0.00, 0.00, 0.00, 0.00
14, 2523.58, 61021.76, 3080.85, 27987.96, -18670.08, -2227.55, 10439.72, -49584.26, -10358.07, 35226.15, -2323.11, -8552.51, 0.00, 0.00, 0.00, 0.00, 0.10, 0.35, 0.95
15, 2508.40, 61000.77, 3065.65, 27970.79, -18679.84, -2241.03, 10428.03, -49596.20, -10358.07, 35226.15, -2323.11, -8552.51, 0.00, 0.00, 0.00, 0.00, 0.00, 0.00, 0.00
16, 2508.40, 61000.77, 3065.65, 27970.79, -18679.84, -2241.03, 10428.03, -49596.20, -10351.76, 35260.50, -2298.32, -8604.68, 0.00, 0.00, 0.00, 0.00, 0.00, 0.00, 0.00
17, 2521.68, 61016.13, 3078.95, 27992.92, -18666.97, -2220.76, 10449.33, -49580.32, -10351.76, 35260.50, -2298.32, -8604.68, 0.00, 0.00, 0.00, 0.00, 0.00, 0.00, 0.00
18, 2521.68, 61016.13, 3078.95, 27992.92, -18666.97, -2220.76, 10449.33, -49580.32, -10359.99, 35229.45, -2322.23, -8551.06, 0.00, 0.00, 0.00, 0.00, 0.00, 0.00, 0.00
19, 2505.97, 60996.52, 3062.52, 27970.12, -18682.84, -2241.86, 10434.11, -49597.96, -10359.99, 35229.45, -2322.23, -8551.06, 0.00, 0.00, 0.00, 0.00, 0.00, 0.00, 0.00
20, 2505.97, 60996.52, 3062.52, 27970.12, -18682.84, -2241.86, 10434.11, -49597.96, -10355.79, 35254.00, -2305.69, -8601.13, 0.00, 0.00, 0.00, 0.00, 0.00, 0.00, 0.00
21, 2528.92, 61022.81, 3083.83, 28000.30, -18661.74, -2215.35, 10459.07, -49574.65, -10355.79, 35254.00, -2305.69, -8601.13, 0.00, 0.00, 0.00, 0.00, 0.00, 0.00, 0.00
22, 2528.92, 61022.81, 3083.83, 28000.30, -18661.74, -2215.35, 10459.07, -49574.65, -10355.99, 35238.73, -2318.37, -8553.90, 0.00, 0.00, 0.00, 0.00, 0.00, 0.00, 0.00
23, 2511.49, 60997.71, 3066.03, 27973.81, -18679.69, -2237.57, 10437.15, -49596.24, -10355.99, 35238.73, -2318.37, -8553.90, 0.00, 0.00, 0.00, 0.00, 0.00, 0.00, 0.00
24, 2511.49, 60997.71, 3066.03, 27973.81, -18679.69, -2237.57, 10437.15, -49596.24, -10352.23, 35253.26, -2305.16, -8592.48, 0.00, 0.00, 0.00, 0.00, 0.10, 0.35, 0.95
25, 2529.10, 61020.02, 3082.13, 27998.40, -18664.49, -2222.19, 10463.90, -49578.52, -10352.23, 35253.26, -2305.16, -8592.48, 0.00, 0.00, 0.00, 0.00, 0.00, 0.00, 0.00
26, 2529.10, 61020.02, 3082.13, 27998.40, -18664.49, -2222.19, 10463.90, -49578.52, -10358.45, 35236.00, -2319.51, -8569.10, 0.00, 0.00, 0.00, 0.00, 0.00, 0.00, 0.00
27, 2500.78, 60990.06, 3058.12, 27967.26, -18687.13, -2239.35, 10433.77, -49604.69, -10358.45, 35236.00, -2319.51, -8569.10, 0.00, 0.00, 0.00, 0.00, 0.00, 0.00, 0.00
28, 2500.78, 60990.06, 3058.12, 27967.26, -18687.13, -2239.35, 10433.77, -49604.69, -10354.56, 35245.48, -2320.13, -8586.22, 0.00, 0.00, 0.00, 0.00, 0.00, 0.00, 0.00
29, 2517.39, 61017.94, 3079.15, 27994.20, -18665.00, -2220.38, 10472.69, -49571.07, -10354.56, 35245.48, -2320.13, -8586.22, 0.00, 0.00, 0.00, 0.00, 0.00, 0.00, 0.00
30, 2517.39, 61017.94, 3079.15, 27994.20, -18665.00, -2220.38, 10472.69, -49571.07, -10359.21, 35241.86, -2315.64, -8572.43, 0.00, 0.00, 0.00, 0.00, 0.00, 0.00, 0.00
31, 2507.46, 60998.71, 3058.19, 27966.19, -18683.31, -2240.72, 10445.22, -49602.57, -10359.21, 35241.86, -2315.64, -8572.43, 0.00, 0.00, 0.00, 0.00, 0.00, 0.00, 0.00
32, 2507.46, 60998.71, 3058.19, 27966.19, -18683.31, -2240.72, 10445.22, -49602.57, -10353.55, 35247.58, -2316.42, -8567.16, 0.00, 0.00, 0.00, 0.00, 0.00, 0.00, 0.00
33, 2530.28, 61025.22, 3084.76, 27996.65, -18656.51, -2226.61, 10484.35, -49567.05, -10353.55, 35247.58, -2316.42, -8567.16, 0.00, 0.00, 0.00, 0.00, 0.09, 0.35, 0.95
34, 2530.28, 61025.22, 3084.76, 27996.65, -18656.51, -2226.61, 10484.35, -49567.05, -10355.00, 35253.50, -2300.82, -8577.03, 0.00, 0.00, 0.00, 0.00, 0.00, 0.00, 0.00
35, 2516.78, 60999.32, 3065.30, 27968.89, -18680.02, -2245.48, 10450.87, -49601.67, -10355.00, 35253.50, -2300.82, -8577.03, 0.00, 0.00, 0.00, 0.00, 0.00, 0.00, 0.00
36, 2516.78, 60999.32, 3065.30, 27968.89, -18680.02, -2245.48, 10450.87, -49601.67, -10359.61, 35229.52, -2310.92, -8571.00, 0.00, 0.00, 0.00, 0.00, 0.00, 0.00, 0.00
37, 2534.91, 61034.12, 3091.92, 28000.16, -18655.19, -2218.46, 10485.90, -49572.64, -10359.61, 35229.52, -2310.92, -8571.00, 0.00, 0.00, 0.00, 0.00, 0.00, 0.00, 0.00
38, 2534.91, 61034.12, 3091.92, 28000.16, -18655.19, -2218.46, 10485.90, -49572.64, -10353.01, 35261.57, -2292.08, -8594.56, 0.00, 0.00, 0.00, 0.00, 0.00, 0.00, 0.00
39, 2521.61, 61007.86, 3070.68, 27973.74, -18677.21, -2238.80, 10463.14, -49594.70, -10353.01, 35261.57, -2292.08, -8594.56, 0.00, 0.00, 0.00, 0.00, 0.00, 0.00, 0.00
40, 2521.61, 61007.86, 3070.68, 27973.74, -18677.21, -2238.80, 10463.14, -49594.70, -10361.73, 35229.52, -2319.75, -8546.12, 0.00, 0.00, 0.00, 0.00, 0.00, 0.00, 0.00
41, 2531.25, 61031.84, 3087.58, 27995.22, -18663.66, -2220.27, 10489.52, -49578.16, -10361.73, 35229.52, -2319.75, -8546.12, 0.00, 0.00, 0.00, 0.00, 0.00, 0.00, 0.00
42, 2531.25, 61031.84, 3087.58, 27995.22, -18663.66, -2220.27, 10489.52, -49578.16, -10359.21, 35252.93, -2293.09, -8595.70, 0.00, 0.00, 0.00, 0.00, 0.00, 0.00, 0.00
43, 2519.27, 61010.45, 3072.27, 27977.70, -18677.05, -2233.83, 10466.27, -49600.55, -10359.21, 35252.93, -2293.09, -8595.70, 0.00, 0.00, 0.00, 0.00, 0.10, 0.35, 0.95
44, 2519.27, 61010.45, 3072.27, 27977.70, -18677.05, -2233.83, 10466.27, -49600.55, -10364.39, 35221.30, -2319.60, -8559.69, 0.00, 0.00, 0.00, 0.00, 0.00, 0.00, 0.00
45, 2551.25, 61040.62, 3105.39, 28039.57, -18650.47, -2208.02, 10502.15, -49577.93, -10364.39, 35221.30, -2319.60, -8559.69, 0.00, 0.00, 0.00, 0.00, 0.00, 0.00, 0.00
46, 2551.25, 61040.62, 3105.39, 28039.57, -18650.47, -2208.02, 10502.15, -49577.93, -10349.44, 35268.66, -2236.81, -8586.20, 0.00, 0.00, 0.00, 0.00, 0.00, 0.00, 0.00
47, 2531.89, 61024.29, 3091.92, 27990.84, -18652.17, -2219.15, 10483.79, -49584.84, -10349.44, 35268.66, -2236.81, -8586.20, 0.00, 0.00, 0.00, 0.00, 0.00, 0.00, 0.00
48, 2531.89, 61024.29, 3091.92, 27990.84, -18652.17, -2219.15, 10483.79, -49584.84, -10357.40, 35228.74, -2341.08, -8550.35, 0.00, 0.00, 0.00, 0.00, 0.00, 0.00, 0.00
49, 2492.49, 60998.73, 3056.96, 27969.01, -18673.27, -2233.21, 10486.01, -49585.64, -10357.40, 35228.74, -2341.08, -8550.35, 0.00, 0.00, 0.00, 0.00, 0.00, 0.00, 0.00
50, 2492.49, 60998.73, 3056.96, 27969.01, -18673.27, -2233.21, 10486.01, -49585.64, -10352.10, 35259.34, -2320.94, -8600.06, 0.00, 0.00, 0.00, 0.00, 0.00, 0.00, 0.00
51, 2471.54, 60978.84, 3042.30, 27956.42, -18670.23, -2230.77, 10486.77, -49596.38, -10352.10, 35259.34, -2320.94, -8600.06, 0.00, 0.00, 0.00, 0.00, 0.00, 0.00, 0.00
52, 2471.54, 60978.84, 3042.30, 27956.42, -18670.23, -2230.77, 10486.77, -49596.38, -10345.06, 35243.45, -2358.58, -8535.59, 0.00, 0.00, 0.00, 0.00, 0.00, 0.00, 0.00
53, 2435.40, 60955.71, 3016.01, 27944.93, -18661.78, -2241.92, 10506.08, -49569.04, -10345.06, 35243.45, -2358.58, -8535.59, 0.00, 0.00, 0.00, 0.00, 0.10, 0.34, 0.95
54, 2435.40, 60955.71, 3016.01, 27944.93, -18661.78, -2241.92, 10506.08, -49569.04, -10328.94, 35286.68, -2370.72, -8599.57, 0.00, 0.00, 0.00, 0.00, 0.00, 0.00, 0.00
55, 2405.87, 60936.39, 2998.80, 27951.64, -18644.17, -2227.26, 10520.90, -49562.27, -10328.94, 35286.68, -2370.72, -8599.57, 0.00, 0.00, 0.00, 0.00, 0.00, 0.00, 0.00
56, 2405.87, 60936.39, 2998.80, 27951.64, -18644.17, -2227.26, 10520.90, -49562.27, -10331.31, 35239.25, -2436.16, -8516.66, 0.00, 0.00, 0.00, 0.00, 0.00, 0.00, 0.00
57, 2351.87, 60898.69, 2955.21, 27942.43, -18654.92, -2231.60, 10518.19, -49567.20, -10331.31, 35239.25, -2436.16, -8516.66, 0.00, 0.00, 0.00, 0.00, 0.00, 0.00, 0.00
58, 2351.87, 60898.69, 2955.21, 27942.43, -18654.92, -2231.60, 10518.19, -49567.20, -10308.49, 35288.89, -2438.24, -8593.24, 0.00, 0.00, 0.00, 0.00, 0.00, 0.00, 0.00
59, 2335.51, 60895.07, 2950.27, 27966.46, -18622.40, -2208.15, 10544.79, -49545.97, -10308.49, 35288.89, -2438.24, -8593.24, 0.00, 0.00, 0.00, 0.00, 0.00, 0.00, 0.00
60, 2335.51, 60895.07, 2950.27, 27966.46, -18622.40, -2208.15, 10544.79, -49545.97, -10308.47, 35253.86, -2494.01, -8531.26, 0.00, 0.00, 0.00, 0.00, 0.00, 0.00, 0.00
61, 2300.13, 60857.11, 2919.63, 27949.25, -18632.82, -2210.95, 10531.05, -49556.90, -10308.47, 35253.86, -2494.01, -8531.26, 0.00, 0.00, 0.00, 0.00, 0.00, 0.00, 0.00
62, 2300.13, 60857.11, 2919.63, 27949.25, -18632.82, -2210.95, 10531.05, -49556.90, -10285.09, 35308.56, -2432.16, -8571.45, 0.00, 0.00, 0.00, 0.00, 0.00, 0.00, 0.00
63, 2305.07, 60869.16, 2922.42, 27943.14, -18628.52, -2218.99, 10547.39, -49536.74, -10285.09, 35308.56, -2432.16, -8571.45, 0.00, 0.00, 0.00, 0.00, 0.08, 0.35, 0.96
64, 2305.07, 60869.16, 2922.42, 27943.14, -18628.52, -2218.99, 10547.39, -49536.74, -10294.74, 35274.40, -2397.85, -8512.57, 0.00, 0.00, 0.00, 0.00, 0.00, 0.00, 0.00
65, 2315.53, 60877.43, 2934.23, 27913.68, -18641.60, -2202.34, 10531.72, -49558.27, -10294.74, 35274.40, -2397.85, -8512.57, 0.00, 0.00, 0.00, 0.00, 0.00, 0.00, 0.00
66, 2315.53, 60877.43, 2934.23, 27913.68, -18641.60, -2202.34, 10531.72, -49558.27, -10277.94, 35311.11, -2306.07, -8561.75, 0.00, 0.00, 0.00, 0.00, 0.00, 0.00, 0.00
67, 2351.96, 60920.91, 2970.79, 27906.71, -18633.44, -2228.89, 10567.55, -49529.59, -10277.94, 35311.11, -2306.07, -8561.75, 0.00, 0.00, 0.00, 0.00, 0.00, 0.00, 0.00
68, 2351.96, 60920.91, 2970.79, 27906.71, -18633.44, -2228.89, 10567.55, -49529.59, -10299.08, 35270.89, -2276.46, -8511.32, 0.00, 0.00, 0.00, 0.00, 0.00, 0.00, 0.00
69, 2358.29, 60915.45, 2970.46, 27870.08, -18647.14, -2241.08, 10546.20, -49553.26, -10299.08, 35270.89, -2276.46, -8511.32, 0.00, 0.00, 0.00, 0.00, 0.00, 0.00, 0.00
70, 2358.29, 60915.45, 2970.46, 27870.08, -18647.14, -2241.08, 10546.20, -49553.26, -10283.66, 35301.05, -2199.26, -8568.83, 0.00, 0.00, 0.00, 0.00, 0.00, 0.00, 0.00
71, 2401.52, 60963.02, 3015.00, 27901.14, -18629.96, -2201.69, 10571.75, -49528.54, -10283.66, 35301.05, -2199.26, -8568.83, 0.00, 0.00, 0.00, 0.00, 0.00, 0.00, 0.00
72, 2401.52, 60963.02, 3015.00, 27901.14, -18629.96, -2201.69, 10571.75, -49528.54, -10287.48, 35280.77, -2172.52, -8539.35, 0.00, 0.00, 0.00, 0.00, 0.09, 0.35, 0.96
73, 2390.63, 60945.65, 3002.06, 27845.27, -18653.87, -2243.58, 10538.76, -49563.41, -10287.48, 35280.77, -2172.52, -8539.35, 0.00, 0.00, 0.00, 0.00, 0.00, 0.00, 0.00
74, 2390.63, 60945.65, 3002.06, 27845.27, -18653.87, -2243.58, 10538.76, -49563.41, -10279.61, 35296.80, -2134.79, -8564.03, 0.00, 0.00, 0.00, 0.00, 0.00, 0.00, 0.00
75, 2417.65, 60981.30, 3030.87, 27845.78, -18640.53, -2239.69, 10569.65, -49537.72, -10279.61, 35296.80, -2134.79, -8564.03, 0.00, 0.00, 0.00, 0.00, 0.00, 0.00, 0.00
76, 2417.65, 60981.30, 3030.87, 27845.78, -18640.53, -2239.69, 10569.65, -49537.72, -10282.99, 35281.96, -2121.25, -8535.73, 0.00, 0.00, 0.00, 0.00, 0.00, 0.00, 0.00
77, 2414.52, 60968.09, 3025.15, 27829.49, -18656.53, -2248.52, 10544.61, -49564.19, -10282.99, 35281.96, -2121.25, -8535.73, 0.00, 0.00, 0.00, 0.00, 0.00, 0.00, 0.00
78, 2414.52, 60968.09, 3025.15, 27829.49, -18656.53, -2248.52, 10544.61, -49564.19, -10276.71, 35295.37, -2091.48, -8561.99, 0.00, 0.00, 0.00, 0.00, 0.00, 0.00, 0.00
79, 2452.57, 61007.30, 3059.89, 27854.74, -18637.93, -2226.39, 10564.82, -49553.14, -10276.71, 35295.37, -2091.48, -8561.99, 0.00, 0.00, 0.00, 0.00, 0.00, 0.00, 0.00
80, 2452.57, 61007.30, 3059.89, 27854.74, -18637.93, -2226.39, 10564.82, -49553.14, -10290.07, 35276.57, -2090.25, -8540.96, 0.00, 0.00, 0.00, 0.00, 0.00, 0.00, 0.00
81, 2434.86, 60981.97, 3030.49, 27807.45, -18674.05, -2244.54, 10533.26, -49573.51, -10290.07, 35276.57, -2090.25, -8540.96, 0.00, 0.00, 0.00, 0.00, 0.00, 0.00, 0.00
82, 2434.86, 60981.97, 3030.49, 27807.45, -18674.05, -2244.54, 10533.26, -49573.51, -10290.30, 35267.00, -2073.41, -8559.02, 0.00, 0.00, 0.00, 0.00, 0.09, 0.35, 0.96
83, 2473.62, 61023.88, 3073.25, 27840.55, -18637.62, -2234.12, 10573.49, -49553.84, -10290.30, 35267.00, -2073.41, -8559.02, 0.00, 0.00, 0.00, 0.00, 0.00, 0.00, 0.00
84, 2473.62, 61023.88, 3073.25, 27840.55, -18637.62, -2234.12, 10573.49, -49553.84, -10281.06, 35297.25, -2040.09, -8588.08, 0.00, 0.00, 0.00, 0.00, 0.00, 0.00, 0.00
85, 2458.13, 61004.73, 3060.89, 27810.44, -18671.24, -2259.22, 10545.49, -49579.23, -10281.06, 35297.25, -2040.09, -8588.08, 0.00, 0.00, 0.00, 0.00, 0.00, 0.00, 0.00
86, 2458.13, 61004.73, 3060.89, 27810.44, -18671.24, -2259.22, 10545.49, -49579.23, -10288.73, 35262.89, -2052.92, -8602.65, 0.00, 0.00, 0.00, 0.00, 0.00, 0.00, 0.00
87, 2479.84, 61038.28, 3089.28, 27838.94, -18652.04, -2212.11, 10563.70, -49572.26, -10288.73, 35262.89, -2052.92, -8602.65, 0.00, 0.00, 0.00, 0.00, 0.00, 0.00, 0.00
88, 2479.84, 61038.28, 3089.28, 27838.94, -18652.04, -2212.11, 10563.70, -49572.26, -10284.46, 35265.48, -2024.42, -8552.94, 0.00, 0.00, 0.00, 0.00, 0.00, 0.00, 0.00
89, 2477.53, 61014.76, 3066.37, 27800.09, -18653.36, -2275.47, 10539.29, -49599.23, -10284.46, 35265.48, -2024.42, -8552.94, 0.00, 0.00, 0.00, 0.00, 0.00, 0.00, 0.00
90, 2477.53, 61014.76, 3066.37, 27800.09, -18653.36, -2275.47, 10539.29, -49599.23, -10286.05, 35265.29, -2051.76, -8553.32, 0.00, 0.00, 0.00, 0.00, 0.00, 0.00, 0.00
91, 2490.65, 61028.24, 3082.15, 27817.66, -18667.73, -2251.45, 10564.57, -49587.39, -10286.05, 35265.29, -2051.76, -8553.32, 0.00, 0.00, 0.00, 0.00, 0.00, 0.00, 0.00
92, 2490.65, 61028.24, 3082.15, 27817.66, -18667.73, -2251.45, 10564.57, -49587.39, -10307.73, 35262.29, -2018.68, -8611.37, 0.00, 0.00, 0.00, 0.00, 0.10, 0.35, 0.96
93, 2485.67, 61021.94, 3085.28, 27805.90, -18658.05, -2257.95, 10548.50, -49610.61, -10307.73, 35262.29, -2018.68, -8611.37, 0.00, 0.00, 0.00, 0.00, 0.00, 0.00, 0.00
94, 2485.67, 61021.94, 3085.28, 27805.90, -18658.05, -2257.95, 10548.50, -49610.61, -10292.33, 35241.84, -2039.06, -8559.60, 0.00, 0.00, 0.00, 0.00, 0.00, 0.00, 0.00
95, 2502.32, 61048.98, 3101.86, 27827.27, -18662.28, -2234.77, 10561.31, -49602.25, -10292.33, 35241.84, -2039.06, -8559.60, 0.00, 0.00, 0.00, 0.00, 0.00, 0.00, 0.00
96, 2502.32, 61048.98, 3101.86, 27827.27, -18662.28, -2234.77, 10561.31, -49602.25, -10283.57, 35277.45, -1991.50, -8654.77, 0.00, 0.00, 0.00, 0.00, 0.00, 0.00, 0.00
97, 2509.32, 61046.52, 3102.27, 27821.08, -18663.93, -2235.60, 10553.71, -49621.14, -10283.57, 35277.45, -1991.50, -8654.77, 0.00, 0.00, 0.00, 0.00, 0.00, 0.00, 0.00
98, 2509.32, 61046.52, 3102.27, 27821.08, -18663.93, -2235.60, 10553.71, -49621.14, -10291.01, 35231.55, -2025.16, -8577.42, 0.00, 0.00, 0.00, 0.00, 0.00, 0.00, 0.00
99, 2508.25, 61048.58, 3101.15, 27817.75, -18653.58, -2264.01, 10556.93, -49623.24, -10291.01, 35231.55, -2025.16, -8577.42, 0.00, 0.00, 0.00, 0.00, 0.00, 0.00, 0.00
100, 2508.25, 61048.58, 3101.15, 27817.75, -18653.58, -2264.01, 10556.93, -49623.24, -10287.41, 35274.16, -1998.13, -8642.68, 0.00, 0.00, 0.00, 0.00, 0.00, 0.00, 0.00
101, 2502.57, 61042.90, 3095.96, 27811.56, -18661.11, -2254.93, 10539.65, -49650.22, -10287.41, 35274.16, -1998.13, -8642.68, 0.00, 0.00, 0.00, 0.00, 0.00, 0.00, 0.00
102, 2502.57, 61042.90, 3095.96, 27811.56, -18661.11, -2254.93, 10539.65, -49650.22, -10298.90, 35202.68, -2043.46, -8589.48, 0.00, 0.00, 0.00, 0.00, 0.09, 0.35, 0.95
103, 2498.61, 61032.24, 3089.35, 27815.92, -18680.43, -2234.88, 10535.14, -49658.02, -10298.90, 35202.68, -2043.46, -8589.48, 0.00, 0.00, 0.00, 0.00, 0.00, 0.00, 0.00
104, 2498.61, 61032.24, 3089.35, 27815.92, -18680.43, -2234.88, 10535.14, -49658.02, -10304.22, 35254.38, -2010.92, -8687.85, 0.00, 0.00, 0.00, 0.00, 0.00, 0.00, 0.00
105, 2502.57, 61037.20, 3095.43, 27809.37, -18670.46, -2274.76, 10555.43, -49654.53, -10304.22, 35254.38, -2010.92, -8687.85, 0.00, 0.00, 0.00, 0.00, 0.00, 0.00, 0.00
106, 2502.57, 61037.20, 3095.43, 27809.37, -18670.46, -2274.76, 10555.43, -49654.53, -10309.16, 35207.55, -2044.47, -8605.98, 0.00, 0.00, 0.00, 0.00, 0.00, 0.00, 0.00
107, 2494.05, 61027.77, 3077.90, 27796.40, -18684.56, -2275.99, 10530.67, -49677.58, -10309.16, 35207.55, -2044.47, -8605.98, 0.00, 0.00, 0.00, 0.00, 0.00, 0.00, 0.00
108, 2494.05, 61027.77, 3077.90, 27796.40, -18684.56, -2275.99, 10530.67, -49677.58, -10306.12, 35235.04, -2020.11, -8684.39, 0.00, 0.00, 0.00, 0.00, 0.00, 0.00, 0.00
109, 2504.71, 61036.96, 3100.30, 27817.48, -18662.43, -2255.85, 10545.55, -49670.98, -10306.12, 35235.04, -2020.11, -8684.39, 0.00, 0.00, 0.00, 0.00, 0.00, 0.00, 0.00
110, 2504.71, 61036.96, 3100.30, 27817.48, -18662.43, -2255.85, 10545.55, -49670.98, -10311.15, 35195.61, -2047.58, -8638.59, 0.00, 0.00, 0.00, 0.00, 0.00, 0.00, 0.00
111, 2486.90, 61013.18, 3079.85, 27800.07, -18683.69, -2271.27, 10525.53, -49694.63, -10311.15, 35195.61, -2047.58, -8638.59, 0.00, 0.00, 0.00, 0.00, 0.00, 0.00, 0.00
112, 2486.90, 61013.18, 3079.85, 27800.07, -18683.69, -2271.27, 10525.53, -49694.63, -10299.84, 35247.76, -2021.87, -8690.42, 0.00, 0.00, 0.00, 0.00, 0.09, 0.35, 0.96
113, 2507.75, 61034.90, 3096.21, 27819.79, -18673.34, -2246.62, 10537.66, -49686.23, -10299.84, 35247.76, -2021.87, -8690.42, 0.00, 0.00, 0.00, 0.00, 0.00, 0.00, 0.00
114, 2507.75, 61034.90, 3096.21, 27819.79, -18673.34, -2246.62, 10537.66, -49686.23, -10315.69, 35189.33, -2046.53, -8670.20, 0.00, 0.00, 0.00, 0.00, 0.00, 0.00, 0.00
115, 2487.41, 61016.13, 3084.56, 27793.23, -18718.60, -2283.72, 10524.27, -49722.53, -10315.69, 35189.33, -2046.53, -8670.20, 0.00, 0.00, 0.00, 0.00, 0.00, 0.00, 0.00
116, 2487.41, 61016.13, 3084.56, 27793.23, -18718.60, -2283.72, 10524.27, -49722.53, -10313.79, 35199.26, -2028.33, -8711.79, 0.00, 0.00, 0.00, 0.00, 0.00, 0.00, 0.00
117, 2513.52, 61034.12, 3099.32, 27811.69, -18667.35, -2268.39, 10542.16, -49695.23, -10313.79, 35199.26, -2028.33, -8711.79, 0.00, 0.00, 0.00, 0.00, 0.00, 0.00, 0.00
118, 2513.52, 61034.12, 3099.32, 27811.69, -18667.35, -2268.39, 10542.16, -49695.23, -10317.10, 35202.79, -2040.20, -8666.13, 0.00, 0.00, 0.00, 0.00, 0.00, 0.00, 0.00
119, 2496.27, 61016.57, 3084.88, 27793.30, -18680.18, -2278.67, 10517.64, -49717.03, -10317.10, 35202.79, -2040.20, -8666.13, 0.00, 0.00, 0.00, 0.00, 0.00, 0.00, 0.00
120, 2496.27, 61016.57, 3084.88, 27793.30, -18680.18, -2278.67, 10517.64, -49717.03, -10306.63, 35208.76, -2034.43, -8701.02, 0.00, 0.00, 0.00, 0.00, 0.00, 0.00, 0.00
121, 2509.92, 61033.14, 3098.06, 27819.09, -18676.54, -2256.68, 10540.34, -49705.54, -10306.63, 35208.76, -2034.43, -8701.02, 0.00, 0.00, 0.00, 0.00, 0.10, 0.35, 0.95
122, 2509.92, 61033.14, 3098.06, 27819.09, -18676.54, -2256.68, 10540.34, -49705.54, -10320.05, 35181.82, -2047.13, -8732.38, 0.00, 0.00, 0.00, 0.00, 0.00, 0.00, 0.00
123, 2486.65, 60997.91, 3066.79, 27778.59, -18707.11, -2294.72, 10501.68, -49745.84, -10320.05, 35181.82, -2047.13, -8732.38, 0.00, 0.00, 0.00, 0.00, 0.00, 0.00, 0.00
124, 2486.65, 60997.91, 3066.79, 27778.59, -18707.11, -2294.72, 10501.68, -49745.84, -10313.63, 35181.98, -2047.24, -8710.81, 0.00, 0.00, 0.00, 0.00, 0.00, 0.00, 0.00
125, 2511.17, 61031.13, 3098.78, 27813.97, -18669.18, -2259.83, 10525.28, -49714.19, -10313.63, 35181.98, -2047.24, -8710.81, 0.00, 0.00, 0.00, 0.00, 0.00, 0.00, 0.00
126, 2511.17, 61031.13, 3098.78, 27813.97, -18669.18, -2259.83, 10525.28, -49714.19, -10306.03, 35201.43, -2046.10, -8709.07, 0.00, 0.00, 0.00, 0.00, 0.00, 0.00, 0.00
127, 2494.12, 61003.12, 3071.93, 27780.78, -18695.74, -2294.14, 10500.87, -49744.21, -10306.03, 35201.43, -2046.10, -8709.07, 0.00, 0.00, 0.00, 0.00, 0.00, 0.00, 0.00
128, 2494.12, 61003.12, 3071.93, 27780.78, -18695.74, -2294.14, 10500.87, -49744.21, -10302.70, 35186.88, -2050.91, -8738.82, 0.00, 0.00, 0.00, 0.00, 0.00, 0.00, 0.00
129, 2510.03, 61032.09, 3098.26, 27819.74, -18679.53, -2255.25, 10532.34, -49716.78, -10302.70, 35186.88, -2050.91, -8738.82, 0.00, 0.00, 0.00, 0.00, 0.00, 0.00, 0.00
130, 2510.03, 61032.09, 3098.26, 27819.74, -18679.53, -2255.25, 10532.34, -49716.78, -10309.58, 35195.46, -2040.94, -8750.91, 0.00, 0.00, 0.00, 0.00, 0.00, 0.00, 0.00
131, 2487.70, 60999.03, 3071.67, 27783.89, -18700.03, -2282.83, 10495.95, -49748.52, -10309.58, 35195.46, -2040.94, -8750.91, 0.00, 0.00, 0.00, 0.00, 0.09, 0.35, 0.96
132, 2487.70, 60999.03, 3071.67, 27783.89, -18700.03, -2282.83, 10495.95, -49748.52, -10318.30, 35167.94, -2070.22, -8730.26, 0.00, 0.00, 0.00, 0.00, 0.00, 0.00, 0.00
133, 2493.00, 61020.89, 3087.00, 27802.57, -18709.82, -2271.32, 10517.37, -49733.66, -10318.30, 35167.94, -2070.22, -8730.26, 0.00, 0.00, 0.00, 0.00, 0.00, 0.00, 0.00
134, 2493.00, 61020.89, 3087.00, 27802.57, -18709.82, -2271.32, 10517.37, -49733.66, -10319.42, 35192.22, -2051.62, -8729.92, 0.00, 0.00, 0.00, 0.00, 0.00, 0.00, 0.00
135, 2497.78, 61001.30, 3072.87, 27775.60, -18702.29, -2308.00, 10487.95, -49760.39, -10319.42, 35192.22, -2051.62, -8729.92, 0.00, 0.00, 0.00, 0.00, 0.00, 0.00, 0.00
136, 2497.78, 61001.30, 3072.87, 27775.60, -18702.29, -2308.00, 10487.95, -49760.39, -10323.73, 35148.12, -2071.02, -8759.07, 0.00, 0.00, 0.00, 0.00, 0.00, 0.00, 0.00
137, 2522.15, 61037.76, 3104.81, 27812.05, -18678.39, -2266.27, 10511.20, -49733.25, -10323.73, 35148.12, -2071.02, -8759.07, 0.00, 0.00, 0.00, 0.00, 0.00, 0.00, 0.00
138, 2522.15, 61037.76, 3104.81, 27812.05, -18678.39, -2266.27, 10511.20, -49733.25, -10318.30, 35184.42, -2022.30, -8811.19, 0.00, 0.00, 0.00, 0.00, 0.00, 0.00, 0.00
139, 2521.17, 61021.76, 3094.73, 27814.67, -18690.01, -2272.97, 10491.51, -49755.23, -10318.30, 35184.42, -2022.30, -8811.19, 0.00, 0.00, 0.00, 0.00, 0.00, 0.00, 0.00
140, 2521.17, 61021.76, 3094.73, 27814.67, -18690.01, -2272.97, 10491.51, -49755.23, -10335.36, 35137.43, -2098.36, -8743.98, 0.00, 0.00, 0.00, 0.00, 0.00, 0.00, 0.00
141, 2508.85, 61010.36, 3075.60, 27785.83, -18709.53, -2294.59, 10485.78, -49753.48, -10335.36, 35137.43, -2098.36, -8743.98, 0.00, 0.00, 0.00, 0.00, 0.09, 0.35, 0.96
142, 2508.85, 61010.36, 3075.60, 27785.83, -18709.53, -2294.59, 10485.78, -49753.48, -10326.75, 35179.92, -2062.51, -8806.94, 0.00, 0.00, 0.00, 0.00, 0.00, 0.00, 0.00
143, 2502.03, 61005.31, 3079.65, 27780.02, -18710.51, -2294.45, 10480.29, -49756.05, -10326.75, 35179.92, -2062.51, -8806.94, 0.00, 0.00, 0.00, 0.00, 0.00, 0.00, 0.00
144, 2502.03, 61005.31, 3079.65, 27780.02, -18710.51, -2294.45, 10480.29, -49756.05, -10327.67, 35146.86, -2094.27, -8784.26, 0.00, 0.00, 0.00, 0.00, 0.00, 0.00, 0.00
145, 2504.60, 61018.29, 3092.23, 27787.62, -18698.33, -2285.22, 10490.61, -49748.99, -10327.67, 35146.86, -2094.27, -8784.26, 0.00, 0.00, 0.00, 0.00, 0.00, 0.00, 0.00
146, 2504.60, 61018.29, 3092.23, 27787.62, -18698.33, -2285.22, 10490.61, -49748.99, -10313.65, 35183.30, -2042.41, -8818.12, 0.00, 0.00, 0.00, 0.00, 0.00, 0.00, 0.00
147, 2514.84, 61028.69, 3099.76, 27794.75, -18686.79, -2280.95, 10487.01, -49740.59, -10313.65, 35183.30, -2042.41, -8818.12, 0.00, 0.00, 0.00, 0.00, 0.00, 0.00, 0.00
148, 2514.84, 61028.69, 3099.76, 27794.75, -18686.79, -2280.95, 10487.01, -49740.59, -10323.76, 35143.04, -2082.82, -8781.75, 0.00, 0.00, 0.00, 0.00, 0.00, 0.00, 0.00
149, 2506.77, 61011.14, 3082.08, 27791.76, -18702.98, -2283.63, 10474.79, -49755.54, -10323.76, 35143.04, -2082.82, -8781.75, 0.00, 0.00, 0.00, 0.00, 0.00, 0.00, 0.00
150, 2506.77, 61011.14, 3082.08, 27791.76, -18702.98, -2283.63, 10474.79, -49755.54, -10315.06, 35184.93, -2053.95, -8814.39, 0.00, 0.00, 0.00, 0.00, 0.00, 0.00, 0.00
151, 2509.27, 61016.41, 3085.39, 27788.16, -18691.89, -2285.56, 10474.27, -49749.80, -10315.06, 35184.93, -2053.95, -8814.39, 0.00, 0.00, 0.00, 0.00, 0.09, 0.35, 0.96
152, 2509.27, 61016.41, 3085.39, 27788.16, -18691.89, -2285.56, 10474.27, -49749.80, -10326.97, 35132.74, -2092.79, -8812.93, 0.00, 0.00, 0.00, 0.00, 0.00, 0.00, 0.00
153, 2494.45, 60998.67, 3079.15, 27769.38, -18711.16, -2310.46, 10458.45, -49764.37, -10326.97, 35132.74, -2092.79, -8812.93, 0.00, 0.00, 0.00, 0.00, 0.00, 0.00, 0.00
154, 2494.45, 60998.67, 3079.15, 27769.38, -18711.16, -2310.46, 10458.45, -49764.37, -10331.96, 35160.70, -2069.53, -8847.56, 0.00, 0.00, 0.00, 0.00, 0.00, 0.00, 0.00
155, 2497.83, 61000.34, 3071.08, 27784.98, -18709.77, -2285.87, 10472.24, -49748.70, -10331.96, 35160.70, -2069.53, -8847.56, 0.00, 0.00, 0.00, 0.00, 0.00, 0.00, 0.00
156, 2497.83, 61000.34, 3071.08, 27784.98, -18709.77, -2285.87, 10472.24, -49748.70, -10334.37, 35131.11, -2104.46, -8772.34, 0.00, 0.00, 0.00, 0.00, 0.00, 0.00, 0.00
157, 2490.61, 60984.43, 3068.25, 27776.02, -18712.88, -2292.33, 10446.83, -49763.56, -10334.37, 35131.11, -2104.46, -8772.34, 0.00, 0.00, 0.00, 0.00, 0.00, 0.00, 0.00
158, 2490.61, 60984.43, 3068.25, 27776.02, -18712.88, -2292.33, 10446.83, -49763.56, -10326.97, 35167.63, -2076.07, -8870.96, 0.00, 0.00, 0.00, 0.00, 0.00, 0.00, 0.00
159, 2488.73, 61000.48, 3078.04, 27784.56, -18696.07, -2295.68, 10460.75, -49755.18, -10326.97, 35167.63, -2076.07, -8870.96, 0.00, 0.00, 0.00, 0.00, 0.00, 0.00, 0.00
160, 2488.73, 61000.48, 3078.04, 27784.56, -18696.07, -2295.68, 10460.75, -49755.18, -10322.71, 35134.46, -2107.41, -8819.15, 0.00, 0.00, 0.00, 0.00, 0.09, 0.35, 0.96
161, 2490.03, 60978.71, 3064.02, 27774.81, -18716.43, -2290.76, 10436.50, -49766.56, -10322.71, 35134.46, -2107.41, -8819.15, 0.00, 0.00, 0.00, 0.00, 0.00, 0.00, 0.00
162, 2490.03, 60978.71, 3064.02, 27774.81, -18716.43, -2290.76, 10436.50, -49766.56, -10336.94, 35143.04, -2087.07, -8873.62, 0.00, 0.00, 0.00, 0.00, 0.00, 0.00, 0.00
163, 2503.78, 61000.90, 3083.49, 27792.67, -18706.93, -2288.86, 10475.28, -49736.54, -10336.94, 35143.04, -2087.07, -8873.62, 0.00, 0.00, 0.00, 0.00, 0.00, 0.00, 0.00
164, 2503.78, 61000.90, 3083.49, 27792.67, -18706.93, -2288.86, 10475.28, -49736.54, -10345.82, 35124.27, -2110.16, -8843.00, 0.00, 0.00, 0.00, 0.00, 0.00, 0.00, 0.00
165, 2482.54, 60979.27, 3063.80, 27769.14, -18719.05, -2307.48, 10436.99, -49775.30, -10345.82, 35124.27, -2110.16, -8843.00, 0.00, 0.00, 0.00, 0.00, 0.00, 0.00, 0.00
166, 2482.54, 60979.27, 3063.80, 27769.14, -18719.05, -2307.48, 10436.99, -49775.30, -10335.83, 35137.54, -2097.02, -8889.62, 0.00, 0.00, 0.00, 0.00, 0.00, 0.00, 0.00
167, 2498.95, 61003.52, 3082.77, 27795.24, -18696.79, -2282.78, 10451.52, -49769.31, -10335.83, 35137.54, -2097.02, -8889.62, 0.00, 0.00, 0.00, 0.00, 0.00, 0.00, 0.00
168, 2498.95, 61003.52, 3082.77, 27795.24, -18696.79, -2282.78, 10451.52, -49769.31, -10328.61, 35132.89, -2102.58, -8834.59, 0.00, 0.00, 0.00, 0.00, 0.00, 0.00, 0.00
169, 2492.60, 60981.88, 3063.28, 27776.98, -18710.00, -2293.51, 10427.80, -49800.09, -10328.61, 35132.89, -2102.58, -8834.59, 0.00, 0.00, 0.00, 0.00, 0.00, 0.00, 0.00
170, 2492.60, 60981.88, 3063.28, 27776.98, -18710.00, -2293.51, 10427.80, -49800.09, -10323.60, 35145.93, -2087.90, -8872.19, 0.00, 0.00, 0.00, 0.00, 0.09, 0.35, 0.95
171, 2517.19, 61010.00, 3098.71, 27805.68, -18694.82, -2273.51, 10469.27, -49769.80, -10323.60, 35145.93, -2087.90, -8872.19, 0.00, 0.00, 0.00, 0.00, 0.00, 0.00, 0.00
172, 2517.19, 61010.00, 3098.71, 27805.68, -18694.82, -2273.51, 10469.27, -49769.80, -10333.41, 35132.71, -2102.34, -8872.93, 0.00, 0.00, 0.00, 0.00, 0.00, 0.00, 0.00
173, 2471.01, 60979.89, 3068.67, 27772.35, -18718.65, -2297.29, 10418.77, -49820.90, -10333.41, 35132.71, -2102.34, -8872.93, 0.00, 0.00, 0.00, 0.00, 0.00, 0.00, 0.00
174, 2471.01, 60979.89, 3068.67, 27772.35, -18718.65, -2297.29, 10418.77, -49820.90, -10333.88, 35124.83, -2118.43, -8933.34, 0.00, 0.00, 0.00, 0.00, 0.00, 0.00, 0.00
175, 2510.73, 60992.97, 3071.06, 27800.92, -18702.33, -2271.88, 10437.44, -49804.25, -10333.88, 35124.83, -2118.43, -8933.34, 0.00, 0.00, 0.00, 0.00, 0.00, 0.00, 0.00
176, 2510.73, 60992.97, 3071.06, 27800.92, -18702.33, -2271.88, 10437.44, -49804.25, -10332.65, 35126.37, -2109.27, -8869.84, 0.00, 0.00, 0.00, 0.00, 0.00, 0.00, 0.00
177, 2479.52, 60961.03, 3054.28, 27765.58, -18716.41, -2308.85, 10407.60, -49834.38, -10332.65, 35126.37, -2109.27, -8869.84, 0.00, 0.00, 0.00, 0.00, 0.00, 0.00, 0.00
178, 2479.52, 60961.03, 3054.28, 27765.58, -18716.41, -2308.85, 10407.60, -49834.38, -10341.39, 35116.42, -2134.35, -8888.95, 0.00, 0.00, 0.00, 0.00, 0.00, 0.00, 0.00
179, 2498.32, 60977.84, 3063.22, 27793.23, -18705.50, -2288.46, 10438.13, -49803.89, -10341.39, 35116.42, -2134.35, -8888.95, 0.00, 0.00, 0.00, 0.00, 0.00, 0.00, 0.00
180, 2498.32, 60977.84, 3063.22, 27793.23, -18705.50, -2288.46, 10438.13, -49803.89, -10336.25, 35138.66, -2125.09, -8855.76, 0.00, 0.00, 0.00, 0.00, 0.09, 0.35, 0.95
181, 2472.89, 60948.15, 3046.23, 27768.24, -18724.57, -2306.28, 10404.11, -49833.04, -10336.25, 35138.66, -2125.09, -8855.76, 0.00, 0.00, 0.00, 0.00, 0.00, 0.00, 0.00
182, 2472.89, 60948.15, 3046.23, 27768.24, -18724.57, -2306.28, 10404.11, -49833.04, -10338.96, 35109.05, -2146.28, -8866.60, 0.00, 0.00, 0.00, 0.00, 0.00, 0.00, 0.00
183, 2491.37, 60979.78, 3070.86, 27796.43, -18714.94, -2279.83, 10427.67, -49812.98, -10338.96, 35109.05, -2146.28, -8866.60, 0.00, 0.00, 0.00, 0.00, 0.00, 0.00, 0.00
184, 2491.37, 60979.78, 3070.86, 27796.43, -18714.94, -2279.83, 10427.67, -49812.98, -10342.82, 35127.20, -2122.54, -8912.13, 0.00, 0.00, 0.00, 0.00, 0.00, 0.00, 0.00
185, 2466.22, 60956.54, 3049.38, 27768.13, -18734.29, -2300.26, 10391.84, -49851.00, -10342.82, 35127.20, -2122.54, -8912.13, 0.00, 0.00, 0.00, 0.00, 0.00, 0.00, 0.00
186, 2466.22, 60956.54, 3049.38, 27768.13, -18734.29, -2300.26, 10391.84, -49851.00, -10350.09, 35089.71, -2155.49, -8878.25, 0.00, 0.00, 0.00, 0.00, 0.00, 0.00, 0.00
187, 2487.28, 60969.12, 3053.61, 27791.31, -18722.47, -2288.39, 10412.98, -49836.95, -10350.09, 35089.71, -2155.49, -8878.25, 0.00, 0.00, 0.00, 0.00, 0.00, 0.00, 0.00
188, 2487.28, 60969.12, 3053.61, 27791.31, -18722.47, -2288.39, 10412.98, -49836.95, -10350.18, 35130.75, -2133.23, -8935.40, 0.00, 0.00, 0.00, 0.00, 0.00, 0.00, 0.00
189, 2489.87, 60943.19, 3037.38, 27773.36, -18726.76, -2290.18, 10386.86, -49849.15, -10350.18, 35130.75, -2133.23, -8935.40, 0.00, 0.00, 0.00, 0.00, 0.00, 0.00, 0.00
190, 2489.87, 60943.19, 3037.38, 27773.36, -18726.76, -2290.18, 10386.86, -49849.15, -10344.97, 35103.61, -2159.56, -8858.93, 0.00, 0.00, 0.00, 0.00, 0.09, 0.35, 0.95
191, 2488.71, 60958.59, 3057.56, 27791.80, -18720.39, -2281.38, 10402.19, -49838.11, -10344.97, 35103.61, -2159.56, -8858.93, 0.00, 0.00, 0.00, 0.00, 0.00, 0.00, 0.00
192, 2488.71, 60958.59, 3057.56, 27791.80, -18720.39, -2281.38, 10402.19, -49838.11, -10347.96, 35122.41, -2132.24, -8930.17, 0.00, 0.00, 0.00, 0.00, 0.00, 0.00, 0.00
193, 2477.69, 60947.33, 3054.28, 27777.00, -18718.09, -2297.98, 10393.20, -49848.01, -10347.96, 35122.41, -2132.24, -8930.17, 0.00, 0.00, 0.00, 0.00, 0.00, 0.00, 0.00
194, 2477.69, 60947.33, 3054.28, 27777.00, -18718.09, -2297.98, 10393.20, -49848.01, -10346.11, 35100.08, -2164.36, -8885.27, 0.00, 0.00, 0.00, 0.00, 0.00, 0.00, 0.00
195, 2482.38, 60959.17, 3058.23, 27790.13, -18726.25, -2286.45, 10399.80, -49842.27, -10346.11, 35100.08, -2164.36, -8885.27, 0.00, 0.00, 0.00, 0.00, 0.00, 0.00, 0.00
196, 2482.38, 60959.17, 3058.23, 27790.13, -18726.25, -2286.45, 10399.80, -49842.27, -10338.02, 35144.41, -2132.07, -8914.59, 0.00, 0.00, 0.00, 0.00, 0.00, 0.00, 0.00
197, 2476.55, 60951.46, 3048.29, 27786.48, -18723.74, -2292.77, 10386.18, -49852.82, -10338.02, 35144.41, -2132.07, -8914.59, 0.00, 0.00, 0.00, 0.00, 0.00, 0.00, 0.00
198, 2476.55, 60951.46, 3048.29, 27786.48, -18723.74, -2292.77, 10386.18, -49852.82, -10360.12, 35083.92, -2173.89, -8876.68, 0.00, 0.00, 0.00, 0.00, 0.00, 0.00, 0.00
199, 2465.33, 60940.31, 3041.36, 27782.79, -18724.26, -2291.39, 10376.91, -49853.06, -10360.12, 35083.92, -2173.89, -8876.68, 0.00, 0.00, 0.00, 0.00, 0.09, 0.35, 0.95
200, 2465.33, 60940.31, 3041.36, 27782.79, -18724.26, -2291.39, 10376.91, -49853.06, -10352.81, 35125.00, -2150.86, -8921.41, 0.00, 0.00, 0.00, 0.00, 0.00, 0.00, 0.00
201, 2469.35, 60936.17, 3040.49, 27783.33, -18725.02, -2292.64, 10372.77, -49858.29, -10352.81, 35125.00, -2150.86, -8921.41, 0.00, 0.00, 0.00, 0.00, 0.00, 0.00, 0.00
202, 2469.35, 60936.17, 3040.49, 27783.33, -18725.02, -2292.64, 10372.77, -49858.29, -10360.39, 35081.78, -2183.81, -8899.46, 0.00, 0.00, 0.00, 0.00, 0.00, 0.00, 0.00
203, 2459.23, 60932.75, 3035.50, 27777.54, -18740.95, -2290.18, 10364.21, -49861.89, -10360.39, 35081.78, -2183.81, -8899.46, 0.00, 0.00, 0.00, 0.00, 0.00, 0.00, 0.00
204, 2459.23, 60932.75, 3035.50, 27777.54, -18740.95, -2290.18, 10364.21, -49861.89, -10351.50, 35128.13, -2158.40, -8931.82, 0.00, 0.00, 0.00, 0.00, 0.00, 0.00, 0.00
205, 2468.59, 60939.73, 3043.44, 27782.75, -18725.66, -2290.85, 10364.71, -49859.50, -10351.50, 35128.13, -2158.40, -8931.82, 0.00, 0.00, 0.00, 0.00, 0.00, 0.00, 0.00
206, 2468.59, 60939.73, 3043.44, 27782.75, -18725.66, -2290.85, 10364.71, -49859.50, -10363.32, 35086.16, -2187.52, -8873.44, 0.00, 0.00, 0.00, 0.00, 0.00, 0.00, 0.00
207, 2466.49, 60936.11, 3031.77, 27772.04, -18742.43, -2302.39, 10347.65, -49874.45, -10363.32, 35086.16, -2187.52, -8873.44, 0.00, 0.00, 0.00, 0.00, 0.00, 0.00, 0.00
208, 2466.49, 60936.11, 3031.77, 27772.04, -18742.43, -2302.39, 10347.65, -49874.45, -10355.41, 35110.63, -2161.39, -8941.39, 0.00, 0.00, 0.00, 0.00, 0.00, 0.00, 0.00
209, 2484.60, 60948.96, 3048.46, 27796.74, -18724.05, -2270.36, 10359.61, -49856.59, -10355.41, 35110.63, -2161.39, -8941.39, 0.00, 0.00, 0.00, 0.00, 0.09, 0.35, 0.94
210, 2484.60, 60948.96, 3048.46, 27796.74, -18724.05, -2270.36, 10359.61, -49856.59, -10362.69, 35094.45, -2183.18, -8871.00, 0.00, 0.00, 0.00, 0.00, 0.00, 0.00, 0.00
211, 2474.34, 60936.15, 3043.46, 27778.43, -18733.85, -2303.39, 10361.58, -49867.48, -10362.69, 35094.45, -2183.18, -8871.00, 0.00, 0.00, 0.00, 0.00, 0.00, 0.00, 0.00
212, 2474.34, 60936.15, 3043.46, 27778.43, -18733.85, -2303.39, 10361.58, -49867.48, -10355.67, 35118.93, -2166.87, -8917.72, 0.00, 0.00, 0.00, 0.00, 0.00, 0.00, 0.00
213, 2467.74, 60949.43, 3047.15, 27789.52, -18732.97, -2287.08, 10356.97, -49856.55, -10355.67, 35118.93, -2166.87, -8917.72, 0.00, 0.00, 0.00, 0.00, 0.00, 0.00, 0.00
214, 2467.74, 60949.43, 3047.15, 27789.52, -18732.97, -2287.08, 10356.97, -49856.55, -10369.02, 35079.88, -2190.07, -8883.41, 0.00, 0.00, 0.00, 0.00, 0.00, 0.00, 0.00
215, 2462.98, 60927.07, 3034.65, 27773.38, -18749.49, -2308.42, 10347.29, -49869.07, -10369.02, 35079.88, -2190.07, -8883.41, 0.00, 0.00, 0.00, 0.00, 0.00, 0.00, 0.00
216, 2462.98, 60927.07, 3034.65, 27773.38, -18749.49, -2308.42, 10347.29, -49869.07, -10357.35, 35110.52, -2182.42, -8923.67, 0.00, 0.00, 0.00, 0.00, 0.00, 0.00, 0.00
217, 2483.35, 60958.01, 3048.13, 27804.79, -18738.14, -2271.27, 10359.63, -49850.11, -10357.35, 35110.52, -2182.42, -8923.67, 0.00, 0.00, 0.00, 0.00, 0.00, 0.00, 0.00
218, 2483.35, 60958.01, 3048.13, 27804.79, -18738.14, -2271.27, 10359.63, -49850.11, -10365.29, 35091.75, -2193.04, -8891.39, 0.00, 0.00, 0.00, 0.00, 0.00, 0.00, 0.00
219, 2461.37, 60925.45, 3026.27, 27779.02, -18768.85, -2294.36, 10334.31, -49877.18, -10365.29, 35091.75, -2193.04, -8891.39, 0.00, 0.00, 0.00, 0.00, 0.09, 0.35, 0.95
220, 2461.37, 60925.45, 3026.27, 27779.02, -18768.85, -2294.36, 10334.31, -49877.18, -10360.32, 35106.09, -2193.11, -8900.29, 0.00, 0.00, 0.00, 0.00, 0.00, 0.00, 0.00
221, 2470.25, 60941.36, 3045.22, 27793.77, -18734.81, -2289.44, 10350.09, -49854.25, -10360.32, 35106.09, -2193.11, -8900.29, 0.00, 0.00, 0.00, 0.00, 0.00, 0.00, 0.00
222, 2470.25, 60941.36, 3045.22, 27793.77, -18734.81, -2289.44, 10350.09, -49854.25, -10371.16, 35090.89, -2203.79, -8928.74, 0.00, 0.00, 0.00, 0.00, 0.00, 0.00, 0.00
223, 2459.14, 60917.31, 3009.04, 27767.93, -18752.87, -2303.28, 10309.34, -49886.01, -10371.16, 35090.89, -2203.79, -8928.74, 0.00, 0.00, 0.00, 0.00, 0.00, 0.00, 0.00
224, 2459.14, 60917.31, 3009.04, 27767.93, -18752.87, -2303.28, 10309.34, -49886.01, -10370.61, 35087.72, -2212.42, -8895.86, 0.00, 0.00, 0.00, 0.00, 0.00, 0.00, 0.00
225, 2475.79, 60944.51, 3036.53, 27796.52, -18753.38, -2278.31, 10339.87, -49862.76, -10370.61, 35087.72, -2212.42, -8895.86, 0.00, 0.00, 0.00, 0.00, 0.00, 0.00, 0.00
226, 2475.79, 60944.51, 3036.53, 27796.52, -18753.38, -2278.31, 10339.87, -49862.76, -10359.12, 35098.63, -2193.09, -8905.94, 0.00, 0.00, 0.00, 0.00, 0.00, 0.00, 0.00
227, 2460.10, 60927.77, 3028.88, 27776.27, -18757.76, -2305.90, 10312.31, -49883.68, -10359.12, 35098.63, -2193.09, -8905.94, 0.00, 0.00, 0.00, 0.00, 0.00, 0.00, 0.00
228, 2460.10, 60927.77, 3028.88, 27776.27, -18757.76, -2305.90, 10312.31, -49883.68, -10364.84, 35083.99, -2213.02, -8901.89, 0.00, 0.00, 0.00, 0.00, 0.00, 0.00, 0.00
229, 2472.01, 60951.55, 3050.01, 27806.78, -18735.61, -2270.76, 10346.04, -49845.68, -10364.84, 35083.99, -2213.02, -8901.89, 0.00, 0.00, 0.00, 0.00, 0.09, 0.35, 0.95
230, 2472.01, 60951.55, 3050.01, 27806.78, -18735.61, -2270.76, 10346.04, -49845.68, -10367.86, 35105.92, -2198.29, -8912.24, 0.00, 0.00, 0.00, 0.00, 0.00, 0.00, 0.00
231, 2467.99, 60925.11, 3029.51, 27783.44, -18753.72, -2282.07, 10312.07, -49877.67, -10367.86, 35105.92, -2198.29, -8912.24, 0.00, 0.00, 0.00, 0.00, 0.00, 0.00, 0.00
232, 2467.99, 60925.11, 3029.51, 27783.44, -18753.72, -2282.07, 10312.07, -49877.67, -10364.84, 35093.64, -2222.12, -8887.66, 0.00, 0.00, 0.00, 0.00, 0.00, 0.00, 0.00
233, 2483.14, 60952.04, 3044.78, 27812.99, -18754.79, -2265.93, 10347.43, -49844.54, -10364.84, 35093.64, -2222.12, -8887.66, 0.00, 0.00, 0.00, 0.00, 0.00, 0.00, 0.00
234, 2483.14, 60952.04, 3044.78, 27812.99, -18754.79, -2265.93, 10347.43, -49844.54, -10373.40, 35101.20, -2208.06, -8925.65, 0.00, 0.00, 0.00, 0.00, 0.00, 0.00, 0.00
235, 2446.55, 60904.86, 3012.41, 27776.51, -18788.34, -2293.33, 10311.87, -49884.09, -10373.40, 35101.20, -2208.06, -8925.65, 0.00, 0.00, 0.00, 0.00, 0.00, 0.00, 0.00
236, 2446.55, 60904.86, 3012.41, 27776.51, -18788.34, -2293.33, 10311.87, -49884.09, -10388.80, 35055.60, -2253.84, -8883.92, 0.00, 0.00, 0.00, 0.00, 0.00, 0.00, 0.00
237, 2457.60, 60931.55, 3028.62, 27796.81, -18765.99, -2286.52, 10321.95, -49869.67, -10388.80, 35055.60, -2253.84, -8883.92, 0.00, 0.00, 0.00, 0.00, 0.00, 0.00, 0.00
238, 2457.60, 60931.55, 3028.62, 27796.81, -18765.99, -2286.52, 10321.95, -49869.67, -10376.22, 35097.78, -2217.23, -8919.98, 0.00, 0.00, 0.00, 0.00, 0.09, 0.35, 0.95
239, 2462.20, 60921.49, 3018.78, 27787.22, -18768.24, -2268.50, 10295.21, -49880.15, -10376.22, 35097.78, -2217.23, -8919.98, 0.00, 0.00, 0.00, 0.00, 0.00, 0.00, 0.00
240, 2462.20, 60921.49, 3018.78, 27787.22, -18768.24, -2268.50, 10295.21, -49880.15, -10378.65, 35070.60, -2250.95, -8885.80, 0.00, 0.00, 0.00, 0.00, 0.00, 0.00, 0.00
241, 2470.58, 60928.84, 3023.92, 27798.51, -18762.77, -2284.26, 10320.96, -49865.71, -10378.65, 35070.60, -2250.95, -8885.80, 0.00, 0.00, 0.00, 0.00, 0.00, 0.00, 0.00
242, 2470.58, 60928.84, 3023.92, 27798.51, -18762.77, -2284.26, 10320.96, -49865.71, -10380.42, 35104.42, -2219.37, -8952.21, 0.00, 0.00, 0.00, 0.00, 0.00, 0.00, 0.00
243, 2463.81, 60922.05, 3025.62, 27787.17, -18772.60, -2299.28, 10312.16, -49875.41, -10380.42, 35104.42, -2219.37, -8952.21, 0.00, 0.00, 0.00, 0.00, 0.00, 0.00, 0.00
244, 2463.81, 60922.05, 3025.62, 27787.17, -18772.60, -2299.28, 10312.16, -49875.41, -10386.81, 35045.97, -2256.81, -8876.39, 0.00, 0.00, 0.00, 0.00, 0.00, 0.00, 0.00
245, 2465.62, 60929.82, 3025.38, 27797.21, -18786.30, -2284.86, 10317.14, -49870.45, -10386.81, 35045.97, -2256.81, -8876.39, 0.00, 0.00, 0.00, 0.00, 0.00, 0.00, 0.00
246, 2465.62, 60929.82, 3025.38, 27797.21, -18786.30, -2284.86, 10317.14, -49870.45, -10369.53, 35105.45, -2219.42, -8937.52, 0.00, 0.00, 0.00, 0.00, 0.00, 0.00, 0.00
247, 2470.81, 60934.50, 3030.34, 27799.94, -18776.98, -2273.93, 10322.39, -49860.32, -10369.53, 35105.45, -2219.42, -8937.52, 0.00, 0.00, 0.00, 0.00, 0.00, 0.00, 0.00
248, 2470.81, 60934.50, 3030.34, 27799.94, -18776.98, -2273.93, 10322.39, -49860.32, -10374.74, 35065.44, -2248.72, -8876.64, 0.00, 0.00, 0.00, 0.00, 0.09, 0.34, 0.95
249, 2468.44, 60930.41, 3030.74, 27794.75, -18770.23, -2286.02, 10305.85, -49869.11, -10374.74, 35065.44, -2248.72, -8876.64, 0.00, 0.00, 0.00, 0.00, 0.00, 0.00, 0.00
250, 2468.44, 60930.41, 3030.74, 27794.75, -18770.23, -2286.02, 10305.85, -49869.11, -10368.39, 35097.33, -2218.63, -8925.39, 0.00, 0.00, 0.00, 0.00, 0.00, 0.00, 0.00
251, 2474.99, 60938.97, 3038.72, 27803.63, -18773.59, -2276.59, 10316.16, -49860.53, -10368.39, 35097.33, -2218.63, -8925.39, 0.00, 0.00, 0.00, 0.00, 0.00, 0.00, 0.00
252, 2474.99, 60938.97, 3038.72, 27803.63, -18773.59, -2276.59, 10316.16, -49860.53, -10375.66, 35070.98, -2250.19, -8871.99, 0.00, 0.00, 0.00, 0.00, 0.00, 0.00, 0.00
253, 2449.57, 60929.51, 3027.66, 27793.43, -18779.91, -2274.89, 10303.71, -49871.90, -10375.66, 35070.98, -2250.19, -8871.99, 0.00, 0.00, 0.00, 0.00, 0.00, 0.00, 0.00
254, 2449.57, 60929.51, 3027.66, 27793.43, -18779.91, -2274.89, 10303.71, -49871.90, -10377.49, 35092.98, -2230.57, -8924.67, 0.00, 0.00, 0.00, 0.00, 0.00, 0.00, 0.00
255, 2482.23, 60945.43, 3033.71, 27806.80, -18774.55, -2278.13, 10325.01, -49854.07, -10377.49, 35092.98, -2230.57, -8924.67, 0.00, 0.00, 0.00, 0.00, 0.00, 0.00, 0.00
0, 2482.23, 60945.43, 3033.71, 27806.80, -18774.55, -2278.13, 10325.01, -49854.07, -10375.14, 35071.45, -2250.84, -8851.11, 0.00, 0.00, 0.00, 0.00, 0.00, 0.00, 0.00
1, 2469.89, 60927.79, 3020.55, 27786.59, -18779.29, -2293.36, 10294.03, -49879.12, -10375.14, 35071.45, -2250.84, -8851.11, 0.00, 0.00, 0.00, 0.00, 0.00, 0.00, 0.00
2, 2469.89, 60927.79, 3020.55, 27786.59, -18779.29, -2293.36, 10294.03, -49879.12, -10359.27, 35100.84, -2231.64, -8937.30, 0.00, 0.00, 0.00, 0.00, 0.10, 0.34, 0.95
3, 2479.77, 60950.50, 3041.65, 27811.16, -18768.92, -2265.66, 10315.53, -49860.26, -10359.27, 35100.84, -2231.64, -8937.30, 0.00, 0.00, 0.00, 0.00, 0.00, 0.00, 0.00
4, 2479.77, 60950.50, 3041.65, 27811.16, -18768.92, -2265.66, 10315.53, -49860.26, -10386.21, 35064.21, -2255.34, -8865.33, 0.00, 0.00, 0.00, 0.00, 0.00, 0.00, 0.00
5, 2448.59, 60923.45, 3024.77, 27784.47, -18800.32, -2298.68, 10305.38, -49877.85, -10386.21, 35064.21, -2255.34, -8865.33, 0.00, 0.00, 0.00, 0.00, 0.00, 0.00, 0.00
6, 2448.59, 60923.45, 3024.77, 27784.47, -18800.32, -2298.68, 10305.38, -49877.85, -10373.85, 35096.39, -2247.91, -8896.31, 0.00, 0.00, 0.00, 0.00, 0.00, 0.00, 0.00
7, 2469.62, 60949.98, 3036.48, 27816.16, -18763.37, -2268.84, 10331.98, -49845.30, -10373.85, 35096.39, -2247.91, -8896.31, 0.00, 0.00, 0.00, 0.00, 0.00, 0.00, 0.00
8, 2469.62, 60949.98, 3036.48, 27816.16, -18763.37, -2268.84, 10331.98, -49845.30, -10381.13, 35064.84, -2256.36, -8886.96, 0.00, 0.00, 0.00, 0.00, 0.00, 0.00, 0.00
9, 2461.35, 60920.32, 3011.09, 27785.41, -18798.44, -2291.05, 10298.28, -49880.57, -10381.13, 35064.84, -2256.36, -8886.96, 0.00, 0.00, 0.00, 0.00, 0.00, 0.00, 0.00
10, 2461.35, 60920.32, 3011.09, 27785.41, -18798.44, -2291.05, 10298.28, -49880.57, -10378.67, 35081.62, -2258.58, -8920.22, 0.00, 0.00, 0.00, 0.00, 0.00, 0.00, 0.00
11, 2466.14, 60943.68, 3038.79, 27817.82, -18783.04, -2264.66, 10322.86, -49857.26, -10378.67, 35081.62, -2258.58, -8920.22, 0.00, 0.00, 0.00, 0.00, 0.00, 0.00, 0.00
12, 2466.14, 60943.68, 3038.79, 27817.82, -18783.04, -2264.66, 10322.86, -49857.26, -10382.09, 35072.41, -2261.37, -8885.18, 0.00, 0.00, 0.00, 0.00, 0.09, 0.35, 0.95
13, 2460.73, 60922.54, 3020.97, 27796.52, -18775.22, -2279.90, 10298.79, -49870.90, -10382.09, 35072.41, -2261.37, -8885.18, 0.00, 0.00, 0.00, 0.00, 0.00, 0.00, 0.00
14, 2460.73, 60922.54, 3020.97, 27796.52, -18775.22, -2279.90, 10298.79, -49870.90, -10365.53, 35083.92, -2259.27, -8896.69, 0.00, 0.00, 0.00, 0.00, 0.00, 0.00, 0.00
15, 2472.06, 60942.05, 3033.09, 27810.38, -18770.28, -2283.50, 10325.01, -49850.76, -10365.53, 35083.92, -2259.27, -8896.69, 0.00, 0.00, 0.00, 0.00, 0.00, 0.00, 0.00
16, 2472.06, 60942.05, 3033.09, 27810.38, -18770.28, -2283.50, 10325.01, -49850.76, -10380.62, 35071.70, -2269.46, -8920.04, 0.00, 0.00, 0.00, 0.00, 0.00, 0.00, 0.00
17, 2457.80, 60921.42, 3014.53, 27794.79, -18790.96, -2282.52, 10293.51, -49876.57, -10380.62, 35071.70, -2269.46, -8920.04, 0.00, 0.00, 0.00, 0.00, 0.00, 0.00, 0.00
18, 2457.80, 60921.42, 3014.53, 27794.79, -18790.96, -2282.52, 10293.51, -49876.57, -10378.79, 35063.92, -2275.99, -8872.70, 0.00, 0.00, 0.00, 0.00, 0.00, 0.00, 0.00
19, 2473.85, 60946.19, 3034.03, 27817.46, -18779.96, -2277.44, 10332.34, -49852.41, -10378.79, 35063.92, -2275.99, -8872.70, 0.00, 0.00, 0.00, 0.00, 0.00, 0.00, 0.00
20, 2473.85, 60946.19, 3034.03, 27817.46, -18779.96, -2277.44, 10332.34, -49852.41, -10376.51, 35080.68, -2264.66, -8901.98, 0.00, 0.00, 0.00, 0.00, 0.00, 0.00, 0.00
21, 2450.91, 60913.84, 3014.18, 27787.60, -18795.80, -2296.69, 10295.03, -49882.18, -10376.51, 35080.68, -2264.66, -8901.98, 0.00, 0.00, 0.00, 0.00, 0.09, 0.35, 0.95
22, 2450.91, 60913.84, 3014.18, 27787.60, -18795.80, -2296.69, 10295.03, -49882.18, -10378.34, 35062.64, -2283.59, -8891.52, 0.00, 0.00, 0.00, 0.00, 0.00, 0.00, 0.00
23, 2465.24, 60944.69, 3034.16, 27809.93, -18776.67, -2273.42, 10320.14, -49856.93, -10378.34, 35062.64, -2283.59, -8891.52, 0.00, 0.00, 0.00, 0.00, 0.00, 0.00, 0.00
24, 2465.24, 60944.69, 3034.16, 27809.93, -18776.67, -2273.42, 10320.14, -49856.93, -10374.52, 35087.90, -2260.34, -8930.24, 0.00, 0.00, 0.00, 0.00, 0.00, 0.00, 0.00
25, 2459.54, 60920.82, 3016.70, 27796.56, -18782.82, -2274.27, 10296.49, -49877.91, -10374.52, 35087.90, -2260.34, -8930.24, 0.00, 0.00, 0.00, 0.00, 0.00, 0.00, 0.00
26, 2459.54, 60920.82, 3016.70, 27796.56, -18782.82, -2274.27, 10296.49, -49877.91, -10380.51, 35052.30, -2289.82, -8851.22, 0.00, 0.00, 0.00, 0.00, 0.00, 0.00, 0.00
27, 2467.88, 60942.63, 3030.52, 27808.18, -18776.52, -2284.24, 10321.72, -49858.94, -10380.51, 35052.30, -2289.82, -8851.22, 0.00, 0.00, 0.00, 0.00, 0.00, 0.00, 0.00
28, 2467.88, 60942.63, 3030.52, 27808.18, -18776.52, -2284.24, 10321.72, -49858.94, -10377.51, 35090.36, -2267.47, -8918.19, 0.00, 0.00, 0.00, 0.00, 0.00, 0.00, 0.00
29, 2458.49, 60929.51, 3025.20, 27799.60, -18793.68, -2283.52, 10301.05, -49886.88, -10377.51, 35090.36, -2267.47, -8918.19, 0.00, 0.00, 0.00, 0.00, 0.00, 0.00, 0.00
30, 2458.49, 60929.51, 3025.20, 27799.60, -18793.68, -2283.52, 10301.05, -49886.88, -10389.90, 35043.55, -2298.90, -8884.95, 0.00, 0.00, 0.00, 0.00, 0.00, 0.00, 0.00
31, 2465.26, 60932.33, 3024.73, 27807.49, -18800.16, -2282.69, 10318.10, -49869.24, -10389.90, 35043.55, -2298.90, -8884.95, 0.00, 0.00, 0.00, 0.00, 0.09, 0.35, 0.95
32, 2465.26, 60932.33, 3024.73, 27807.49, -18800.16, -2282.69, 10318.10, -49869.24, -10386.81, 35078.45, -2272.79, -8907.88, 0.00, 0.00, 0.00, 0.00, 0.00, 0.00, 0.00
33, 2449.33, 60920.04, 3014.71, 27790.95, -18798.38, -2294.76, 10304.56, -49880.89, -10386.81, 35078.45, -2272.79, -8907.88, 0.00, 0.00, 0.00, 0.00, 0.00, 0.00, 0.00
34, 2449.33, 60920.04, 3014.71, 27790.95, -18798.38, -2294.76, 10304.56, -49880.89, -10388.73, 35038.57, -2314.41, -8864.50, 0.00, 0.00, 0.00, 0.00, 0.00, 0.00, 0.00
35, 2457.24, 60929.13, 3021.29, 27802.71, -18782.82, -2279.07, 10309.23, -49872.44, -10388.73, 35038.57, -2314.41, -8864.50, 0.00, 0.00, 0.00, 0.00, 0.00, 0.00, 0.00
36, 2457.24, 60929.13, 3021.29, 27802.71, -18782.82, -2279.07, 10309.23, -49872.44, -10365.38, 35098.32, -2262.51, -8913.23, 0.00, 0.00, 0.00, 0.00, 0.00, 0.00, 0.00
37, 2494.05, 60945.40, 3036.31, 27819.85, -18763.69, -2269.04, 10334.22, -49847.12, -10365.38, 35098.32, -2262.51, -8913.23, 0.00, 0.00, 0.00, 0.00, 0.00, 0.00, 0.00
38, 2494.05, 60945.40, 3036.31, 27819.85, -18763.69, -2269.04, 10334.22, -49847.12, -10372.30, 35052.47, -2299.12, -8847.56, 0.00, 0.00, 0.00, 0.00, 0.00, 0.00, 0.00
39, 2466.87, 60932.60, 3028.06, 27805.23, -18787.56, -2274.67, 10327.11, -49856.73, -10372.30, 35052.47, -2299.12, -8847.56, 0.00, 0.00, 0.00, 0.00, 0.00, 0.00, 0.00
40, 2466.87, 60932.60, 3028.06, 27805.23, -18787.56, -2274.67, 10327.11, -49856.73, -10361.24, 35111.15, -2262.20, -8924.85, 0.00, 0.00, 0.00, 0.00, 0.00, 0.00, 0.00
41, 2471.88, 60946.32, 3042.88, 27816.83, -18764.04, -2263.65, 10336.05, -49846.07, -10361.24, 35111.15, -2262.20, -8924.85, 0.00, 0.00, 0.00, 0.00, 0.09, 0.35, 0.95
42, 2471.88, 60946.32, 3042.88, 27816.83, -18764.04, -2263.65, 10336.05, -49846.07, -10382.23, 35048.43, -2303.28, -8834.66, 0.00, 0.00, 0.00, 0.00, 0.00, 0.00, 0.00
43, 2474.43, 60943.57, 3031.90, 27811.58, -18765.88, -2266.49, 10333.84, -49849.73, -10382.23, 35048.43, -2303.28, -8834.66, 0.00, 0.00, 0.00, 0.00, 0.00, 0.00, 0.00
44, 2474.43, 60943.57, 3031.90, 27811.58, -18765.88, -2266.49, 10333.84, -49849.73, -10357.19, 35107.37, -2263.36, -8897.00, 0.00, 0.00, 0.00, 0.00, 0.00, 0.00, 0.00
45, 2478.61, 60947.75, 3044.51, 27820.68, -18766.59, -2264.48, 10349.89, -49841.30, -10357.19, 35107.37, -2263.36, -8897.00, 0.00, 0.00, 0.00, 0.00, 0.00, 0.00, 0.00
46, 2478.61, 60947.75, 3044.51, 27820.68, -18766.59, -2264.48, 10349.89, -49841.30, -10386.70, 35051.29, -2303.12, -8865.35, 0.00, 0.00, 0.00, 0.00, 0.00, 0.00, 0.00
47, 2478.88, 60938.21, 3037.45, 27818.94, -18773.59, -2257.66, 10343.38, -49848.05, -10386.70, 35051.29, -2303.12, -8865.35, 0.00, 0.00, 0.00, 0.00, 0.00, 0.00, 0.00
48, 2478.88, 60938.21, 3037.45, 27818.94, -18773.59, -2257.66, 10343.38, -49848.05, -10382.63, 35078.65, -2283.61, -8912.09, 0.00, 0.00, 0.00, 0.00, 0.00, 0.00, 0.00
49, 2476.33, 60945.89, 3037.98, 27820.05, -18780.18, -2268.64, 10329.57, -49865.78, -10382.63, 35078.65, -2283.61, -8912.09, 0.00, 0.00, 0.00, 0.00, 0.00, 0.00, 0.00
50, 2476.33, 60945.89, 3037.98, 27820.05, -18780.18, -2268.64, 10329.57, -49865.78, -10376.39, 35048.41, -2298.74, -8865.93, 0.00, 0.00, 0.00, 0.00, 0.00, 0.00, 0.00
51, 2455.79, 60921.67, 3019.43, 27796.88, -18783.11, -2284.01, 10317.68, -49874.36, -10376.39, 35048.41, -2298.74, -8865.93, 0.00, 0.00, 0.00, 0.00, 0.09, 0.35, 0.95
52, 2455.79, 60921.67, 3019.43, 27796.88, -18783.11, -2284.01, 10317.68, -49874.36, -10382.14, 35061.06, -2301.78, -8938.73, 0.00, 0.00, 0.00, 0.00, 0.00, 0.00, 0.00
53, 2483.48, 60954.41, 3050.07, 27832.84, -18758.12, -2250.93, 10349.59, -49846.64, -10382.14, 35061.06, -2301.78, -8938.73, 0.00, 0.00, 0.00, 0.00, 0.00, 0.00, 0.00
54, 2483.48, 60954.41, 3050.07, 27832.84, -18758.12, -2250.93, 10349.59, -49846.64, -10379.50, 35060.21, -2294.47, -8862.49, 0.00, 0.00, 0.00, 0.00, 0.00, 0.00, 0.00
55, 2466.65, 60936.22, 3030.58, 27805.03, -18795.76, -2274.22, 10320.83, -49878.27, -10379.50, 35060.21, -2294.47, -8862.49, 0.00, 0.00, 0.00, 0.00, 0.00, 0.00, 0.00
56, 2466.65, 60936.22, 3030.58, 27805.03, -18795.76, -2274.22, 10320.83, -49878.27, -10389.45, 35048.54, -2297.42, -8907.95, 0.00, 0.00, 0.00, 0.00, 0.00, 0.00, 0.00
57, 2473.11, 60949.50, 3040.13, 27818.31, -18769.14, -2275.54, 10340.21, -49858.87, -10389.45, 35048.54, -2297.42, -8907.95, 0.00, 0.00, 0.00, 0.00, 0.00, 0.00, 0.00
58, 2473.11, 60949.50, 3040.13, 27818.31, -18769.14, -2275.54, 10340.21, -49858.87, -10397.76, 35030.10, -2301.40, -8914.64, 0.00, 0.00, 0.00, 0.00, 0.00, 0.00, 0.00
59, 2470.67, 60934.21, 3035.57, 27807.63, -18784.83, -2264.63, 10315.46, -49887.26, -10397.76, 35030.10, -2301.40, -8914.64, 0.00, 0.00, 0.00, 0.00, 0.00, 0.00, 0.00
60, 2470.67, 60934.21, 3035.57, 27807.63, -18784.83, -2264.63, 10315.46, -49887.26, -10392.51, 35038.30, -2299.50, -8915.86, 0.00, 0.00, 0.00, 0.00, 0.09, 0.35, 0.96
61, 2475.46, 60951.30, 3043.15, 27812.92, -18775.71, -2288.93, 10338.40, -49865.98, -10392.51, 35038.30, -2299.50, -8915.86, 0.00, 0.00, 0.00, 0.00, 0.00, 0.00, 0.00
62, 2475.46, 60951.30, 3043.15, 27812.92, -18775.71, -2288.93, 10338.40, -49865.98, -10391.12, 35036.70, -2299.44, -8916.13, 0.00, 0.00, 0.00, 0.00, 0.00, 0.00, 0.00
63, 2468.97, 60933.38, 3032.44, 27797.19, -18784.72, -2288.80, 10322.01, -49878.86, -10391.12, 35036.70, -2299.44, -8916.13, 0.00, 0.00, 0.00, 0.00, 0.00, 0.00, 0.00
64, 2468.97, 60933.38, 3032.44, 27797.19, -18784.72, -2288.80, 10322.01, -49878.86, -10386.54, 35038.50, -2306.90, -8896.26, 0.00, 0.00, 0.00, 0.00, 0.00, 0.00, 0.00
65, 2480.04, 60952.09, 3042.05, 27814.98, -18781.66, -2274.58, 10331.80, -49875.03, -10386.54, 35038.50, -2306.90, -8896.26, 0.00, 0.00, 0.00, 0.00, 0.00, 0.00, 0.00
66, 2480.04, 60952.09, 3042.05, 27814.98, -18781.66, -2274.58, 10331.80, -49875.03, -10389.43, 35036.83, -2302.01, -8930.48, 0.00, 0.00, 0.00, 0.00, 0.00, 0.00, 0.00
67, 2460.57, 60930.65, 3024.35, 27794.28, -18792.88, -2291.50, 10308.98, -49894.97, -10389.43, 35036.83, -2302.01, -8930.48, 0.00, 0.00, 0.00, 0.00, 0.00, 0.00, 0.00
68, 2460.57, 60930.65, 3024.35, 27794.28, -18792.88, -2291.50, 10308.98, -49894.97, -10393.20, 35025.05, -2323.42, -8922.93, 0.00, 0.00, 0.00, 0.00, 0.00, 0.00, 0.00
69, 2484.96, 60953.96, 3044.42, 27820.39, -18779.69, -2267.92, 10340.05, -49871.95, -10393.20, 35025.05, -2323.42, -8922.93, 0.00, 0.00, 0.00, 0.00, 0.00, 0.00, 0.00
70, 2484.96, 60953.96, 3044.42, 27820.39, -18779.69, -2267.92, 10340.05, -49871.95, -10400.78, 35028.42, -2307.21, -8909.41, 0.00, 0.00, 0.00, 0.00, 0.09, 0.35, 0.95
71, 2468.91, 60922.65, 3013.53, 27789.16, -18803.07, -2292.19, 10300.13, -49902.95, -10400.78, 35028.42, -2307.21, -8909.41, 0.00, 0.00, 0.00, 0.00, 0.00, 0.00, 0.00
72, 2468.91, 60922.65, 3013.53, 27789.16, -18803.07, -2292.19, 10300.13, -49902.95, -10395.97, 35017.61, -2331.09, -8905.09, 0.00, 0.00, 0.00, 0.00, 0.00, 0.00, 0.00
73, 2490.03, 60963.40, 3053.16, 27818.96, -18772.78, -2273.82, 10350.80, -49855.00, -10395.97, 35017.61, -2331.09, -8905.09, 0.00, 0.00, 0.00, 0.00, 0.00, 0.00, 0.00
74, 2490.03, 60963.40, 3053.16, 27818.96, -18772.78, -2273.82, 10350.80, -49855.00, -10380.46, 35064.05, -2299.93, -8946.82, 0.00, 0.00, 0.00, 0.00, 0.00, 0.00, 0.00
75, 2477.31, 60942.32, 3031.63, 27799.40, -18796.12, -2288.55, 10322.35, -49883.06, -10380.46, 35064.05, -2299.93, -8946.82, 0.00, 0.00, 0.00, 0.00, 0.00, 0.00, 0.00
76, 2477.31, 60942.32, 3031.63, 27799.40, -18796.12, -2288.55, 10322.35, -49883.06, -10387.32, 35015.19, -2327.38, -8915.26, 0.00, 0.00, 0.00, 0.00, 0.00, 0.00, 0.00
77, 2478.79, 60948.27, 3039.28, 27805.12, -18804.10, -2281.78, 10323.87, -49887.19, -10387.32, 35015.19, -2327.38, -8915.26, 0.00, 0.00, 0.00, 0.00, 0.00, 0.00, 0.00
78, 2478.79, 60948.27, 3039.28, 27805.12, -18804.10, -2281.78, 10323.87, -49887.19, -10404.42, 35031.13, -2316.58, -8923.13, 0.00, 0.00, 0.00, 0.00, 0.00, 0.00, 0.00
79, 2477.49, 60933.02, 3023.83, 27791.78, -18797.12, -2290.16, 10320.38, -49885.83, -10404.42, 35031.13, -2316.58, -8923.13, 0.00, 0.00, 0.00, 0.00, 0.00, 0.00, 0.00
80, 2477.49, 60933.02, 3023.83, 27791.78, -18797.12, -2290.16, 10320.38, -49885.83, -10402.10, 35006.77, -2341.41, -8899.75, 0.00, 0.00, 0.00, 0.00, 0.09, 0.35, 0.95
81, 2475.50, 60950.68, 3040.51, 27805.55, -18781.75, -2277.98, 10326.46, -49876.89, -10402.10, 35006.77, -2341.41, -8899.75, 0.00, 0.00, 0.00, 0.00, 0.00, 0.00, 0.00
82, 2475.50, 60950.68, 3040.51, 27805.55, -18781.75, -2277.98, 10326.46, -49876.89, -10389.27, 35050.17, -2305.07, -8926.82, 0.00, 0.00, 0.00, 0.00, 0.00, 0.00, 0.00
83, 2477.80, 60944.06, 3036.66, 27804.32, -18806.98, -2278.40, 10320.09, -49887.17, -10389.27, 35050.17, -2305.07, -8926.82, 0.00, 0.00, 0.00, 0.00, 0.00, 0.00, 0.00
84, 2477.80, 60944.06, 3036.66, 27804.32, -18806.98, -2278.40, 10320.09, -49887.17, -10388.53, 35018.19, -2333.88, -8883.41, 0.00, 0.00, 0.00, 0.00, 0.00, 0.00, 0.00
85, 2477.82, 60952.38, 3037.83, 27799.49, -18797.19, -2294.74, 10342.08, -49866.27, -10388.53, 35018.19, -2333.88, -8883.41, 0.00, 0.00, 0.00, 0.00, 0.00, 0.00, 0.00
86, 2477.82, 60952.38, 3037.83, 27799.49, -18797.19, -2294.74, 10342.08, -49866.27, -10389.00, 35050.30, -2302.12, -8952.95, 0.00, 0.00, 0.00, 0.00, 0.00, 0.00, 0.00
87, 2479.88, 60942.81, 3034.16, 27801.39, -18786.30, -2282.54, 10337.08, -49865.80, -10389.00, 35050.30, -2302.12, -8952.95, 0.00, 0.00, 0.00, 0.00, 0.00, 0.00, 0.00
88, 2479.88, 60942.81, 3034.16, 27801.39, -18786.30, -2282.54, 10337.08, -49865.80, -10399.06, 35005.82, -2352.52, -8905.65, 0.00, 0.00, 0.00, 0.00, 0.00, 0.00, 0.00
89, 2468.64, 60938.27, 3030.90, 27801.86, -18804.12, -2285.96, 10331.02, -49874.63, -10399.06, 35005.82, -2352.52, -8905.65, 0.00, 0.00, 0.00, 0.00, 0.00, 0.00, 0.00
90, 2468.64, 60938.27, 3030.90, 27801.86, -18804.12, -2285.96, 10331.02, -49874.63, -10379.17, 35059.13, -2309.81, -8917.29, 0.00, 0.00, 0.00, 0.00, 0.09, 0.35, 0.95
91, 2477.76, 60940.91, 3037.65, 27802.89, -18794.73, -2274.56, 10329.39, -49871.90, -10379.17, 35059.13, -2309.81, -8917.29, 0.00, 0.00, 0.00, 0.00, 0.00, 0.00, 0.00
92, 2477.76, 60940.91, 3037.65, 27802.89, -18794.73, -2274.56, 10329.39, -49871.90, -10395.04, 35011.57, -2356.41, -8893.89, 0.00, 0.00, 0.00, 0.00, 0.00, 0.00, 0.00
93, 2457.06, 60919.34, 3018.92, 27783.31, -18815.23, -2301.07, 10326.30, -49878.14, -10395.04, 35011.57, -2356.41, -8893.89, 0.00, 0.00, 0.00, 0.00, 0.00, 0.00, 0.00
94, 2457.06, 60919.34, 3018.92, 27783.31, -18815.23, -2301.07, 10326.30, -49878.14, -10392.58, 35048.41, -2328.00, -8981.58, 0.00, 0.00, 0.00, 0.00, 0.00, 0.00, 0.00
95, 2470.58, 60942.68, 3041.63, 27811.09, -18794.06, -2274.94, 10352.84, -49854.27, -10392.58, 35048.41, -2328.00, -8981.58, 0.00, 0.00, 0.00, 0.00, 0.00, 0.00, 0.00
96, 2470.58, 60942.68, 3041.63, 27811.09, -18794.06, -2274.94, 10352.84, -49854.27, -10393.36, 35012.38, -2355.70, -8852.25, 0.00, 0.00, 0.00, 0.00, 0.00, 0.00, 0.00
97, 2443.31, 60914.98, 3008.63, 27782.75, -18817.87, -2290.36, 10312.63, -49882.14, -10393.36, 35012.38, -2355.70, -8852.25, 0.00, 0.00, 0.00, 0.00, 0.00, 0.00, 0.00
98, 2443.31, 60914.98, 3008.63, 27782.75, -18817.87, -2290.36, 10312.63, -49882.14, -10385.74, 35044.09, -2340.99, -8960.63, 0.00, 0.00, 0.00, 0.00, 0.00, 0.00, 0.00
99, 2464.15, 60938.09, 3036.66, 27806.15, -18789.72, -2284.48, 10351.36, -49857.75, -10385.74, 35044.09, -2340.99, -8960.63, 0.00, 0.00, 0.00, 0.00, 0.09, 0.35, 0.95
100, 2464.15, 60938.09, 3036.66, 27806.15, -18789.72, -2284.48, 10351.36, -49857.75, -10397.96, 35017.47, -2353.88, -8911.01, 0.00, 0.00, 0.00, 0.00, 0.00, 0.00, 0.00
101, 2461.75, 60917.35, 3015.34, 27776.36, -18813.37, -2304.04, 10319.51, -49881.96, -10397.96, 35017.47, -2353.88, -8911.01, 0.00, 0.00, 0.00, 0.00, 0.00, 0.00, 0.00
102, 2461.75, 60917.35, 3015.34, 27776.36, -18813.37, -2304.04, 10319.51, -49881.96, -10402.08, 35023.75, -2347.47, -8948.05, 0.00, 0.00, 0.00, 0.00, 0.00, 0.00, 0.00
103, 2490.83, 60952.71, 3048.08, 27809.84, -18795.76, -2273.02, 10348.10, -49857.13, -10402.08, 35023.75, -2347.47, -8948.05, 0.00, 0.00, 0.00, 0.00, 0.00, 0.00, 0.00
104, 2490.83, 60952.71, 3048.08, 27809.84, -18795.76, -2273.02, 10348.10, -49857.13, -10382.45, 35038.95, -2340.21, -8917.14, 0.00, 0.00, 0.00, 0.00, 0.00, 0.00, 0.00
105, 2468.84, 60932.30, 3030.76, 27781.70, -18811.54, -2293.80, 10327.04, -49873.13, -10382.45, 35038.95, -2340.21, -8917.14, 0.00, 0.00, 0.00, 0.00, 0.00, 0.00, 0.00
106, 2468.84, 60932.30, 3030.76, 27781.70, -18811.54, -2293.80, 10327.04, -49873.13, -10390.12, 35033.88, -2343.87, -8962.40, 0.00, 0.00, 0.00, 0.00, 0.00, 0.00, 0.00
107, 2482.68, 60961.32, 3047.62, 27813.35, -18791.65, -2267.49, 10356.17, -49845.04, -10390.12, 35033.88, -2343.87, -8962.40, 0.00, 0.00, 0.00, 0.00, 0.00, 0.00, 0.00
108, 2482.68, 60961.32, 3047.62, 27813.35, -18791.65, -2267.49, 10356.17, -49845.04, -10386.50, 35032.36, -2338.31, -8918.19, 0.00, 0.00, 0.00, 0.00, 0.00, 0.00, 0.00
109, 2472.62, 60937.63, 3029.62, 27786.86, -18812.97, -2281.00, 10313.83, -49887.64, -10386.50, 35032.36, -2338.31, -8918.19, 0.00, 0.00, 0.00, 0.00, 0.09, 0.35, 0.96
110, 2472.62, 60937.63, 3029.62, 27786.86, -18812.97, -2281.00, 10313.83, -49887.64, -10395.66, 35021.79, -2352.39, -8953.73, 0.00, 0.00, 0.00, 0.00, 0.00, 0.00, 0.00
111, 2484.55, 60963.64, 3048.24, 27797.95, -18803.63, -2300.26, 10359.59, -49849.77, -10395.66, 35021.79, -2352.39, -8953.73, 0.00, 0.00, 0.00, 0.00, 0.00, 0.00, 0.00
112, 2484.55, 60963.64, 3048.24, 27797.95, -18803.63, -2300.26, 10359.59, -49849.77, -10393.83, 35032.78, -2337.41, -8955.47, 0.00, 0.00, 0.00, 0.00, 0.00, 0.00, 0.00
113, 2458.87, 60922.49, 3025.35, 27772.00, -18810.33, -2306.90, 10321.54, -49875.57, -10393.83, 35032.78, -2337.41, -8955.47, 0.00, 0.00, 0.00, 0.00, 0.00, 0.00, 0.00
114, 2458.87, 60922.49, 3025.35, 27772.00, -18810.33, -2306.90, 10321.54, -49875.57, -10395.26, 35017.88, -2359.18, -8950.93, 0.00, 0.00, 0.00, 0.00, 0.00, 0.00, 0.00
115, 2471.81, 60942.79, 3039.95, 27800.67, -18795.09, -2279.99, 10348.99, -49849.86, -10395.26, 35017.88, -2359.18, -8950.93, 0.00, 0.00, 0.00, 0.00, 0.00, 0.00, 0.00
116, 2471.81, 60942.79, 3039.95, 27800.67, -18795.09, -2279.99, 10348.99, -49849.86, -10393.07, 35039.33, -2343.51, -8929.68, 0.00, 0.00, 0.00, 0.00, 0.00, 0.00, 0.00
117, 2464.03, 60926.25, 3029.78, 27779.89, -18807.83, -2292.46, 10332.16, -49865.20, -10393.07, 35039.33, -2343.51, -8929.68, 0.00, 0.00, 0.00, 0.00, 0.00, 0.00, 0.00
118, 2464.03, 60926.25, 3029.78, 27779.89, -18807.83, -2292.46, 10332.16, -49865.20, -10388.62, 35038.44, -2361.01, -8910.17, 0.00, 0.00, 0.00, 0.00, 0.00, 0.00, 0.00
119, 2473.76, 60951.57, 3047.37, 27802.04, -18798.64, -2280.64, 10355.14, -49845.28, -10388.62, 35038.44, -2361.01, -8910.17, 0.00, 0.00, 0.00, 0.00, 0.09, 0.35, 0.95
120, 2473.76, 60951.57, 3047.37, 27802.04, -18798.64, -2280.64, 10355.14, -49845.28, -10388.17, 35054.62, -2339.15, -8963.00, 0.00, 0.00, 0.00, 0.00, 0.00, 0.00, 0.00
121, 2459.41, 60929.60, 3024.77, 27774.28, -18819.27, -2302.41, 10318.53, -49881.18, -10388.17, 35054.62, -2339.15, -8963.00, 0.00, 0.00, 0.00, 0.00, 0.00, 0.00, 0.00
122, 2459.41, 60929.60, 3024.77, 27774.28, -18819.27, -2302.41, 10318.53, -49881.18, -10414.26, 34989.75, -2382.96, -8929.61, 0.00, 0.00, 0.00, 0.00, 0.00, 0.00, 0.00
123, 2464.24, 60935.08, 3027.52, 27786.73, -18814.27, -2297.74, 10331.31, -49869.55, -10414.26, 34989.75, -2382.96, -8929.61, 0.00, 0.00, 0.00, 0.00, 0.00, 0.00, 0.00
124, 2464.24, 60935.08, 3027.52, 27786.73, -18814.27, -2297.74, 10331.31, -49869.55, -10398.88, 35041.14, -2348.18, -8968.57, 0.00, 0.00, 0.00, 0.00, 0.00, 0.00, 0.00
125, 2472.51, 60934.36, 3031.25, 27783.53, -18811.07, -2293.11, 10335.25, -49862.83, -10398.88, 35041.14, -2348.18, -8968.57, 0.00, 0.00, 0.00, 0.00, 0.00, 0.00, 0.00
126, 2472.51, 60934.36, 3031.25, 27783.53, -18811.07, -2293.11, 10335.25, -49862.83, -10396.06, 35019.19, -2371.27, -8935.71, 0.00, 0.00, 0.00, 0.00, 0.00, 0.00, 0.00
127, 2474.34, 60948.04, 3040.42, 27789.72, -18810.85, -2288.55, 10340.94, -49859.68, -10396.06, 35019.19, -2371.27, -8935.71, 0.00, 0.00, 0.00, 0.00, 0.00, 0.00, 0.00
128, 2474.34, 60948.04, 3040.42, 27789.72, -18810.85, -2288.55, 10340.94, -49859.68, -10398.46, 35047.11, -2346.40, -8972.24, 0.00, 0.00, 0.00, 0.00, 0.00, 0.00, 0.00
129, 2468.77, 60942.66, 3036.28, 27781.54, -18812.08, -2296.91, 10327.22, -49869.94, -10398.46, 35047.11, -2346.40, -8972.24, 0.00, 0.00, 0.00, 0.00, 0.09, 0.35, 0.95
130, 2468.77, 60942.66, 3036.28, 27781.54, -18812.08, -2296.91, 10327.22, -49869.94, -10397.47, 35005.09, -2372.39, -8895.26, 0.00, 0.00, 0.00, 0.00, 0.00, 0.00, 0.00
131, 2472.55, 60945.61, 3043.08, 27789.30, -18805.39, -2289.27, 10336.81, -49859.27, -10397.47, 35005.09, -2372.39, -8895.26, 0.00, 0.00, 0.00, 0.00, 0.00, 0.00, 0.00
132, 2472.55, 60945.61, 3043.08, 27789.30, -18805.39, -2289.27, 10336.81, -49859.27, -10385.60, 35055.29, -2334.44, -8961.40, 0.00, 0.00, 0.00, 0.00, 0.00, 0.00, 0.00
133, 2476.30, 60946.21, 3044.11, 27786.68, -18802.46, -2288.53, 10334.60, -49862.79, -10385.60, 35055.29, -2334.44, -8961.40, 0.00, 0.00, 0.00, 0.00, 0.00, 0.00, 0.00
134, 2476.30, 60946.21, 3044.11, 27786.68, -18802.46, -2288.53, 10334.60, -49862.79, -10398.37, 35002.20, -2371.99, -8927.89, 0.00, 0.00, 0.00, 0.00, 0.00, 0.00, 0.00
135, 2474.07, 60941.20, 3039.81, 27780.74, -18811.43, -2294.34, 10329.41, -49867.93, -10398.37, 35002.20, -2371.99, -8927.89, 0.00, 0.00, 0.00, 0.00, 0.00, 0.00, 0.00
136, 2474.07, 60941.20, 3039.81, 27780.74, -18811.43, -2294.34, 10329.41, -49867.93, -10401.85, 35040.94, -2343.27, -8977.31, 0.00, 0.00, 0.00, 0.00, 0.00, 0.00, 0.00
137, 2480.08, 60954.32, 3047.62, 27786.59, -18807.83, -2290.38, 10330.01, -49870.36, -10401.85, 35040.94, -2343.27, -8977.31, 0.00, 0.00, 0.00, 0.00, 0.00, 0.00, 0.00
138, 2480.08, 60954.32, 3047.62, 27786.59, -18807.83, -2290.38, 10330.01, -49870.36, -10411.04, 34994.85, -2372.88, -8899.68, 0.00, 0.00, 0.00, 0.00, 0.09, 0.35, 0.95
139, 2478.85, 60951.55, 3048.26, 27783.02, -18810.15, -2294.05, 10327.65, -49875.17, -10411.04, 34994.85, -2372.88, -8899.68, 0.00, 0.00, 0.00, 0.00, 0.00, 0.00, 0.00
140, 2478.85, 60951.55, 3048.26, 27783.02, -18810.15, -2294.05, 10327.65, -49875.17, -10400.80, 35039.42, -2336.63, -8972.37, 0.00, 0.00, 0.00, 0.00, 0.00, 0.00, 0.00
141, 2490.79, 60961.63, 3060.45, 27793.81, -18800.81, -2282.43, 10338.89, -49860.10, -10400.80, 35039.42, -2336.63, -8972.37, 0.00, 0.00, 0.00, 0.00, 0.00, 0.00, 0.00
142, 2490.79, 60961.63, 3060.45, 27793.81, -18800.81, -2282.43, 10338.89, -49860.10, -10413.30, 34998.72, -2365.15, -8927.40, 0.00, 0.00, 0.00, 0.00, 0.00, 0.00, 0.00
143, 2482.38, 60946.54, 3048.93, 27777.90, -18814.09, -2296.11, 10320.29, -49876.98, -10413.30, 34998.72, -2365.15, -8927.40, 0.00, 0.00, 0.00, 0.00, 0.00, 0.00, 0.00
144, 2482.38, 60946.54, 3048.93, 27777.90, -18814.09, -2296.11, 10320.29, -49876.98, -10402.68, 35034.23, -2333.97, -8977.13, 0.00, 0.00, 0.00, 0.00, 0.00, 0.00, 0.00
145, 2500.56, 60973.05, 3070.50, 27800.85, -18792.16, -2270.80, 10345.26, -49849.89, -10402.68, 35034.23, -2333.97, -8977.13, 0.00, 0.00, 0.00, 0.00, 0.00, 0.00, 0.00
146, 2500.56, 60973.05, 3070.50, 27800.85, -18792.16, -2270.80, 10345.26, -49849.89, -10405.38, 35016.67, -2357.19, -8915.69, 0.00, 0.00, 0.00, 0.00, 0.00, 0.00, 0.00
147, 2488.91, 60948.91, 3055.46, 27778.52, -18806.76, -2286.07, 10326.75, -49867.34, -10405.38, 35016.67, -2357.19, -8915.69, 0.00, 0.00, 0.00, 0.00, 0.00, 0.00, 0.00
148, 2488.91, 60948.91, 3055.46, 27778.52, -18806.76, -2286.07, 10326.75, -49867.34, -10402.03, 35040.98, -2340.41, -8964.86, 0.00, 0.00, 0.00, 0.00, 0.10, 0.34, 0.96
149, 2506.37, 60969.66, 3072.90, 27806.64, -18787.49, -2264.46, 10349.82, -49842.11, -10402.03, 35040.98, -2340.41, -8964.86, 0.00, 0.00, 0.00, 0.00, 0.00, 0.00, 0.00
150, 2506.37, 60969.66, 3072.90, 27806.64, -18787.49, -2264.46, 10349.82, -49842.11, -10414.37, 35009.27, -2357.71, -8885.20, 0.00, 0.00, 0.00, 0.00, 0.00, 0.00, 0.00
151, 2490.03, 60951.86, 3057.92, 27775.95, -18801.24, -2281.38, 10328.63, -49855.12, -10414.37, 35009.27, -2357.71, -8885.20, 0.00, 0.00, 0.00, 0.00, 0.00, 0.00, 0.00
152, 2490.03, 60951.86, 3057.92, 27775.95, -18801.24, -2281.38, 10328.63, -49855.12, -10407.29, 35033.59, -2344.81, -8925.45, 0.00, 0.00, 0.00, 0.00, 0.00, 0.00, 0.00
153, 2501.74, 60971.76, 3076.63, 27803.78, -18788.47, -2257.88, 10351.85, -49832.99, -10407.29, 35033.59, -2344.81, -8925.45, 0.00, 0.00, 0.00, 0.00, 0.00, 0.00, 0.00
154, 2501.74, 60971.76, 3076.63, 27803.78, -18788.47, -2257.88, 10351.85, -49832.99, -10412.36, 35011.26, -2354.62, -8885.51, 0.00, 0.00, 0.00, 0.00, 0.00, 0.00, 0.00
155, 2483.26, 60947.21, 3054.86, 27772.22, -18803.79, -2279.56, 10320.54, -49854.25, -10412.36, 35011.26, -2354.62, -8885.51, 0.00, 0.00, 0.00, 0.00, 0.00, 0.00, 0.00
156, 2483.26, 60947.21, 3054.86, 27772.22, -18803.79, -2279.56, 10320.54, -49854.25, -10403.75, 35021.88, -2344.32, -8875.74, 0.00, 0.00, 0.00, 0.00, 0.00, 0.00, 0.00
157, 2512.07, 60981.48, 3082.89, 27803.04, -18782.04, -2247.62, 10355.85, -49815.80, -10403.75, 35021.88, -2344.32, -8875.74, 0.00, 0.00, 0.00, 0.00, 0.00, 0.00, 0.00
158, 2512.07, 60981.48, 3082.89, 27803.04, -18782.04, -2247.62, 10355.85, -49815.80, -10398.46, 35029.86, -2341.55, -8880.64, 0.00, 0.00, 0.00, 0.00, 0.09, 0.35, 0.95
159, 2493.96, 60956.94, 3064.29, 27779.26, -18791.74, -2265.22, 10330.55, -49831.34, -10398.46, 35029.86, -2341.55, -8880.64, 0.00, 0.00, 0.00, 0.00, 0.00, 0.00, 0.00
160, 2493.96, 60956.94, 3064.29, 27779.26, -18791.74, -2265.22, 10330.55, -49831.34, -10393.56, 35032.91, -2343.67, -8869.06, 0.00, 0.00, 0.00, 0.00, 0.00, 0.00, 0.00
161, 2517.16, 60992.45, 3092.83, 27810.46, -18772.02, -2235.04, 10365.42, -49796.11, -10393.56, 35032.91, -2343.67, -8869.06, 0.00, 0.00, 0.00, 0.00, 0.00, 0.00, 0.00
162, 2517.16, 60992.45, 3092.83, 27810.46, -18772.02, -2235.04, 10365.42, -49796.11, -10389.16, 35040.56, -2327.17, -8888.46, 0.00, 0.00, 0.00, 0.00, 0.00, 0.00, 0.00
163, 2500.96, 60960.76, 3073.43, 27782.41, -18786.80, -2256.83, 10336.14, -49820.81, -10389.16, 35040.56, -2327.17, -8888.46, 0.00, 0.00, 0.00, 0.00, 0.00, 0.00, 0.00
164, 2500.96, 60960.76, 3073.43, 27782.41, -18786.80, -2256.83, 10336.14, -49820.81, -10389.02, 35021.27, -2343.96, -8879.97, 0.00, 0.00, 0.00, 0.00, 0.00, 0.00, 0.00
165, 2517.32, 60987.65, 3092.70, 27807.02, -18770.53, -2232.74, 10362.56, -49786.56, -10389.02, 35021.27, -2343.96, -8879.97, 0.00, 0.00, 0.00, 0.00, 0.00, 0.00, 0.00
166, 2517.32, 60987.65, 3092.70, 27807.02, -18770.53, -2232.74, 10362.56, -49786.56, -10375.99, 35056.81, -2321.39, -8874.47, 0.00, 0.00, 0.00, 0.00, 0.00, 0.00, 0.00
167, 2505.92, 60968.79, 3080.14, 27786.06, -18779.40, -2246.35, 10341.30, -49801.50, -10375.99, 35056.81, -2321.39, -8874.47, 0.00, 0.00, 0.00, 0.00, 0.00, 0.00, 0.00
168, 2505.92, 60968.79, 3080.14, 27786.06, -18779.40, -2246.35, 10341.30, -49801.50, -10377.62, 35027.35, -2346.44, -8856.36, 0.00, 0.00, 0.00, 0.00, 0.08, 0.35, 0.96
169, 2514.19, 60984.88, 3094.51, 27805.08, -18769.12, -2230.82, 10362.85, -49781.89, -10377.62, 35027.35, -2346.44, -8856.36, 0.00, 0.00, 0.00, 0.00, 0.00, 0.00, 0.00
170, 2514.19, 60984.88, 3094.51, 27805.08, -18769.12, -2230.82, 10362.85, -49781.89, -10377.04, 35051.38, -2325.01, -8897.02, 0.00, 0.00, 0.00, 0.00, 0.00, 0.00, 0.00
171, 2494.39, 60960.58, 3073.25, 27778.03, -18790.35, -2251.98, 10334.11, -49805.47, -10377.04, 35051.38, -2325.01, -8897.02, 0.00, 0.00, 0.00, 0.00, 0.00, 0.00, 0.00
172, 2494.39, 60960.58, 3073.25, 27778.03, -18790.35, -2251.98, 10334.11, -49805.47, -10386.36, 35012.40, -2364.57, -8852.39, 0.00, 0.00, 0.00, 0.00, 0.00, 0.00, 0.00
173, 2501.29, 60974.21, 3083.40, 27793.72, -18779.58, -2239.11, 10354.38, -49785.71, -10386.36, 35012.40, -2364.57, -8852.39, 0.00, 0.00, 0.00, 0.00, 0.00, 0.00, 0.00
174, 2501.29, 60974.21, 3083.40, 27793.72, -18779.58, -2239.11, 10354.38, -49785.71, -10379.08, 35055.47, -2330.62, -8882.49, 0.00, 0.00, 0.00, 0.00, 0.00, 0.00, 0.00
175, 2499.91, 60956.67, 3072.29, 27779.13, -18787.31, -2249.99, 10338.69, -49795.59, -10379.08, 35055.47, -2330.62, -8882.49, 0.00, 0.00, 0.00, 0.00, 0.00, 0.00, 0.00
176, 2499.91, 60956.67, 3072.29, 27779.13, -18787.31, -2249.99, 10338.69, -49795.59, -10389.43, 35008.33, -2367.09, -8817.27, 0.00, 0.00, 0.00, 0.00, 0.00, 0.00, 0.00
177, 2503.78, 60969.07, 3083.11, 27789.61, -18781.52, -2241.99, 10347.23, -49787.88, -10389.43, 35008.33, -2367.09, -8817.27, 0.00, 0.00, 0.00, 0.00, 0.00, 0.00, 0.00
178, 2503.78, 60969.07, 3083.11, 27789.61, -18781.52, -2241.99, 10347.23, -49787.88, -10377.83, 35052.92, -2325.05, -8889.20, 0.00, 0.00, 0.00, 0.00, 0.09, 0.36, 0.96
179, 2505.05, 60968.49, 3084.83, 27786.55, -18780.36, -2243.20, 10345.33, -49785.74, -10377.83, 35052.92, -2325.05, -8889.20, 0.00, 0.00, 0.00, 0.00, 0.00, 0.00, 0.00
180, 2505.05, 60968.49, 3084.83, 27786.55, -18780.36, -2243.20, 10345.33, -49785.74, -10387.57, 35012.55, -2367.83, -8841.59, 0.00, 0.00, 0.00, 0.00, 0.00, 0.00, 0.00
181, 2502.79, 60968.54, 3081.21, 27783.82, -18787.29, -2250.64, 10343.67, -49788.51, -10387.57, 35012.55, -2367.83, -8841.59, 0.00, 0.00, 0.00, 0.00, 0.00, 0.00, 0.00
182, 2502.79, 60968.54, 3081.21, 27783.82, -18787.29, -2250.64, 10343.67, -49788.51, -10385.20, 35043.67, -2334.42, -8888.75, 0.00, 0.00, 0.00, 0.00, 0.00, 0.00, 0.00
183, 2507.26, 60965.39, 3083.74, 27789.36, -18784.92, -2245.88, 10345.04, -49786.00, -10385.20, 35043.67, -2334.42, -8888.75, 0.00, 0.00, 0.00, 0.00, 0.00, 0.00, 0.00
184, 2507.26, 60965.39, 3083.74, 27789.36, -18784.92, -2245.88, 10345.04, -49786.00, -10390.92, 34997.29, -2369.78, -8822.28, 0.00, 0.00, 0.00, 0.00, 0.00, 0.00, 0.00
185, 2501.45, 60963.02, 3081.41, 27781.83, -18785.59, -2249.93, 10343.90, -49787.95, -10390.92, 34997.29, -2369.78, -8822.28, 0.00, 0.00, 0.00, 0.00, 0.00, 0.00, 0.00
186, 2501.45, 60963.02, 3081.41, 27781.83, -18785.59, -2249.93, 10343.90, -49787.95, -10384.33, 35040.79, -2337.88, -8891.59, 0.00, 0.00, 0.00, 0.00, 0.00, 0.00, 0.00
187, 2510.46, 60973.68, 3092.41, 27792.63, -18775.24, -2240.47, 10353.13, -49775.41, -10384.33, 35040.79, -2337.88, -8891.59, 0.00, 0.00, 0.00, 0.00, 0.10, 0.36, 0.95
188, 2510.46, 60973.68, 3092.41, 27792.63, -18775.24, -2240.47, 10353.13, -49775.41, -10388.78, 35009.43, -2365.19, -8819.57, 0.00, 0.00, 0.00, 0.00, 0.00, 0.00, 0.00
189, 2502.48, 60964.36, 3083.42, 27779.98, -18784.70, -2250.40, 10343.20, -49784.17, -10388.78, 35009.43, -2365.19, -8819.57, 0.00, 0.00, 0.00, 0.00, 0.00, 0.00, 0.00
190, 2502.48, 60964.36, 3083.42, 27779.98, -18784.70, -2250.40, 10343.20, -49784.17, -10381.47, 35045.19, -2336.54, -8879.72, 0.00, 0.00, 0.00, 0.00, 0.00, 0.00, 0.00
191, 2512.09, 60972.90, 3091.54, 27792.22, -18775.93, -2240.67, 10357.53, -49770.47, -10381.47, 35045.19, -2336.54, -8879.72, 0.00, 0.00, 0.00, 0.00, 0.00, 0.00, 0.00
192, 2512.09, 60972.90, 3091.54, 27792.22, -18775.93, -2240.67, 10357.53, -49770.47, -10390.34, 35008.66, -2368.06, -8848.07, 0.00, 0.00, 0.00, 0.00, 0.00, 0.00, 0.00
193, 2495.21, 60952.56, 3076.38, 27772.00, -18788.85, -2258.22, 10339.60, -49787.77, -10390.34, 35008.66, -2368.06, -8848.07, 0.00, 0.00, 0.00, 0.00, 0.00, 0.00, 0.00
194, 2495.21, 60952.56, 3076.38, 27772.00, -18788.85, -2258.22, 10339.60, -49787.77, -10382.70, 35039.84, -2344.41, -8841.97, 0.00, 0.00, 0.00, 0.00, 0.00, 0.00, 0.00
195, 2507.31, 60976.14, 3095.27, 27796.18, -18777.74, -2239.60, 10360.68, -49769.00, -10382.70, 35039.84, -2344.41, -8841.97, 0.00, 0.00, 0.00, 0.00, 0.00, 0.00, 0.00
196, 2507.31, 60976.14, 3095.27, 27796.18, -18777.74, -2239.60, 10360.68, -49769.00, -10389.22, 35011.84, -2364.57, -8807.39, 0.00, 0.00, 0.00, 0.00, 0.00, 0.00, 0.00
197, 2494.41, 60950.66, 3075.91, 27769.81, -18794.33, -2259.60, 10335.56, -49789.40, -10389.22, 35011.84, -2364.57, -8807.39, 0.00, 0.00, 0.00, 0.00, 0.09, 0.36, 0.95
198, 2494.41, 60950.66, 3075.91, 27769.81, -18794.33, -2259.60, 10335.56, -49789.40, -10381.58, 35034.93, -2350.13, -8850.31, 0.00, 0.00, 0.00, 0.00, 0.00, 0.00, 0.00
199, 2514.39, 60977.12, 3096.92, 27795.33, -18771.35, -2238.44, 10366.90, -49759.99, -10381.58, 35034.93, -2350.13, -8850.31, 0.00, 0.00, 0.00, 0.00, 0.00, 0.00, 0.00
200, 2514.39, 60977.12, 3096.92, 27795.33, -18771.35, -2238.44, 10366.90, -49759.99, -10386.63, 35023.59, -2358.49, -8805.16, 0.00, 0.00, 0.00, 0.00, 0.00, 0.00, 0.00
201, 2492.85, 60950.66, 3075.44, 27769.43, -18791.54, -2258.84, 10338.78, -49784.91, -10386.63, 35023.59, -2358.49, -8805.16, 0.00, 0.00, 0.00, 0.00, 0.00, 0.00, 0.00
202, 2492.85, 60950.66, 3075.44, 27769.43, -18791.54, -2258.84, 10338.78, -49784.91, -10385.89, 35037.39, -2359.61, -8834.91, 0.00, 0.00, 0.00, 0.00, 0.00, 0.00, 0.00
203, 2513.79, 60981.68, 3098.80, 27798.64, -18774.17, -2235.82, 10368.44, -49758.49, -10385.89, 35037.39, -2359.61, -8834.91, 0.00, 0.00, 0.00, 0.00, 0.00, 0.00, 0.00
204, 2513.79, 60981.68, 3098.80, 27798.64, -18774.17, -2235.82, 10368.44, -49758.49, -10387.50, 35023.80, -2362.69, -8812.69, 0.00, 0.00, 0.00, 0.00, 0.00, 0.00, 0.00
205, 2493.07, 60949.41, 3074.50, 27763.50, -18799.29, -2265.93, 10334.93, -49788.60, -10387.50, 35023.80, -2362.69, -8812.69, 0.00, 0.00, 0.00, 0.00, 0.00, 0.00, 0.00
206, 2493.07, 60949.41, 3074.50, 27763.50, -18799.29, -2265.93, 10334.93, -49788.60, -10383.55, 35032.18, -2360.95, -8822.97, 0.00, 0.00, 0.00, 0.00, 0.00, 0.00, 0.00
