%OpenBCI Raw EEG Data
%
%Sample Rate = 250.0 Hz
%First Column = SampleIndex
%Other Columns = EEG data in microvolts followed by Accel Data (in G) interleaved with Aux Data
0, 0.00, 0.00, 0.00, 0.00, 0.00, 0.00, 0.00, 0.00, -12257.88, 34144.75, -3393.35, -12104.07, 0.00, 0.00, 0.00, 0.00, 0.08, 0.35, 0.96
1, 3868.08, 56775.51, 2851.50, 27090.02, -17086.90, -1141.75, 11382.16, -47708.30, -12257.88, 34144.75, -3393.35, -12104.07, 0.00, 0.00, 0.00, 0.00, 0.00, 0.00, 0.00
2, 3868.08, 56775.51, 2851.50, 27090.02, -17086.90, -1141.75, 11382.16, -47708.30, -12119.88, 34320.99, -3882.70, -11165.41, 0.00, 0.00, 0.00, 0.00, 0.00, 0.00, 0.00
3, 3877.65, 56799.38, 2867.55, 27114.14, -17055.43, -1121.99, 11424.83, -47674.32, -12119.88, 34320.99, -3882.70, -11165.41, 0.00, 0.00, 0.00, 0.00, 0.00, 0.00, 0.00
4, 3877.65, 56799.38, 2867.55, 27114.14, -17055.43, -1121.99, 11424.83, -47674.32, -12101.28, 34327.43, -3895.48, -11135.01, 0.00, 0.00, 0.00, 0.00, 0.00, 0.00, 0.00
5, 3857.60, 56767.71, 2844.84, 27097.69, -17072.46, -1125.48, 11382.69, -47693.14, -12101.28, 34327.43, -3895.48, -11135.01, 0.00, 0.00, 0.00, 0.00, 0.00, 0.00, 0.00
6, 3857.60, 56767.71, 2844.84, 27097.69, -17072.46, -1125.48, 11382.69, -47693.14, -12133.24, 34306.11, -3882.05, -11148.38, 0.00, 0.00, 0.00, 0.00, 0.11, 0.31, 0.98
7, 3857.15, 56791.42, 2863.53, 27116.46, -17075.99, -1123.80, 11401.76, -47701.79, -12133.24, 34306.11, -3882.05, -11148.38, 0.00, 0.00, 0.00, 0.00, 0.00, 0.00, 0.00
8, 3857.15, 56791.42, 2863.53, 27116.46, -17075.99, -1123.80, 11401.76, -47701.79, -12145.94, 34281.07, -3896.42, -11152.45, 0.00, 0.00, 0.00, 0.00, 0.00, 0.00, 0.00
9, 3841.46, 56770.77, 2842.63, 27082.18, -17095.84, -1150.85, 11379.99, -47717.02, -12145.94, 34281.07, -3896.42, -11152.45, 0.00, 0.00, 0.00, 0.00, 0.00, 0.00, 0.00
10, 3841.46, 56770.77, 2842.63, 27082.18, -17095.84, -1150.85, 11379.99, -47717.02, -12119.05, 34315.61, -3876.98, -11159.04, 0.00, 0.00, 0.00, 0.00, 0.00, 0.00, 0.00
11, 3869.18, 56808.12, 2865.09, 27116.60, -17062.29, -1121.39, 11420.74, -47676.40, -12119.05, 34315.61, -3876.98, -11159.04, 0.00, 0.00, 0.00, 0.00, 0.00, 0.00, 0.00
12, 3869.18, 56808.12, 2865.09, 27116.60, -17062.29, -1121.39, 11420.74, -47676.40, -12123.65, 34321.08, -3884.73, -11144.80, 0.00, 0.00, 0.00, 0.00, 0.00, 0.00, 0.00
13, 3861.35, 56765.52, 2848.48, 27102.25, -17080.40, -1134.64, 11399.17, -47702.87, -12123.65, 34321.08, -3884.73, -11144.80, 0.00, 0.00, 0.00, 0.00, 0.00, 0.00, 0.00
14, 3861.35, 56765.52, 2848.48, 27102.25, -17080.40, -1134.64, 11399.17, -47702.87, -12113.55, 34305.48, -3881.20, -11152.16, 0.00, 0.00, 0.00, 0.00, 0.00, 0.00, 0.00
15, 3867.57, 56794.51, 2867.42, 27127.13, -17057.29, -1113.85, 11427.37, -47674.17, -12113.55, 34305.48, -3881.20, -11152.16, 0.00, 0.00, 0.00, 0.00, 0.00, 0.00, 0.00
16, 3867.57, 56794.51, 2867.42, 27127.13, -17057.29, -1113.85, 11427.37, -47674.17, -12129.11, 34315.34, -3880.80, -11160.07, 0.00, 0.00, 0.00, 0.00, 0.10, 0.31, 0.97
17, 3860.39, 56769.32, 2847.86, 27104.66, -17083.39, -1131.94, 11394.67, -47703.76, -12129.11, 34315.34, -3880.80, -11160.07, 0.00, 0.00, 0.00, 0.00, 0.00, 0.00, 0.00
18, 3860.39, 56769.32, 2847.86, 27104.66, -17083.39, -1131.94, 11394.67, -47703.76, -12117.84, 34308.47, -3893.79, -11128.26, 0.00, 0.00, 0.00, 0.00, 0.00, 0.00, 0.00
19, 3876.24, 56798.38, 2867.71, 27127.39, -17059.03, -1120.90, 11428.98, -47680.14, -12117.84, 34308.47, -3893.79, -11128.26, 0.00, 0.00, 0.00, 0.00, 0.00, 0.00, 0.00
20, 3876.24, 56798.38, 2867.71, 27127.39, -17059.03, -1120.90, 11428.98, -47680.14, -12121.40, 34334.69, -3874.43, -11145.58, 0.00, 0.00, 0.00, 0.00, 0.00, 0.00, 0.00
21, 3870.03, 56783.04, 2855.95, 27112.02, -17072.71, -1133.23, 11421.58, -47694.73, -12121.40, 34334.69, -3874.43, -11145.58, 0.00, 0.00, 0.00, 0.00, 0.00, 0.00, 0.00
22, 3870.03, 56783.04, 2855.95, 27112.02, -17072.71, -1133.23, 11421.58, -47694.73, -12109.62, 34325.55, -3890.01, -11103.59, 0.00, 0.00, 0.00, 0.00, 0.00, 0.00, 0.00
23, 3875.90, 56808.95, 2870.95, 27136.94, -17057.24, -1109.03, 11443.71, -47671.82, -12109.62, 34325.55, -3890.01, -11103.59, 0.00, 0.00, 0.00, 0.00, 0.00, 0.00, 0.00
24, 3875.90, 56808.95, 2870.95, 27136.94, -17057.24, -1109.03, 11443.71, -47671.82, -12107.09, 34340.32, -3874.50, -11139.93, 0.00, 0.00, 0.00, 0.00, 0.00, 0.00, 0.00
25, 3882.52, 56810.18, 2867.19, 27128.49, -17063.50, -1114.66, 11425.72, -47690.86, -12107.09, 34340.32, -3874.50, -11139.93, 0.00, 0.00, 0.00, 0.00, 0.00, 0.00, 0.00
26, 3882.52, 56810.18, 2867.19, 27128.49, -17063.50, -1114.66, 11425.72, -47690.86, -12117.39, 34304.65, -3880.71, -11104.48, 0.00, 0.00, 0.00, 0.00, 0.09, 0.30, 0.97
27, 3875.64, 56800.27, 2874.70, 27139.93, -17065.60, -1112.96, 11442.26, -47688.03, -12117.39, 34304.65, -3880.71, -11104.48, 0.00, 0.00, 0.00, 0.00, 0.00, 0.00, 0.00
28, 3875.64, 56800.27, 2874.70, 27139.93, -17065.60, -1112.96, 11442.26, -47688.03, -12119.50, 34340.75, -3861.53, -11162.33, 0.00, 0.00, 0.00, 0.00, 0.00, 0.00, 0.00
29, 3856.59, 56773.59, 2853.47, 27111.19, -17079.21, -1134.31, 11422.68, -47701.41, -12119.50, 34340.75, -3861.53, -11162.33, 0.00, 0.00, 0.00, 0.00, 0.00, 0.00, 0.00
30, 3856.59, 56773.59, 2853.47, 27111.19, -17079.21, -1134.31, 11422.68, -47701.41, -12124.84, 34304.79, -3895.91, -11117.49, 0.00, 0.00, 0.00, 0.00, 0.00, 0.00, 0.00
31, 3875.81, 56798.46, 2864.71, 27131.48, -17070.50, -1120.40, 11441.25, -47693.32, -12124.84, 34304.79, -3895.91, -11117.49, 0.00, 0.00, 0.00, 0.00, 0.00, 0.00, 0.00
32, 3875.81, 56798.46, 2864.71, 27131.48, -17070.50, -1120.40, 11441.25, -47693.32, -12124.46, 34327.79, -3852.17, -11149.61, 0.00, 0.00, 0.00, 0.00, 0.00, 0.00, 0.00
33, 3887.01, 56820.70, 2875.64, 27125.27, -17060.24, -1123.60, 11449.52, -47690.15, -12124.46, 34327.79, -3852.17, -11149.61, 0.00, 0.00, 0.00, 0.00, 0.00, 0.00, 0.00
34, 3887.01, 56820.70, 2875.64, 27125.27, -17060.24, -1123.60, 11449.52, -47690.15, -12113.33, 34312.74, -3878.23, -11117.89, 0.00, 0.00, 0.00, 0.00, 0.00, 0.00, 0.00
35, 3885.14, 56815.16, 2876.54, 27140.72, -17055.39, -1109.81, 11459.63, -47684.76, -12113.33, 34312.74, -3878.23, -11117.89, 0.00, 0.00, 0.00, 0.00, 0.00, 0.00, 0.00
36, 3885.14, 56815.16, 2876.54, 27140.72, -17055.39, -1109.81, 11459.63, -47684.76, -12120.90, 34337.48, -3854.09, -11166.26, 0.00, 0.00, 0.00, 0.00, 0.09, 0.31, 0.98
37, 3872.06, 56796.32, 2871.77, 27136.71, -17067.14, -1113.61, 11450.06, -47691.00, -12120.90, 34337.48, -3854.09, -11166.26, 0.00, 0.00, 0.00, 0.00, 0.00, 0.00, 0.00
38, 3872.06, 56796.32, 2871.77, 27136.71, -17067.14, -1113.61, 11450.06, -47691.00, -12124.17, 34302.28, -3890.34, -11105.67, 0.00, 0.00, 0.00, 0.00, 0.00, 0.00, 0.00
39, 3874.50, 56798.73, 2865.81, 27130.64, -17066.79, -1118.39, 11456.72, -47694.04, -12124.17, 34302.28, -3890.34, -11105.67, 0.00, 0.00, 0.00, 0.00, 0.00, 0.00, 0.00
40, 3874.50, 56798.73, 2865.81, 27130.64, -17066.79, -1118.39, 11456.72, -47694.04, -12128.32, 34332.82, -3857.75, -11154.15, 0.00, 0.00, 0.00, 0.00, 0.00, 0.00, 0.00
41, 3893.47, 56818.42, 2882.53, 27145.10, -17055.95, -1112.78, 11470.54, -47686.55, -12128.32, 34332.82, -3857.75, -11154.15, 0.00, 0.00, 0.00, 0.00, 0.00, 0.00, 0.00
42, 3893.47, 56818.42, 2882.53, 27145.10, -17055.95, -1112.78, 11470.54, -47686.55, -12117.57, 34306.24, -3885.98, -11128.84, 0.00, 0.00, 0.00, 0.00, 0.00, 0.00, 0.00
43, 3871.86, 56797.23, 2868.62, 27130.35, -17069.91, -1117.65, 11459.92, -47694.04, -12117.57, 34306.24, -3885.98, -11128.84, 0.00, 0.00, 0.00, 0.00, 0.00, 0.00, 0.00
44, 3871.86, 56797.23, 2868.62, 27130.35, -17069.91, -1117.65, 11459.92, -47694.04, -12118.91, 34341.78, -3857.20, -11149.21, 0.00, 0.00, 0.00, 0.00, 0.00, 0.00, 0.00
45, 3883.84, 56817.77, 2880.38, 27144.61, -17060.15, -1111.37, 11478.96, -47689.99, -12118.91, 34341.78, -3857.20, -11149.21, 0.00, 0.00, 0.00, 0.00, 0.00, 0.00, 0.00
46, 3883.84, 56817.77, 2880.38, 27144.61, -17060.15, -1111.37, 11478.96, -47689.99, -12130.87, 34303.15, -3884.93, -11124.06, 0.00, 0.00, 0.00, 0.00, 0.09, 0.31, 0.97
47, 3874.92, 56802.84, 2865.14, 27128.09, -17069.42, -1124.99, 11476.70, -47701.10, -12130.87, 34303.15, -3884.93, -11124.06, 0.00, 0.00, 0.00, 0.00, 0.00, 0.00, 0.00
48, 3874.92, 56802.84, 2865.14, 27128.09, -17069.42, -1124.99, 11476.70, -47701.10, -12126.49, 34327.70, -3856.53, -11158.42, 0.00, 0.00, 0.00, 0.00, 0.00, 0.00, 0.00
49, 3885.05, 56823.72, 2874.32, 27144.14, -17060.91, -1106.46, 11477.82, -47688.77, -12126.49, 34327.70, -3856.53, -11158.42, 0.00, 0.00, 0.00, 0.00, 0.00, 0.00, 0.00
50, 3885.05, 56823.72, 2874.32, 27144.14, -17060.91, -1106.46, 11477.82, -47688.77, -12135.19, 34298.08, -3880.98, -11145.50, 0.00, 0.00, 0.00, 0.00, 0.00, 0.00, 0.00
51, 3856.32, 56780.98, 2859.91, 27128.51, -17070.61, -1121.50, 11469.60, -47705.19, -12135.19, 34298.08, -3880.98, -11145.50, 0.00, 0.00, 0.00, 0.00, 0.00, 0.00, 0.00
52, 3856.32, 56780.98, 2859.91, 27128.51, -17070.61, -1121.50, 11469.60, -47705.19, -12125.82, 34325.66, -3864.62, -11152.98, 0.00, 0.00, 0.00, 0.00, 0.00, 0.00, 0.00
53, 3866.43, 56799.40, 2870.99, 27137.56, -17060.73, -1115.60, 11494.96, -47688.63, -12125.82, 34325.66, -3864.62, -11152.98, 0.00, 0.00, 0.00, 0.00, 0.00, 0.00, 0.00
54, 3866.43, 56799.40, 2870.99, 27137.56, -17060.73, -1115.60, 11494.96, -47688.63, -12124.37, 34306.53, -3875.08, -11140.53, 0.00, 0.00, 0.00, 0.00, 0.00, 0.00, 0.00
55, 3860.01, 56782.50, 2856.73, 27119.93, -17074.52, -1128.83, 11477.80, -47706.54, -12124.37, 34306.53, -3875.08, -11140.53, 0.00, 0.00, 0.00, 0.00, 0.11, 0.31, 0.96
56, 3860.01, 56782.50, 2856.73, 27119.93, -17074.52, -1128.83, 11477.80, -47706.54, -12126.54, 34313.05, -3872.60, -11161.86, 0.00, 0.00, 0.00, 0.00, 0.00, 0.00, 0.00
57, 3874.61, 56814.60, 2879.91, 27148.05, -17058.31, -1106.72, 11504.51, -47692.77, -12126.54, 34313.05, -3872.60, -11161.86, 0.00, 0.00, 0.00, 0.00, 0.00, 0.00, 0.00
58, 3874.61, 56814.60, 2879.91, 27148.05, -17058.31, -1106.72, 11504.51, -47692.77, -12133.82, 34309.93, -3865.42, -11133.45, 0.00, 0.00, 0.00, 0.00, 0.00, 0.00, 0.00
59, 3861.26, 56793.81, 2860.71, 27119.37, -17075.41, -1126.26, 11486.02, -47707.56, -12133.82, 34309.93, -3865.42, -11133.45, 0.00, 0.00, 0.00, 0.00, 0.00, 0.00, 0.00
60, 3861.26, 56793.81, 2860.71, 27119.37, -17075.41, -1126.26, 11486.02, -47707.56, -12108.68, 34326.96, -3865.04, -11147.44, 0.00, 0.00, 0.00, 0.00, 0.00, 0.00, 0.00
61, 3883.44, 56833.60, 2886.39, 27150.86, -17045.19, -1101.94, 11529.14, -47679.42, -12108.68, 34326.96, -3865.04, -11147.44, 0.00, 0.00, 0.00, 0.00, 0.00, 0.00, 0.00
62, 3883.44, 56833.60, 2886.39, 27150.86, -17045.19, -1101.94, 11529.14, -47679.42, -12120.97, 34327.90, -3842.24, -11134.97, 0.00, 0.00, 0.00, 0.00, 0.00, 0.00, 0.00
63, 3876.06, 56808.19, 2863.77, 27115.68, -17065.80, -1127.02, 11495.05, -47707.85, -12120.97, 34327.90, -3842.24, -11134.97, 0.00, 0.00, 0.00, 0.00, 0.00, 0.00, 0.00
64, 3876.06, 56808.19, 2863.77, 27115.68, -17065.80, -1127.02, 11495.05, -47707.85, -12129.11, 34305.48, -3865.33, -11124.49, 0.00, 0.00, 0.00, 0.00, 0.00, 0.00, 0.00
65, 3866.38, 56811.16, 2875.17, 27145.30, -17058.72, -1107.84, 11518.26, -47690.53, -12129.11, 34305.48, -3865.33, -11124.49, 0.00, 0.00, 0.00, 0.00, 0.11, 0.32, 0.96
66, 3866.38, 56811.16, 2875.17, 27145.30, -17058.72, -1107.84, 11518.26, -47690.53, -12133.44, 34314.22, -3852.95, -11157.66, 0.00, 0.00, 0.00, 0.00, 0.00, 0.00, 0.00
67, 3848.66, 56789.52, 2855.90, 27109.25, -17073.78, -1130.10, 11498.18, -47712.39, -12133.44, 34314.22, -3852.95, -11157.66, 0.00, 0.00, 0.00, 0.00, 0.00, 0.00, 0.00
68, 3848.66, 56789.52, 2855.90, 27109.25, -17073.78, -1130.10, 11498.18, -47712.39, -12114.85, 34313.75, -3866.11, -11117.60, 0.00, 0.00, 0.00, 0.00, 0.00, 0.00, 0.00
69, 3879.30, 56839.93, 2879.80, 27142.39, -17054.00, -1108.87, 11532.83, -47682.89, -12114.85, 34313.75, -3866.11, -11117.60, 0.00, 0.00, 0.00, 0.00, 0.00, 0.00, 0.00
70, 3879.30, 56839.93, 2879.80, 27142.39, -17054.00, -1108.87, 11532.83, -47682.89, -12122.42, 34337.93, -3835.83, -11153.41, 0.00, 0.00, 0.00, 0.00, 0.00, 0.00, 0.00
71, 3886.34, 56826.71, 2874.72, 27125.03, -17057.69, -1119.06, 11521.61, -47696.00, -12122.42, 34337.93, -3835.83, -11153.41, 0.00, 0.00, 0.00, 0.00, 0.00, 0.00, 0.00
72, 3886.34, 56826.71, 2874.72, 27125.03, -17057.69, -1119.06, 11521.61, -47696.00, -12116.46, 34321.59, -3855.61, -11094.89, 0.00, 0.00, 0.00, 0.00, 0.00, 0.00, 0.00
73, 3856.44, 56813.84, 2879.44, 27129.76, -17056.35, -1117.45, 11542.04, -47686.11, -12116.46, 34321.59, -3855.61, -11094.89, 0.00, 0.00, 0.00, 0.00, 0.00, 0.00, 0.00
74, 3856.44, 56813.84, 2879.44, 27129.76, -17056.35, -1117.45, 11542.04, -47686.11, -12122.02, 34342.98, -3831.33, -11142.95, 0.00, 0.00, 0.00, 0.00, 0.00, 0.00, 0.00
75, 3865.53, 56807.29, 2877.43, 27129.09, -17057.98, -1118.01, 11534.19, -47701.59, -12122.02, 34342.98, -3831.33, -11142.95, 0.00, 0.00, 0.00, 0.00, 0.12, 0.32, 0.96
76, 3865.53, 56807.29, 2877.43, 27129.09, -17057.98, -1118.01, 11534.19, -47701.59, -12125.58, 34294.10, -3865.18, -11126.76, 0.00, 0.00, 0.00, 0.00, 0.00, 0.00, 0.00
77, 3862.18, 56811.16, 2869.87, 27131.84, -17062.11, -1116.80, 11535.82, -47695.67, -12125.58, 34294.10, -3865.18, -11126.76, 0.00, 0.00, 0.00, 0.00, 0.00, 0.00, 0.00
78, 3862.18, 56811.16, 2869.87, 27131.84, -17062.11, -1116.80, 11535.82, -47695.67, -12125.35, 34334.69, -3839.40, -11159.04, 0.00, 0.00, 0.00, 0.00, 0.00, 0.00, 0.00
79, 3873.71, 56824.14, 2873.88, 27129.94, -17059.74, -1116.78, 11537.05, -47703.14, -12125.35, 34334.69, -3839.40, -11159.04, 0.00, 0.00, 0.00, 0.00, 0.00, 0.00, 0.00
80, 3873.71, 56824.14, 2873.88, 27129.94, -17059.74, -1116.78, 11537.05, -47703.14, -12119.21, 34298.13, -3866.58, -11115.08, 0.00, 0.00, 0.00, 0.00, 0.00, 0.00, 0.00
81, 3871.66, 56809.28, 2877.00, 27135.87, -17057.55, -1116.29, 11558.35, -47692.05, -12119.21, 34298.13, -3866.58, -11115.08, 0.00, 0.00, 0.00, 0.00, 0.00, 0.00, 0.00
82, 3871.66, 56809.28, 2877.00, 27135.87, -17057.55, -1116.29, 11558.35, -47692.05, -12130.20, 34344.57, -3837.15, -11158.46, 0.00, 0.00, 0.00, 0.00, 0.00, 0.00, 0.00
83, 3867.03, 56804.99, 2866.50, 27129.05, -17071.17, -1114.30, 11544.43, -47704.03, -12130.20, 34344.57, -3837.15, -11158.46, 0.00, 0.00, 0.00, 0.00, 0.00, 0.00, 0.00
84, 3867.03, 56804.99, 2866.50, 27129.05, -17071.17, -1114.30, 11544.43, -47704.03, -12125.15, 34308.23, -3870.99, -11096.99, 0.00, 0.00, 0.00, 0.00, 0.00, 0.00, 0.00
85, 3864.44, 56819.52, 2873.12, 27136.51, -17063.59, -1116.74, 11548.32, -47702.00, -12125.15, 34308.23, -3870.99, -11096.99, 0.00, 0.00, 0.00, 0.00, 0.11, 0.32, 0.96
86, 3864.44, 56819.52, 2873.12, 27136.51, -17063.59, -1116.74, 11548.32, -47702.00, -12126.58, 34330.33, -3823.80, -11173.28, 0.00, 0.00, 0.00, 0.00, 0.00, 0.00, 0.00
87, 3874.74, 56839.77, 2884.54, 27138.46, -17051.97, -1120.31, 11565.19, -47700.36, -12126.58, 34330.33, -3823.80, -11173.28, 0.00, 0.00, 0.00, 0.00, 0.00, 0.00, 0.00
88, 3874.74, 56839.77, 2884.54, 27138.46, -17051.97, -1120.31, 11565.19, -47700.36, -12123.70, 34297.70, -3849.77, -11117.06, 0.00, 0.00, 0.00, 0.00, 0.00, 0.00, 0.00
89, 3871.03, 56814.54, 2882.19, 27145.70, -17050.00, -1103.64, 11566.31, -47693.01, -12123.70, 34297.70, -3849.77, -11117.06, 0.00, 0.00, 0.00, 0.00, 0.00, 0.00, 0.00
90, 3871.03, 56814.54, 2882.19, 27145.70, -17050.00, -1103.64, 11566.31, -47693.01, -12111.78, 34356.80, -3818.82, -11130.12, 0.00, 0.00, 0.00, 0.00, 0.00, 0.00, 0.00
91, 3884.44, 56826.09, 2888.47, 27149.68, -17044.54, -1104.09, 11583.43, -47686.89, -12111.78, 34356.80, -3818.82, -11130.12, 0.00, 0.00, 0.00, 0.00, 0.00, 0.00, 0.00
92, 3884.44, 56826.09, 2888.47, 27149.68, -17044.54, -1104.09, 11583.43, -47686.89, -12130.27, 34301.68, -3848.52, -11118.99, 0.00, 0.00, 0.00, 0.00, 0.00, 0.00, 0.00
93, 3867.23, 56818.27, 2876.80, 27135.53, -17061.15, -1113.12, 11570.20, -47700.61, -12130.27, 34301.68, -3848.52, -11118.99, 0.00, 0.00, 0.00, 0.00, 0.00, 0.00, 0.00
94, 3867.23, 56818.27, 2876.80, 27135.53, -17061.15, -1113.12, 11570.20, -47700.61, -12122.85, 34340.64, -3825.32, -11147.28, 0.00, 0.00, 0.00, 0.00, 0.10, 0.32, 0.96
95, 3871.97, 56836.98, 2884.56, 27144.25, -17048.70, -1111.24, 11585.38, -47692.56, -12122.85, 34340.64, -3825.32, -11147.28, 0.00, 0.00, 0.00, 0.00, 0.00, 0.00, 0.00
96, 3871.97, 56836.98, 2884.56, 27144.25, -17048.70, -1111.24, 11585.38, -47692.56, -12129.02, 34311.13, -3856.68, -11128.42, 0.00, 0.00, 0.00, 0.00, 0.00, 0.00, 0.00
97, 3863.41, 56826.38, 2875.84, 27130.75, -17071.79, -1121.34, 11576.97, -47713.57, -12129.02, 34311.13, -3856.68, -11128.42, 0.00, 0.00, 0.00, 0.00, 0.00, 0.00, 0.00
98, 3863.41, 56826.38, 2875.84, 27130.75, -17071.79, -1121.34, 11576.97, -47713.57, -12126.04, 34320.16, -3826.55, -11147.71, 0.00, 0.00, 0.00, 0.00, 0.00, 0.00, 0.00
99, 3894.34, 56839.19, 2897.03, 27163.04, -17043.96, -1096.29, 11598.92, -47685.57, -12126.04, 34320.16, -3826.55, -11147.71, 0.00, 0.00, 0.00, 0.00, 0.00, 0.00, 0.00
100, 3894.34, 56839.19, 2897.03, 27163.04, -17043.96, -1096.29, 11598.92, -47685.57, -12124.90, 34308.09, -3840.12, -11117.04, 0.00, 0.00, 0.00, 0.00, 0.00, 0.00, 0.00
101, 3876.13, 56805.70, 2869.85, 27131.33, -17067.54, -1115.91, 11571.16, -47716.50, -12124.90, 34308.09, -3840.12, -11117.04, 0.00, 0.00, 0.00, 0.00, 0.00, 0.00, 0.00
102, 3876.13, 56805.70, 2869.85, 27131.33, -17067.54, -1115.91, 11571.16, -47716.50, -12126.31, 34320.99, -3833.93, -11152.00, 0.00, 0.00, 0.00, 0.00, 0.00, 0.00, 0.00
103, 3872.57, 56833.58, 2886.39, 27152.03, -17051.63, -1108.02, 11605.20, -47689.64, -12126.31, 34320.99, -3833.93, -11152.00, 0.00, 0.00, 0.00, 0.00, 0.00, 0.00, 0.00
104, 3872.57, 56833.58, 2886.39, 27152.03, -17051.63, -1108.02, 11605.20, -47689.64, -12132.59, 34311.47, -3846.06, -11124.11, 0.00, 0.00, 0.00, 0.00, 0.10, 0.32, 0.97
105, 3863.81, 56821.89, 2870.70, 27129.43, -17061.62, -1124.49, 11589.51, -47716.17, -12132.59, 34311.47, -3846.06, -11124.11, 0.00, 0.00, 0.00, 0.00, 0.00, 0.00, 0.00
106, 3863.81, 56821.89, 2870.70, 27129.43, -17061.62, -1124.49, 11589.51, -47716.17, -12138.20, 34315.94, -3842.49, -11155.08, 0.00, 0.00, 0.00, 0.00, 0.00, 0.00, 0.00
107, 3877.31, 56829.00, 2885.48, 27158.93, -17054.20, -1094.48, 11604.62, -47688.63, -12138.20, 34315.94, -3842.49, -11155.08, 0.00, 0.00, 0.00, 0.00, 0.00, 0.00, 0.00
108, 3877.31, 56829.00, 2885.48, 27158.93, -17054.20, -1094.48, 11604.62, -47688.63, -12107.22, 34332.19, -3832.47, -11100.93, 0.00, 0.00, 0.00, 0.00, 0.00, 0.00, 0.00
109, 3865.56, 56788.61, 2877.12, 27139.06, -17056.73, -1111.17, 11602.21, -47700.34, -12107.22, 34332.19, -3832.47, -11100.93, 0.00, 0.00, 0.00, 0.00, 0.00, 0.00, 0.00
110, 3865.56, 56788.61, 2877.12, 27139.06, -17056.73, -1111.17, 11602.21, -47700.34, -12141.22, 34311.18, -3844.84, -11117.96, 0.00, 0.00, 0.00, 0.00, 0.00, 0.00, 0.00
111, 3862.36, 56815.56, 2883.02, 27152.63, -17051.07, -1104.96, 11619.93, -47685.75, -12141.22, 34311.18, -3844.84, -11117.96, 0.00, 0.00, 0.00, 0.00, 0.00, 0.00, 0.00
112, 3862.36, 56815.56, 2883.02, 27152.63, -17051.07, -1104.96, 11619.93, -47685.75, -12128.73, 34329.82, -3835.02, -11144.33, 0.00, 0.00, 0.00, 0.00, 0.00, 0.00, 0.00
113, 3851.21, 56811.14, 2867.08, 27131.57, -17071.50, -1116.00, 11598.23, -47711.56, -12128.73, 34329.82, -3835.02, -11144.33, 0.00, 0.00, 0.00, 0.00, 0.00, 0.00, 0.00
114, 3851.21, 56811.14, 2867.08, 27131.57, -17071.50, -1116.00, 11598.23, -47711.56, -12120.93, 34317.91, -3848.01, -11103.79, 0.00, 0.00, 0.00, 0.00, 0.09, 0.32, 0.97
115, 3867.97, 56828.46, 2884.00, 27161.41, -17050.22, -1094.30, 11629.39, -47676.89, -12120.93, 34317.91, -3848.01, -11103.79, 0.00, 0.00, 0.00, 0.00, 0.00, 0.00, 0.00
116, 3867.97, 56828.46, 2884.00, 27161.41, -17050.22, -1094.30, 11629.39, -47676.89, -12120.43, 34344.86, -3828.41, -11114.70, 0.00, 0.00, 0.00, 0.00, 0.00, 0.00, 0.00
117, 3863.07, 56806.35, 2877.25, 27144.47, -17045.42, -1106.19, 11614.46, -47689.66, -12120.43, 34344.86, -3828.41, -11114.70, 0.00, 0.00, 0.00, 0.00, 0.00, 0.00, 0.00
118, 3863.07, 56806.35, 2877.25, 27144.47, -17045.42, -1106.19, 11614.46, -47689.66, -12114.11, 34328.72, -3841.24, -11085.28, 0.00, 0.00, 0.00, 0.00, 0.00, 0.00, 0.00
119, 3864.55, 56838.72, 2884.45, 27160.90, -17049.93, -1096.42, 11641.95, -47677.45, -12114.11, 34328.72, -3841.24, -11085.28, 0.00, 0.00, 0.00, 0.00, 0.00, 0.00, 0.00
120, 3864.55, 56838.72, 2884.45, 27160.90, -17049.93, -1096.42, 11641.95, -47677.45, -12115.99, 34358.56, -3820.85, -11118.83, 0.00, 0.00, 0.00, 0.00, 0.00, 0.00, 0.00
121, 3860.26, 56803.34, 2872.62, 27139.17, -17054.29, -1113.97, 11637.73, -47689.48, -12115.99, 34358.56, -3820.85, -11118.83, 0.00, 0.00, 0.00, 0.00, 0.00, 0.00, 0.00
122, 3860.26, 56803.34, 2872.62, 27139.17, -17054.29, -1113.97, 11637.73, -47689.48, -12109.91, 34323.05, -3843.61, -11080.99, 0.00, 0.00, 0.00, 0.00, 0.00, 0.00, 0.00
123, 3860.30, 56813.80, 2879.58, 27152.03, -17044.84, -1100.44, 11643.76, -47677.03, -12109.91, 34323.05, -3843.61, -11080.99, 0.00, 0.00, 0.00, 0.00, 0.00, 0.00, 0.00
124, 3860.30, 56813.80, 2879.58, 27152.03, -17044.84, -1100.44, 11643.76, -47677.03, -12116.32, 34351.61, -3820.47, -11125.80, 0.00, 0.00, 0.00, 0.00, 0.09, 0.32, 0.96
125, 3843.25, 56809.15, 2870.70, 27134.68, -17053.60, -1113.07, 11630.30, -47689.10, -12116.32, 34351.61, -3820.47, -11125.80, 0.00, 0.00, 0.00, 0.00, 0.00, 0.00, 0.00
126, 3843.25, 56809.15, 2870.70, 27134.68, -17053.60, -1113.07, 11630.30, -47689.10, -12113.08, 34323.76, -3844.79, -11082.26, 0.00, 0.00, 0.00, 0.00, 0.00, 0.00, 0.00
127, 3859.50, 56815.14, 2876.49, 27150.13, -17052.12, -1102.14, 11651.05, -47678.59, -12113.08, 34323.76, -3844.79, -11082.26, 0.00, 0.00, 0.00, 0.00, 0.00, 0.00, 0.00
128, 3859.50, 56815.14, 2876.49, 27150.13, -17052.12, -1102.14, 11651.05, -47678.59, -12110.58, 34362.99, -3815.60, -11098.83, 0.00, 0.00, 0.00, 0.00, 0.00, 0.00, 0.00
129, 3865.82, 56822.09, 2871.57, 27143.64, -17056.53, -1101.63, 11634.98, -47686.68, -12110.58, 34362.99, -3815.60, -11098.83, 0.00, 0.00, 0.00, 0.00, 0.00, 0.00, 0.00
130, 3865.82, 56822.09, 2871.57, 27143.64, -17056.53, -1101.63, 11634.98, -47686.68, -12127.83, 34313.48, -3852.01, -11085.59, 0.00, 0.00, 0.00, 0.00, 0.00, 0.00, 0.00
131, 3851.65, 56818.42, 2872.24, 27147.58, -17055.88, -1102.39, 11646.29, -47687.94, -12127.83, 34313.48, -3852.01, -11085.59, 0.00, 0.00, 0.00, 0.00, 0.00, 0.00, 0.00
132, 3851.65, 56818.42, 2872.24, 27147.58, -17055.88, -1102.39, 11646.29, -47687.94, -12117.19, 34357.27, -3814.73, -11109.35, 0.00, 0.00, 0.00, 0.00, 0.00, 0.00, 0.00
133, 3854.94, 56819.94, 2874.79, 27143.13, -17048.55, -1104.42, 11660.23, -47680.56, -12117.19, 34357.27, -3814.73, -11109.35, 0.00, 0.00, 0.00, 0.00, 0.10, 0.32, 0.96
134, 3854.94, 56819.94, 2874.79, 27143.13, -17048.55, -1104.42, 11660.23, -47680.56, -12110.42, 34331.05, -3851.05, -11077.90, 0.00, 0.00, 0.00, 0.00, 0.00, 0.00, 0.00
135, 3837.71, 56802.33, 2868.96, 27143.06, -17063.75, -1105.05, 11644.03, -47687.98, -12110.42, 34331.05, -3851.05, -11077.90, 0.00, 0.00, 0.00, 0.00, 0.00, 0.00, 0.00
136, 3837.71, 56802.33, 2868.96, 27143.06, -17063.75, -1105.05, 11644.03, -47687.98, -12125.20, 34359.68, -3821.14, -11126.21, 0.00, 0.00, 0.00, 0.00, 0.00, 0.00, 0.00
137, 3852.17, 56822.80, 2877.99, 27153.03, -17047.27, -1091.82, 11663.77, -47671.60, -12125.20, 34359.68, -3821.14, -11126.21, 0.00, 0.00, 0.00, 0.00, 0.00, 0.00, 0.00
138, 3852.17, 56822.80, 2877.99, 27153.03, -17047.27, -1091.82, 11663.77, -47671.60, -12103.33, 34336.28, -3842.91, -11039.88, 0.00, 0.00, 0.00, 0.00, 0.00, 0.00, 0.00
139, 3853.13, 56816.39, 2876.47, 27146.10, -17052.17, -1100.44, 11669.51, -47680.20, -12103.33, 34336.28, -3842.91, -11039.88, 0.00, 0.00, 0.00, 0.00, 0.00, 0.00, 0.00
140, 3853.13, 56816.39, 2876.47, 27146.10, -17052.17, -1100.44, 11669.51, -47680.20, -12111.90, 34364.13, -3812.89, -11109.78, 0.00, 0.00, 0.00, 0.00, 0.00, 0.00, 0.00
141, 3871.86, 56837.18, 2888.31, 27156.09, -17040.79, -1097.65, 11686.79, -47669.96, -12111.90, 34364.13, -3812.89, -11109.78, 0.00, 0.00, 0.00, 0.00, 0.00, 0.00, 0.00
142, 3871.86, 56837.18, 2888.31, 27156.09, -17040.79, -1097.65, 11686.79, -47669.96, -12114.56, 34326.45, -3828.90, -11078.69, 0.00, 0.00, 0.00, 0.00, 0.00, 0.00, 0.00
143, 3857.02, 56822.22, 2874.01, 27143.20, -17059.81, -1102.08, 11664.79, -47685.95, -12114.56, 34326.45, -3828.90, -11078.69, 0.00, 0.00, 0.00, 0.00, 0.11, 0.32, 0.96
144, 3857.02, 56822.22, 2874.01, 27143.20, -17059.81, -1102.08, 11664.79, -47685.95, -12099.45, 34366.84, -3803.57, -11093.30, 0.00, 0.00, 0.00, 0.00, 0.00, 0.00, 0.00
145, 3878.18, 56848.71, 2893.79, 27164.01, -17035.85, -1082.29, 11694.48, -47658.32, -12099.45, 34366.84, -3803.57, -11093.30, 0.00, 0.00, 0.00, 0.00, 0.00, 0.00, 0.00
146, 3878.18, 56848.71, 2893.79, 27164.01, -17035.85, -1082.29, 11694.48, -47658.32, -12101.35, 34350.47, -3817.45, -11065.61, 0.00, 0.00, 0.00, 0.00, 0.00, 0.00, 0.00
147, 3858.07, 56827.81, 2886.82, 27145.59, -17046.15, -1100.64, 11683.55, -47676.83, -12101.35, 34350.47, -3817.45, -11065.61, 0.00, 0.00, 0.00, 0.00, 0.00, 0.00, 0.00
148, 3858.07, 56827.81, 2886.82, 27145.59, -17046.15, -1100.64, 11683.55, -47676.83, -12093.28, 34369.67, -3799.86, -11086.08, 0.00, 0.00, 0.00, 0.00, 0.00, 0.00, 0.00
149, 3883.26, 56844.60, 2901.41, 27166.00, -17032.39, -1082.52, 11706.99, -47656.96, -12093.28, 34369.67, -3799.86, -11086.08, 0.00, 0.00, 0.00, 0.00, 0.00, 0.00, 0.00
150, 3883.26, 56844.60, 2901.41, 27166.00, -17032.39, -1082.52, 11706.99, -47656.96, -12101.73, 34345.09, -3812.34, -11062.68, 0.00, 0.00, 0.00, 0.00, 0.00, 0.00, 0.00
151, 3861.69, 56823.88, 2879.13, 27138.50, -17050.22, -1101.34, 11677.11, -47680.52, -12101.73, 34345.09, -3812.34, -11062.68, 0.00, 0.00, 0.00, 0.00, 0.00, 0.00, 0.00
152, 3861.69, 56823.88, 2879.13, 27138.50, -17050.22, -1101.34, 11677.11, -47680.52, -12094.98, 34360.51, -3802.41, -11097.62, 0.00, 0.00, 0.00, 0.00, 0.00, 0.00, 0.00
153, 3869.04, 56854.52, 2900.65, 27164.59, -17031.71, -1086.92, 11716.20, -47659.64, -12094.98, 34360.51, -3802.41, -11097.62, 0.00, 0.00, 0.00, 0.00, 0.11, 0.31, 0.96
154, 3869.04, 56854.52, 2900.65, 27164.59, -17031.71, -1086.92, 11716.20, -47659.64, -12104.74, 34352.02, -3804.16, -11072.63, 0.00, 0.00, 0.00, 0.00, 0.00, 0.00, 0.00
155, 3862.54, 56833.15, 2884.47, 27136.80, -17046.83, -1107.66, 11693.20, -47685.61, -12104.74, 34352.02, -3804.16, -11072.63, 0.00, 0.00, 0.00, 0.00, 0.00, 0.00, 0.00
156, 3862.54, 56833.15, 2884.47, 27136.80, -17046.83, -1107.66, 11693.20, -47685.61, -12100.05, 34352.30, -3810.99, -11058.53, 0.00, 0.00, 0.00, 0.00, 0.00, 0.00, 0.00
157, 3865.26, 56857.47, 2902.66, 27168.61, -17033.41, -1081.49, 11715.87, -47657.65, -12100.05, 34352.30, -3810.99, -11058.53, 0.00, 0.00, 0.00, 0.00, 0.00, 0.00, 0.00
158, 3865.26, 56857.47, 2902.66, 27168.61, -17033.41, -1081.49, 11715.87, -47657.65, -12098.13, 34363.95, -3795.55, -11086.67, 0.00, 0.00, 0.00, 0.00, 0.00, 0.00, 0.00
159, 3857.78, 56843.32, 2888.09, 27136.96, -17047.05, -1103.17, 11697.72, -47676.70, -12098.13, 34363.95, -3795.55, -11086.67, 0.00, 0.00, 0.00, 0.00, 0.00, 0.00, 0.00
160, 3857.78, 56843.32, 2888.09, 27136.96, -17047.05, -1103.17, 11697.72, -47676.70, -12099.20, 34350.88, -3803.55, -11047.48, 0.00, 0.00, 0.00, 0.00, 0.00, 0.00, 0.00
161, 3874.47, 56846.45, 2897.30, 27164.23, -17033.30, -1084.89, 11721.97, -47662.88, -12099.20, 34350.88, -3803.55, -11047.48, 0.00, 0.00, 0.00, 0.00, 0.00, 0.00, 0.00
162, 3874.47, 56846.45, 2897.30, 27164.23, -17033.30, -1084.89, 11721.97, -47662.88, -12102.75, 34357.00, -3785.78, -11101.22, 0.00, 0.00, 0.00, 0.00, 0.00, 0.00, 0.00
163, 3844.54, 56829.44, 2881.56, 27133.68, -17049.82, -1108.20, 11710.79, -47679.13, -12102.75, 34357.00, -3785.78, -11101.22, 0.00, 0.00, 0.00, 0.00, 0.11, 0.31, 0.96
164, 3844.54, 56829.44, 2881.56, 27133.68, -17049.82, -1108.20, 11710.79, -47679.13, -12091.80, 34348.68, -3818.39, -11066.95, 0.00, 0.00, 0.00, 0.00, 0.00, 0.00, 0.00
165, 3843.49, 56828.68, 2887.55, 27156.36, -17037.04, -1089.04, 11727.71, -47661.45, -12091.80, 34348.68, -3818.39, -11066.95, 0.00, 0.00, 0.00, 0.00, 0.00, 0.00, 0.00
166, 3843.49, 56828.68, 2887.55, 27156.36, -17037.04, -1089.04, 11727.71, -47661.45, -12104.50, 34359.84, -3796.98, -11099.05, 0.00, 0.00, 0.00, 0.00, 0.00, 0.00, 0.00
167, 3831.74, 56815.38, 2870.48, 27132.69, -17051.29, -1107.42, 11707.53, -47686.08, -12104.50, 34359.84, -3796.98, -11099.05, 0.00, 0.00, 0.00, 0.00, 0.00, 0.00, 0.00
168, 3831.74, 56815.38, 2870.48, 27132.69, -17051.29, -1107.42, 11707.53, -47686.08, -12097.10, 34340.08, -3819.26, -11066.48, 0.00, 0.00, 0.00, 0.00, 0.00, 0.00, 0.00
169, 3848.46, 56839.55, 2881.41, 27147.69, -17041.04, -1094.41, 11732.25, -47664.69, -12097.10, 34340.08, -3819.26, -11066.48, 0.00, 0.00, 0.00, 0.00, 0.00, 0.00, 0.00
170, 3848.46, 56839.55, 2881.41, 27147.69, -17041.04, -1094.41, 11732.25, -47664.69, -12105.26, 34372.09, -3794.72, -11108.21, 0.00, 0.00, 0.00, 0.00, 0.00, 0.00, 0.00
171, 3848.39, 56823.86, 2871.93, 27138.46, -17047.03, -1100.49, 11718.48, -47679.15, -12105.26, 34372.09, -3794.72, -11108.21, 0.00, 0.00, 0.00, 0.00, 0.00, 0.00, 0.00
172, 3848.39, 56823.86, 2871.93, 27138.46, -17047.03, -1100.49, 11718.48, -47679.15, -12100.74, 34344.62, -3824.76, -11054.21, 0.00, 0.00, 0.00, 0.00, 0.10, 0.32, 0.96
173, 3863.10, 56842.34, 2885.19, 27154.40, -17039.36, -1088.33, 11749.53, -47658.32, -12100.74, 34344.62, -3824.76, -11054.21, 0.00, 0.00, 0.00, 0.00, 0.00, 0.00, 0.00
174, 3863.10, 56842.34, 2885.19, 27154.40, -17039.36, -1088.33, 11749.53, -47658.32, -12099.13, 34393.77, -3791.17, -11076.05, 0.00, 0.00, 0.00, 0.00, 0.00, 0.00, 0.00
175, 3847.96, 56831.54, 2880.13, 27144.20, -17049.37, -1097.18, 11731.16, -47676.92, -12099.13, 34393.77, -3791.17, -11076.05, 0.00, 0.00, 0.00, 0.00, 0.00, 0.00, 0.00
176, 3847.96, 56831.54, 2880.13, 27144.20, -17049.37, -1097.18, 11731.16, -47676.92, -12108.36, 34332.10, -3830.06, -11071.15, 0.00, 0.00, 0.00, 0.00, 0.00, 0.00, 0.00
177, 3853.44, 56819.36, 2882.21, 27155.63, -17044.72, -1089.60, 11741.80, -47671.42, -12108.36, 34332.10, -3830.06, -11071.15, 0.00, 0.00, 0.00, 0.00, 0.00, 0.00, 0.00
178, 3853.44, 56819.36, 2882.21, 27155.63, -17044.72, -1089.60, 11741.80, -47671.42, -12095.47, 34376.94, -3794.39, -11105.71, 0.00, 0.00, 0.00, 0.00, 0.00, 0.00, 0.00
179, 3839.05, 56824.17, 2882.88, 27146.53, -17049.35, -1096.73, 11738.93, -47679.18, -12095.47, 34376.94, -3794.39, -11105.71, 0.00, 0.00, 0.00, 0.00, 0.00, 0.00, 0.00
180, 3839.05, 56824.17, 2882.88, 27146.53, -17049.35, -1096.73, 11738.93, -47679.18, -12112.32, 34321.86, -3829.86, -11092.97, 0.00, 0.00, 0.00, 0.00, 0.00, 0.00, 0.00
181, 3846.89, 56841.00, 2884.25, 27149.48, -17048.32, -1096.40, 11738.35, -47683.78, -12112.32, 34321.86, -3829.86, -11092.97, 0.00, 0.00, 0.00, 0.00, 0.00, 0.00, 0.00
182, 3846.89, 56841.00, 2884.25, 27149.48, -17048.32, -1096.40, 11738.35, -47683.78, -12110.11, 34362.68, -3794.72, -11118.52, 0.00, 0.00, 0.00, 0.00, 0.10, 0.31, 0.96
183, 3863.72, 56835.14, 2890.66, 27151.40, -17044.54, -1092.55, 11755.47, -47675.22, -12110.11, 34362.68, -3794.72, -11118.52, 0.00, 0.00, 0.00, 0.00, 0.00, 0.00, 0.00
184, 3863.72, 56835.14, 2890.66, 27151.40, -17044.54, -1092.55, 11755.47, -47675.22, -12109.48, 34340.93, -3820.25, -11073.55, 0.00, 0.00, 0.00, 0.00, 0.00, 0.00, 0.00
185, 3858.94, 56831.01, 2881.45, 27143.20, -17049.08, -1092.96, 11744.61, -47674.46, -12109.48, 34340.93, -3820.25, -11073.55, 0.00, 0.00, 0.00, 0.00, 0.00, 0.00, 0.00
186, 3858.94, 56831.01, 2881.45, 27143.20, -17049.08, -1092.96, 11744.61, -47674.46, -12097.14, 34374.16, -3791.41, -11118.07, 0.00, 0.00, 0.00, 0.00, 0.00, 0.00, 0.00
187, 3850.24, 56847.93, 2893.97, 27154.26, -17038.06, -1088.26, 11762.38, -47670.97, -12097.14, 34374.16, -3791.41, -11118.07, 0.00, 0.00, 0.00, 0.00, 0.00, 0.00, 0.00
188, 3850.24, 56847.93, 2893.97, 27154.26, -17038.06, -1088.26, 11762.38, -47670.97, -12109.62, 34335.63, -3809.36, -11077.30, 0.00, 0.00, 0.00, 0.00, 0.00, 0.00, 0.00
189, 3837.28, 56841.24, 2872.24, 27132.20, -17058.07, -1104.00, 11751.32, -47688.68, -12109.62, 34335.63, -3809.36, -11077.30, 0.00, 0.00, 0.00, 0.00, 0.00, 0.00, 0.00
190, 3837.28, 56841.24, 2872.24, 27132.20, -17058.07, -1104.00, 11751.32, -47688.68, -12118.04, 34354.34, -3790.70, -11153.10, 0.00, 0.00, 0.00, 0.00, 0.00, 0.00, 0.00
191, 3841.77, 56830.70, 2888.94, 27149.50, -17041.84, -1091.10, 11768.22, -47668.36, -12118.04, 34354.34, -3790.70, -11153.10, 0.00, 0.00, 0.00, 0.00, 0.00, 0.00, 0.00
192, 3841.77, 56830.70, 2888.94, 27149.50, -17041.84, -1091.10, 11768.22, -47668.36, -12104.14, 34342.58, -3808.40, -11078.91, 0.00, 0.00, 0.00, 0.00, 0.10, 0.32, 0.96
193, 3824.20, 56807.34, 2874.28, 27128.56, -17052.50, -1105.85, 11756.03, -47684.99, -12104.14, 34342.58, -3808.40, -11078.91, 0.00, 0.00, 0.00, 0.00, 0.00, 0.00, 0.00
194, 3824.20, 56807.34, 2874.28, 27128.56, -17052.50, -1105.85, 11756.03, -47684.99, -12107.11, 34360.66, -3795.50, -11122.54, 0.00, 0.00, 0.00, 0.00, 0.00, 0.00, 0.00
195, 3859.10, 56845.85, 2889.03, 27152.83, -17040.70, -1085.65, 11767.43, -47671.17, -12107.11, 34360.66, -3795.50, -11122.54, 0.00, 0.00, 0.00, 0.00, 0.00, 0.00, 0.00
196, 3859.10, 56845.85, 2889.03, 27152.83, -17040.70, -1085.65, 11767.43, -47671.17, -12109.55, 34349.09, -3803.22, -11113.64, 0.00, 0.00, 0.00, 0.00, 0.00, 0.00, 0.00
197, 3836.32, 56826.87, 2877.45, 27130.35, -17050.83, -1106.70, 11760.03, -47684.36, -12109.55, 34349.09, -3803.22, -11113.64, 0.00, 0.00, 0.00, 0.00, 0.00, 0.00, 0.00
198, 3836.32, 56826.87, 2877.45, 27130.35, -17050.83, -1106.70, 11760.03, -47684.36, -12101.73, 34360.31, -3796.69, -11104.57, 0.00, 0.00, 0.00, 0.00, 0.00, 0.00, 0.00
199, 3832.83, 56830.31, 2884.96, 27155.16, -17039.05, -1081.02, 11778.23, -47665.00, -12101.73, 34360.31, -3796.69, -11104.57, 0.00, 0.00, 0.00, 0.00, 0.00, 0.00, 0.00
200, 3832.83, 56830.31, 2884.96, 27155.16, -17039.05, -1081.02, 11778.23, -47665.00, -12100.52, 34361.83, -3806.10, -11086.78, 0.00, 0.00, 0.00, 0.00, 0.00, 0.00, 0.00
201, 3828.70, 56812.90, 2871.60, 27126.79, -17054.04, -1107.51, 11762.27, -47683.54, -12100.52, 34361.83, -3806.10, -11086.78, 0.00, 0.00, 0.00, 0.00, 0.00, 0.00, 0.00
202, 3828.70, 56812.90, 2871.60, 27126.79, -17054.04, -1107.51, 11762.27, -47683.54, -12107.38, 34352.84, -3795.19, -11123.81, 0.00, 0.00, 0.00, 0.00, 0.10, 0.32, 0.96
203, 3853.11, 56848.08, 2891.11, 27156.14, -17035.72, -1081.24, 11793.07, -47661.14, -12107.38, 34352.84, -3795.19, -11123.81, 0.00, 0.00, 0.00, 0.00, 0.00, 0.00, 0.00
204, 3853.11, 56848.08, 2891.11, 27156.14, -17035.72, -1081.24, 11793.07, -47661.14, -12102.35, 34368.85, -3795.15, -11085.15, 0.00, 0.00, 0.00, 0.00, 0.00, 0.00, 0.00
205, 3832.65, 56827.79, 2877.43, 27132.94, -17049.78, -1101.02, 11777.89, -47676.09, -12102.35, 34368.85, -3795.15, -11085.15, 0.00, 0.00, 0.00, 0.00, 0.00, 0.00, 0.00
206, 3832.65, 56827.79, 2877.43, 27132.94, -17049.78, -1101.02, 11777.89, -47676.09, -12089.05, 34366.84, -3793.60, -11103.59, 0.00, 0.00, 0.00, 0.00, 0.00, 0.00, 0.00
207, 3859.77, 56863.35, 2903.72, 27162.02, -17026.26, -1075.39, 11811.58, -47651.19, -12089.05, 34366.84, -3793.60, -11103.59, 0.00, 0.00, 0.00, 0.00, 0.00, 0.00, 0.00
208, 3859.77, 56863.35, 2903.72, 27162.02, -17026.26, -1075.39, 11811.58, -47651.19, -12096.41, 34373.72, -3783.57, -11094.53, 0.00, 0.00, 0.00, 0.00, 0.00, 0.00, 0.00
209, 3841.04, 56833.15, 2882.32, 27132.85, -17043.58, -1101.34, 11784.20, -47679.18, -12096.41, 34373.72, -3783.57, -11094.53, 0.00, 0.00, 0.00, 0.00, 0.00, 0.00, 0.00
210, 3841.04, 56833.15, 2882.32, 27132.85, -17043.58, -1101.34, 11784.20, -47679.18, -12105.37, 34348.82, -3793.58, -11096.10, 0.00, 0.00, 0.00, 0.00, 0.00, 0.00, 0.00
211, 3841.30, 56848.20, 2891.62, 27154.96, -17033.21, -1084.15, 11801.88, -47660.94, -12105.37, 34348.82, -3793.58, -11096.10, 0.00, 0.00, 0.00, 0.00, 0.10, 0.32, 0.96
212, 3841.30, 56848.20, 2891.62, 27154.96, -17033.21, -1084.15, 11801.88, -47660.94, -12085.72, 34375.64, -3774.29, -11108.26, 0.00, 0.00, 0.00, 0.00, 0.00, 0.00, 0.00
213, 3832.90, 56827.09, 2891.62, 27137.65, -17038.69, -1095.84, 11792.96, -47673.90, -12085.72, 34375.64, -3774.29, -11108.26, 0.00, 0.00, 0.00, 0.00, 0.00, 0.00, 0.00
214, 3832.90, 56827.09, 2891.62, 27137.65, -17038.69, -1095.84, 11792.96, -47673.90, -12091.42, 34354.68, -3786.56, -11084.97, 0.00, 0.00, 0.00, 0.00, 0.00, 0.00, 0.00
215, 3849.51, 56848.62, 2901.57, 27161.79, -17026.37, -1074.14, 11815.87, -47649.80, -12091.42, 34354.68, -3786.56, -11084.97, 0.00, 0.00, 0.00, 0.00, 0.00, 0.00, 0.00
216, 3849.51, 56848.62, 2901.57, 27161.79, -17026.37, -1074.14, 11815.87, -47649.80, -12088.34, 34388.79, -3759.83, -11087.02, 0.00, 0.00, 0.00, 0.00, 0.00, 0.00, 0.00
217, 3852.50, 56851.82, 2897.77, 27145.39, -17031.76, -1088.08, 11803.53, -47668.63, -12088.34, 34388.79, -3759.83, -11087.02, 0.00, 0.00, 0.00, 0.00, 0.00, 0.00, 0.00
218, 3852.50, 56851.82, 2897.77, 27145.39, -17031.76, -1088.08, 11803.53, -47668.63, -12093.61, 34359.68, -3778.50, -11065.79, 0.00, 0.00, 0.00, 0.00, 0.00, 0.00, 0.00
219, 3855.34, 56869.34, 2911.72, 27164.86, -17016.25, -1073.60, 11826.62, -47646.21, -12093.61, 34359.68, -3778.50, -11065.79, 0.00, 0.00, 0.00, 0.00, 0.00, 0.00, 0.00
220, 3855.34, 56869.34, 2911.72, 27164.86, -17016.25, -1073.60, 11826.62, -47646.21, -12076.87, 34400.41, -3742.58, -11108.24, 0.00, 0.00, 0.00, 0.00, 0.00, 0.00, 0.00
221, 3836.79, 56861.67, 2906.20, 27156.38, -17016.63, -1077.71, 11816.79, -47654.88, -12076.87, 34400.41, -3742.58, -11108.24, 0.00, 0.00, 0.00, 0.00, 0.11, 0.32, 0.96
222, 3836.79, 56861.67, 2906.20, 27156.38, -17016.63, -1077.71, 11816.79, -47654.88, -12087.71, 34350.96, -3768.37, -11057.83, 0.00, 0.00, 0.00, 0.00, 0.00, 0.00, 0.00
223, 3839.58, 56848.17, 2907.87, 27159.45, -17020.74, -1074.85, 11824.36, -47653.36, -12087.71, 34350.96, -3768.37, -11057.83, 0.00, 0.00, 0.00, 0.00, 0.00, 0.00, 0.00
224, 3839.58, 56848.17, 2907.87, 27159.45, -17020.74, -1074.85, 11824.36, -47653.36, -12086.46, 34395.76, -3749.48, -11096.32, 0.00, 0.00, 0.00, 0.00, 0.00, 0.00, 0.00
225, 3844.92, 56852.75, 2898.40, 27148.03, -17023.65, -1088.28, 11823.18, -47658.50, -12086.46, 34395.76, -3749.48, -11096.32, 0.00, 0.00, 0.00, 0.00, 0.00, 0.00, 0.00
226, 3844.92, 56852.75, 2898.40, 27148.03, -17023.65, -1088.28, 11823.18, -47658.50, -12091.20, 34358.16, -3785.98, -11054.21, 0.00, 0.00, 0.00, 0.00, 0.00, 0.00, 0.00
227, 3854.27, 56851.82, 2898.13, 27149.63, -17035.07, -1084.55, 11819.20, -47666.01, -12091.20, 34358.16, -3785.98, -11054.21, 0.00, 0.00, 0.00, 0.00, 0.00, 0.00, 0.00
228, 3854.27, 56851.82, 2898.13, 27149.63, -17035.07, -1084.55, 11819.20, -47666.01, -12094.68, 34393.68, -3754.76, -11097.71, 0.00, 0.00, 0.00, 0.00, 0.00, 0.00, 0.00
229, 3833.75, 56855.17, 2894.68, 27148.47, -17033.08, -1086.29, 11820.36, -47661.16, -12094.68, 34393.68, -3754.76, -11097.71, 0.00, 0.00, 0.00, 0.00, 0.00, 0.00, 0.00
230, 3833.75, 56855.17, 2894.68, 27148.47, -17033.08, -1086.29, 11820.36, -47661.16, -12100.12, 34351.03, -3789.38, -11052.38, 0.00, 0.00, 0.00, 0.00, 0.00, 0.00, 0.00
231, 3841.30, 56856.64, 2890.53, 27151.00, -17041.35, -1079.92, 11816.09, -47665.79, -12100.12, 34351.03, -3789.38, -11052.38, 0.00, 0.00, 0.00, 0.00, 0.10, 0.32, 0.96
232, 3841.30, 56856.64, 2890.53, 27151.00, -17041.35, -1079.92, 11816.09, -47665.79, -12089.99, 34391.24, -3757.31, -11102.54, 0.00, 0.00, 0.00, 0.00, 0.00, 0.00, 0.00
233, 3848.25, 56853.31, 2900.50, 27155.92, -17028.86, -1079.77, 11827.20, -47659.17, -12089.99, 34391.24, -3757.31, -11102.54, 0.00, 0.00, 0.00, 0.00, 0.00, 0.00, 0.00
234, 3848.25, 56853.31, 2900.50, 27155.92, -17028.86, -1079.77, 11827.20, -47659.17, -12099.65, 34348.48, -3783.77, -11066.19, 0.00, 0.00, 0.00, 0.00, 0.00, 0.00, 0.00
235, 3850.98, 56846.86, 2892.70, 27140.43, -17044.39, -1091.99, 11808.38, -47676.16, -12099.65, 34348.48, -3783.77, -11066.19, 0.00, 0.00, 0.00, 0.00, 0.00, 0.00, 0.00
236, 3850.98, 56846.86, 2892.70, 27140.43, -17044.39, -1091.99, 11808.38, -47676.16, -12099.96, 34383.51, -3757.44, -11081.46, 0.00, 0.00, 0.00, 0.00, 0.00, 0.00, 0.00
237, 3856.03, 56853.49, 2903.07, 27155.80, -17035.00, -1081.87, 11827.25, -47662.16, -12099.96, 34383.51, -3757.44, -11081.46, 0.00, 0.00, 0.00, 0.00, 0.00, 0.00, 0.00
238, 3856.03, 56853.49, 2903.07, 27155.80, -17035.00, -1081.87, 11827.25, -47662.16, -12097.19, 34347.46, -3783.61, -11059.31, 0.00, 0.00, 0.00, 0.00, 0.00, 0.00, 0.00
239, 3825.30, 56840.04, 2889.19, 27139.26, -17047.90, -1091.68, 11809.79, -47678.71, -12097.19, 34347.46, -3783.61, -11059.31, 0.00, 0.00, 0.00, 0.00, 0.00, 0.00, 0.00
240, 3825.30, 56840.04, 2889.19, 27139.26, -17047.90, -1091.68, 11809.79, -47678.71, -12090.33, 34380.20, -3755.85, -11120.91, 0.00, 0.00, 0.00, 0.00, 0.00, 0.00, 0.00
241, 3854.69, 56877.21, 2918.56, 27169.75, -17024.79, -1068.44, 11842.33, -47652.29, -12090.33, 34380.20, -3755.85, -11120.91, 0.00, 0.00, 0.00, 0.00, 0.11, 0.32, 0.97
242, 3854.69, 56877.21, 2918.56, 27169.75, -17024.79, -1068.44, 11842.33, -47652.29, -12090.55, 34371.24, -3761.71, -11036.96, 0.00, 0.00, 0.00, 0.00, 0.00, 0.00, 0.00
243, 3856.70, 56869.79, 2906.51, 27150.19, -17037.53, -1083.12, 11818.91, -47671.84, -12090.55, 34371.24, -3761.71, -11036.96, 0.00, 0.00, 0.00, 0.00, 0.00, 0.00, 0.00
244, 3856.70, 56869.79, 2906.51, 27150.19, -17037.53, -1083.12, 11818.91, -47671.84, -12105.10, 34365.25, -3749.39, -11087.76, 0.00, 0.00, 0.00, 0.00, 0.00, 0.00, 0.00
245, 3872.33, 56887.02, 2925.60, 27173.78, -17019.51, -1071.45, 11841.15, -47661.76, -12105.10, 34365.25, -3749.39, -11087.76, 0.00, 0.00, 0.00, 0.00, 0.00, 0.00, 0.00
246, 3872.33, 56887.02, 2925.60, 27173.78, -17019.51, -1071.45, 11841.15, -47661.76, -12103.31, 34349.55, -3753.39, -11085.33, 0.00, 0.00, 0.00, 0.00, 0.00, 0.00, 0.00
247, 3872.39, 56869.32, 2912.07, 27151.91, -17032.70, -1086.21, 11827.07, -47672.13, -12103.31, 34349.55, -3753.39, -11085.33, 0.00, 0.00, 0.00, 0.00, 0.00, 0.00, 0.00
248, 3872.39, 56869.32, 2912.07, 27151.91, -17032.70, -1086.21, 11827.07, -47672.13, -12097.39, 34370.52, -3752.41, -11077.90, 0.00, 0.00, 0.00, 0.00, 0.00, 0.00, 0.00
249, 3872.57, 56884.16, 2934.83, 27187.65, -17009.77, -1054.98, 11860.95, -47642.47, -12097.39, 34370.52, -3752.41, -11077.90, 0.00, 0.00, 0.00, 0.00, 0.00, 0.00, 0.00
250, 3872.57, 56884.16, 2934.83, 27187.65, -17009.77, -1054.98, 11860.95, -47642.47, -12088.25, 34376.82, -3748.83, -11053.03, 0.00, 0.00, 0.00, 0.00, 0.11, 0.32, 0.96
251, 3828.67, 56850.99, 2905.61, 27155.76, -17031.36, -1075.88, 11822.80, -47671.06, -12088.25, 34376.82, -3748.83, -11053.03, 0.00, 0.00, 0.00, 0.00, 0.00, 0.00, 0.00
252, 3828.67, 56850.99, 2905.61, 27155.76, -17031.36, -1075.88, 11822.80, -47671.06, -12101.97, 34352.02, -3759.03, -11086.51, 0.00, 0.00, 0.00, 0.00, 0.00, 0.00, 0.00
253, 3855.45, 56887.09, 2925.31, 27175.47, -17013.88, -1065.78, 11852.48, -47648.93, -12101.97, 34352.02, -3759.03, -11086.51, 0.00, 0.00, 0.00, 0.00, 0.00, 0.00, 0.00
254, 3855.45, 56887.09, 2925.31, 27175.47, -17013.88, -1065.78, 11852.48, -47648.93, -12095.71, 34370.21, -3746.35, -11082.46, 0.00, 0.00, 0.00, 0.00, 0.00, 0.00, 0.00
255, 3847.34, 56855.53, 2897.75, 27147.31, -17034.00, -1086.83, 11819.69, -47674.59, -12095.71, 34370.21, -3746.35, -11082.46, 0.00, 0.00, 0.00, 0.00, 0.00, 0.00, 0.00
0, 3847.34, 56855.53, 2897.75, 27147.31, -17034.00, -1086.83, 11819.69, -47674.59, -12095.40, 34355.08, -3766.56, -11069.63, 0.00, 0.00, 0.00, 0.00, 0.00, 0.00, 0.00
1, 3836.07, 56853.07, 2912.32, 27165.21, -17024.90, -1072.17, 11845.08, -47657.14, -12095.40, 34355.08, -3766.56, -11069.63, 0.00, 0.00, 0.00, 0.00, 0.00, 0.00, 0.00
2, 3836.07, 56853.07, 2912.32, 27165.21, -17024.90, -1072.17, 11845.08, -47657.14, -12101.01, 34359.21, -3751.47, -11081.19, 0.00, 0.00, 0.00, 0.00, 0.00, 0.00, 0.00
3, 3823.71, 56834.92, 2892.92, 27144.76, -17036.92, -1087.14, 11815.62, -47680.18, -12101.01, 34359.21, -3751.47, -11081.19, 0.00, 0.00, 0.00, 0.00, 0.00, 0.00, 0.00
4, 3823.71, 56834.92, 2892.92, 27144.76, -17036.92, -1087.14, 11815.62, -47680.18, -12091.49, 34350.23, -3764.12, -11064.25, 0.00, 0.00, 0.00, 0.00, 0.11, 0.32, 0.96
5, 3844.01, 56884.99, 2908.88, 27161.15, -17025.26, -1073.82, 11843.25, -47652.04, -12091.49, 34350.23, -3764.12, -11064.25, 0.00, 0.00, 0.00, 0.00, 0.00, 0.00, 0.00
6, 3844.01, 56884.99, 2908.88, 27161.15, -17025.26, -1073.82, 11843.25, -47652.04, -12102.84, 34372.00, -3747.02, -11080.03, 0.00, 0.00, 0.00, 0.00, 0.00, 0.00, 0.00
7, 3837.32, 56841.69, 2893.59, 27139.55, -17045.78, -1088.78, 11821.10, -47680.05, -12102.84, 34372.00, -3747.02, -11080.03, 0.00, 0.00, 0.00, 0.00, 0.00, 0.00, 0.00
8, 3837.32, 56841.69, 2893.59, 27139.55, -17045.78, -1088.78, 11821.10, -47680.05, -12096.99, 34352.06, -3764.59, -11058.41, 0.00, 0.00, 0.00, 0.00, 0.00, 0.00, 0.00
9, 3851.67, 56869.86, 2911.09, 27159.63, -17022.08, -1076.21, 11838.53, -47659.26, -12096.99, 34352.06, -3764.59, -11058.41, 0.00, 0.00, 0.00, 0.00, 0.00, 0.00, 0.00
10, 3851.67, 56869.86, 2911.09, 27159.63, -17022.08, -1076.21, 11838.53, -47659.26, -12111.47, 34356.38, -3741.08, -11108.64, 0.00, 0.00, 0.00, 0.00, 0.00, 0.00, 0.00
11, 3824.90, 56861.67, 2902.96, 27145.46, -17040.63, -1090.90, 11814.93, -47690.69, -12111.47, 34356.38, -3741.08, -11108.64, 0.00, 0.00, 0.00, 0.00, 0.00, 0.00, 0.00
12, 3824.90, 56861.67, 2902.96, 27145.46, -17040.63, -1090.90, 11814.93, -47690.69, -12114.49, 34308.81, -3762.45, -11092.39, 0.00, 0.00, 0.00, 0.00, 0.00, 0.00, 0.00
13, 3862.31, 56888.05, 2920.99, 27166.22, -17023.69, -1072.39, 11829.79, -47671.06, -12114.49, 34308.81, -3762.45, -11092.39, 0.00, 0.00, 0.00, 0.00, 0.00, 0.00, 0.00
14, 3862.31, 56888.05, 2920.99, 27166.22, -17023.69, -1072.39, 11829.79, -47671.06, -12101.93, 34357.91, -3718.30, -11102.13, 0.00, 0.00, 0.00, 0.00, 0.10, 0.31, 0.96
15, 3861.93, 56881.97, 2925.78, 27163.85, -17020.32, -1075.52, 11825.35, -47672.07, -12101.93, 34357.91, -3718.30, -11102.13, 0.00, 0.00, 0.00, 0.00, 0.00, 0.00, 0.00
16, 3861.93, 56881.97, 2925.78, 27163.85, -17020.32, -1075.52, 11825.35, -47672.07, -12105.70, 34327.47, -3747.34, -11087.54, 0.00, 0.00, 0.00, 0.00, 0.00, 0.00, 0.00
17, 3854.60, 56886.02, 2932.28, 27170.24, -17019.82, -1075.72, 11833.08, -47672.80, -12105.70, 34327.47, -3747.34, -11087.54, 0.00, 0.00, 0.00, 0.00, 0.00, 0.00, 0.00
18, 3854.60, 56886.02, 2932.28, 27170.24, -17019.82, -1075.72, 11833.08, -47672.80, -12102.75, 34357.36, -3711.93, -11124.53, 0.00, 0.00, 0.00, 0.00, 0.00, 0.00, 0.00
19, 3866.32, 56900.83, 2934.09, 27171.83, -17007.78, -1075.01, 11834.49, -47663.98, -12102.75, 34357.36, -3711.93, -11124.53, 0.00, 0.00, 0.00, 0.00, 0.00, 0.00, 0.00
20, 3866.32, 56900.83, 2934.09, 27171.83, -17007.78, -1075.01, 11834.49, -47663.98, -12097.19, 34329.55, -3739.96, -11041.09, 0.00, 0.00, 0.00, 0.00, 0.00, 0.00, 0.00
21, 3861.60, 56889.08, 2931.36, 27175.96, -17016.40, -1067.09, 11828.83, -47663.82, -12097.19, 34329.55, -3739.96, -11041.09, 0.00, 0.00, 0.00, 0.00, 0.00, 0.00, 0.00
22, 3861.60, 56889.08, 2931.36, 27175.96, -17016.40, -1067.09, 11828.83, -47663.82, -12097.75, 34363.13, -3713.76, -11120.84, 0.00, 0.00, 0.00, 0.00, 0.00, 0.00, 0.00
23, 3851.79, 56875.18, 2924.41, 27172.39, -17011.69, -1068.06, 11826.06, -47663.46, -12097.75, 34363.13, -3713.76, -11120.84, 0.00, 0.00, 0.00, 0.00, 0.00, 0.00, 0.00
24, 3851.79, 56875.18, 2924.41, 27172.39, -17011.69, -1068.06, 11826.06, -47663.46, -12102.80, 34330.76, -3746.85, -11051.42, 0.00, 0.00, 0.00, 0.00, 0.10, 0.32, 0.96
25, 3849.04, 56869.54, 2919.27, 27164.57, -17015.60, -1071.63, 11821.68, -47661.63, -12102.80, 34330.76, -3746.85, -11051.42, 0.00, 0.00, 0.00, 0.00, 0.00, 0.00, 0.00
26, 3849.04, 56869.54, 2919.27, 27164.57, -17015.60, -1071.63, 11821.68, -47661.63, -12090.55, 34362.50, -3716.67, -11105.71, 0.00, 0.00, 0.00, 0.00, 0.00, 0.00, 0.00
27, 3843.34, 56878.30, 2920.52, 27167.20, -17014.59, -1075.01, 11821.86, -47665.61, -12090.55, 34362.50, -3716.67, -11105.71, 0.00, 0.00, 0.00, 0.00, 0.00, 0.00, 0.00
28, 3843.34, 56878.30, 2920.52, 27167.20, -17014.59, -1075.01, 11821.86, -47665.61, -12098.26, 34318.87, -3750.31, -11107.16, 0.00, 0.00, 0.00, 0.00, 0.00, 0.00, 0.00
29, 3826.82, 56875.49, 2908.45, 27156.16, -17022.57, -1078.61, 11805.70, -47674.84, -12098.26, 34318.87, -3750.31, -11107.16, 0.00, 0.00, 0.00, 0.00, 0.00, 0.00, 0.00
30, 3826.82, 56875.49, 2908.45, 27156.16, -17022.57, -1078.61, 11805.70, -47674.84, -12089.72, 34352.89, -3722.57, -11131.03, 0.00, 0.00, 0.00, 0.00, 0.00, 0.00, 0.00
31, 3833.97, 56860.04, 2917.75, 27165.04, -17017.63, -1072.91, 11816.79, -47661.99, -12089.72, 34352.89, -3722.57, -11131.03, 0.00, 0.00, 0.00, 0.00, 0.00, 0.00, 0.00
32, 3833.97, 56860.04, 2917.75, 27165.04, -17017.63, -1072.91, 11816.79, -47661.99, -12099.20, 34328.05, -3745.91, -11065.32, 0.00, 0.00, 0.00, 0.00, 0.00, 0.00, 0.00
33, 3821.63, 56847.03, 2903.20, 27145.92, -17029.19, -1089.98, 11794.39, -47678.84, -12099.20, 34328.05, -3745.91, -11065.32, 0.00, 0.00, 0.00, 0.00, 0.10, 0.32, 0.97
34, 3821.63, 56847.03, 2903.20, 27145.92, -17029.19, -1089.98, 11794.39, -47678.84, -12099.11, 34344.57, -3731.18, -11112.13, 0.00, 0.00, 0.00, 0.00, 0.00, 0.00, 0.00
35, 3833.48, 56873.07, 2914.06, 27166.40, -17014.75, -1067.83, 11804.98, -47663.06, -12099.11, 34344.57, -3731.18, -11112.13, 0.00, 0.00, 0.00, 0.00, 0.00, 0.00, 0.00
36, 3833.48, 56873.07, 2914.06, 27166.40, -17014.75, -1067.83, 11804.98, -47663.06, -12100.27, 34330.76, -3740.72, -11112.86, 0.00, 0.00, 0.00, 0.00, 0.00, 0.00, 0.00
37, 3828.52, 56862.43, 2901.06, 27144.14, -17031.60, -1089.22, 11782.86, -47681.72, -12100.27, 34330.76, -3740.72, -11112.86, 0.00, 0.00, 0.00, 0.00, 0.00, 0.00, 0.00
38, 3828.52, 56862.43, 2901.06, 27144.14, -17031.60, -1089.22, 11782.86, -47681.72, -12097.10, 34348.42, -3735.40, -11107.52, 0.00, 0.00, 0.00, 0.00, 0.00, 0.00, 0.00
39, 3838.40, 56885.34, 2920.39, 27168.66, -17013.70, -1071.12, 11807.38, -47656.73, -12097.10, 34348.42, -3735.40, -11107.52, 0.00, 0.00, 0.00, 0.00, 0.00, 0.00, 0.00
40, 3838.40, 56885.34, 2920.39, 27168.66, -17013.70, -1071.12, 11807.38, -47656.73, -12091.42, 34341.24, -3729.77, -11078.69, 0.00, 0.00, 0.00, 0.00, 0.00, 0.00, 0.00
41, 3829.73, 56857.92, 2904.34, 27142.46, -17024.61, -1090.16, 11778.27, -47678.57, -12091.42, 34341.24, -3729.77, -11078.69, 0.00, 0.00, 0.00, 0.00, 0.00, 0.00, 0.00
42, 3829.73, 56857.92, 2904.34, 27142.46, -17024.61, -1090.16, 11778.27, -47678.57, -12086.28, 34348.77, -3723.73, -11095.34, 0.00, 0.00, 0.00, 0.00, 0.00, 0.00, 0.00
43, 3833.68, 56880.63, 2919.29, 27167.45, -17013.66, -1069.44, 11798.68, -47659.75, -12086.28, 34348.77, -3723.73, -11095.34, 0.00, 0.00, 0.00, 0.00, 0.10, 0.32, 0.96
44, 3833.68, 56880.63, 2919.29, 27167.45, -17013.66, -1069.44, 11798.68, -47659.75, -12103.98, 34329.66, -3728.49, -11111.43, 0.00, 0.00, 0.00, 0.00, 0.00, 0.00, 0.00
45, 3828.32, 56862.95, 2905.95, 27144.70, -17029.68, -1088.17, 11766.52, -47683.87, -12103.98, 34329.66, -3728.49, -11111.43, 0.00, 0.00, 0.00, 0.00, 0.00, 0.00, 0.00
46, 3828.32, 56862.95, 2905.95, 27144.70, -17029.68, -1088.17, 11766.52, -47683.87, -12088.99, 34342.23, -3732.38, -11082.29, 0.00, 0.00, 0.00, 0.00, 0.00, 0.00, 0.00
47, 3845.44, 56891.45, 2923.74, 27173.13, -17008.78, -1066.25, 11794.63, -47650.65, -12088.99, 34342.23, -3732.38, -11082.29, 0.00, 0.00, 0.00, 0.00, 0.00, 0.00, 0.00
48, 3845.44, 56891.45, 2923.74, 27173.13, -17008.78, -1066.25, 11794.63, -47650.65, -12086.01, 34357.87, -3712.45, -11082.08, 0.00, 0.00, 0.00, 0.00, 0.00, 0.00, 0.00
49, 3841.66, 56882.15, 2908.21, 27147.76, -17022.82, -1085.13, 11766.94, -47676.49, -12086.01, 34357.87, -3712.45, -11082.08, 0.00, 0.00, 0.00, 0.00, 0.00, 0.00, 0.00
50, 3841.66, 56882.15, 2908.21, 27147.76, -17022.82, -1085.13, 11766.94, -47676.49, -12086.12, 34337.96, -3733.50, -11089.15, 0.00, 0.00, 0.00, 0.00, 0.00, 0.00, 0.00
51, 3839.43, 56878.93, 2920.50, 27170.33, -17017.01, -1065.98, 11780.26, -47659.01, -12086.12, 34337.96, -3733.50, -11089.15, 0.00, 0.00, 0.00, 0.00, 0.00, 0.00, 0.00
52, 3839.43, 56878.93, 2920.50, 27170.33, -17017.01, -1065.98, 11780.26, -47659.01, -12104.27, 34336.82, -3714.46, -11096.66, 0.00, 0.00, 0.00, 0.00, 0.00, 0.00, 0.00
53, 3823.69, 56857.47, 2911.72, 27148.94, -17027.78, -1085.98, 11753.87, -47687.16, -12104.27, 34336.82, -3714.46, -11096.66, 0.00, 0.00, 0.00, 0.00, 0.10, 0.31, 0.96
54, 3823.69, 56857.47, 2911.72, 27148.94, -17027.78, -1085.98, 11753.87, -47687.16, -12097.37, 34324.68, -3738.80, -11072.36, 0.00, 0.00, 0.00, 0.00, 0.00, 0.00, 0.00
55, 3824.07, 56876.34, 2918.06, 27159.74, -17017.14, -1077.58, 11768.75, -47659.13, -12097.37, 34324.68, -3738.80, -11072.36, 0.00, 0.00, 0.00, 0.00, 0.00, 0.00, 0.00
56, 3824.07, 56876.34, 2918.06, 27159.74, -17017.14, -1077.58, 11768.75, -47659.13, -12100.99, 34352.73, -3715.31, -11108.82, 0.00, 0.00, 0.00, 0.00, 0.00, 0.00, 0.00
57, 3826.13, 56873.70, 2902.82, 27141.10, -17035.40, -1091.97, 11734.89, -47689.19, -12100.99, 34352.73, -3715.31, -11108.82, 0.00, 0.00, 0.00, 0.00, 0.00, 0.00, 0.00
58, 3826.13, 56873.70, 2902.82, 27141.10, -17035.40, -1091.97, 11734.89, -47689.19, -12102.33, 34312.86, -3744.83, -11091.72, 0.00, 0.00, 0.00, 0.00, 0.00, 0.00, 0.00
59, 3844.66, 56881.32, 2909.15, 27157.55, -17029.64, -1082.23, 11754.78, -47669.09, -12102.33, 34312.86, -3744.83, -11091.72, 0.00, 0.00, 0.00, 0.00, 0.00, 0.00, 0.00
60, 3844.66, 56881.32, 2909.15, 27157.55, -17029.64, -1082.23, 11754.78, -47669.09, -12094.98, 34357.43, -3713.23, -11092.72, 0.00, 0.00, 0.00, 0.00, 0.00, 0.00, 0.00
61, 3833.59, 56871.26, 2901.68, 27140.31, -17036.86, -1094.56, 11731.63, -47687.22, -12094.98, 34357.43, -3713.23, -11092.72, 0.00, 0.00, 0.00, 0.00, 0.00, 0.00, 0.00
62, 3833.59, 56871.26, 2901.68, 27140.31, -17036.86, -1094.56, 11731.63, -47687.22, -12105.19, 34302.30, -3744.77, -11087.16, 0.00, 0.00, 0.00, 0.00, 0.00, 0.00, 0.00
63, 3823.47, 56862.25, 2904.48, 27151.94, -17035.61, -1084.86, 11731.85, -47684.16, -12105.19, 34302.30, -3744.77, -11087.16, 0.00, 0.00, 0.00, 0.00, 0.10, 0.31, 0.96
64, 3823.47, 56862.25, 2904.48, 27151.94, -17035.61, -1084.86, 11731.85, -47684.16, -12107.67, 34339.72, -3714.26, -11119.99, 0.00, 0.00, 0.00, 0.00, 0.00, 0.00, 0.00
65, 3811.24, 56843.64, 2898.15, 27138.93, -17038.24, -1093.60, 11718.10, -47687.40, -12107.67, 34339.72, -3714.26, -11119.99, 0.00, 0.00, 0.00, 0.00, 0.00, 0.00, 0.00
66, 3811.24, 56843.64, 2898.15, 27138.93, -17038.24, -1093.60, 11718.10, -47687.40, -12107.16, 34314.73, -3751.02, -11068.56, 0.00, 0.00, 0.00, 0.00, 0.00, 0.00, 0.00
67, 3805.41, 56860.64, 2898.35, 27144.40, -17041.37, -1094.63, 11725.50, -47683.67, -12107.16, 34314.73, -3751.02, -11068.56, 0.00, 0.00, 0.00, 0.00, 0.00, 0.00, 0.00
68, 3805.41, 56860.64, 2898.35, 27144.40, -17041.37, -1094.63, 11725.50, -47683.67, -12105.77, 34341.84, -3717.47, -11120.57, 0.00, 0.00, 0.00, 0.00, 0.00, 0.00, 0.00
69, 3813.25, 56862.41, 2900.68, 27148.00, -17036.46, -1087.35, 11714.79, -47683.00, -12105.77, 34341.84, -3717.47, -11120.57, 0.00, 0.00, 0.00, 0.00, 0.00, 0.00, 0.00
70, 3813.25, 56862.41, 2900.68, 27148.00, -17036.46, -1087.35, 11714.79, -47683.00, -12103.04, 34313.50, -3738.91, -11059.26, 0.00, 0.00, 0.00, 0.00, 0.00, 0.00, 0.00
71, 3827.80, 56866.64, 2900.99, 27146.26, -17038.42, -1088.51, 11711.69, -47679.53, -12103.04, 34313.50, -3738.91, -11059.26, 0.00, 0.00, 0.00, 0.00, 0.00, 0.00, 0.00
72, 3827.80, 56866.64, 2900.99, 27146.26, -17038.42, -1088.51, 11711.69, -47679.53, -12096.00, 34355.93, -3712.07, -11112.19, 0.00, 0.00, 0.00, 0.00, 0.10, 0.32, 0.97
73, 3827.80, 56891.36, 2912.97, 27156.72, -17024.34, -1079.34, 11720.05, -47669.86, -12096.00, 34355.93, -3712.07, -11112.19, 0.00, 0.00, 0.00, 0.00, 0.00, 0.00, 0.00
74, 3827.80, 56891.36, 2912.97, 27156.72, -17024.34, -1079.34, 11720.05, -47669.86, -12087.64, 34339.03, -3723.26, -11052.27, 0.00, 0.00, 0.00, 0.00, 0.00, 0.00, 0.00
75, 3829.17, 56869.68, 2905.50, 27146.19, -17034.06, -1086.32, 11708.74, -47676.87, -12087.64, 34339.03, -3723.26, -11052.27, 0.00, 0.00, 0.00, 0.00, 0.00, 0.00, 0.00
76, 3829.17, 56869.68, 2905.50, 27146.19, -17034.06, -1086.32, 11708.74, -47676.87, -12093.48, 34355.05, -3704.98, -11101.87, 0.00, 0.00, 0.00, 0.00, 0.00, 0.00, 0.00
77, 3828.88, 56876.61, 2919.34, 27159.85, -17020.12, -1078.61, 11714.06, -47670.08, -12093.48, 34355.05, -3704.98, -11101.87, 0.00, 0.00, 0.00, 0.00, 0.00, 0.00, 0.00
78, 3828.88, 56876.61, 2919.34, 27159.85, -17020.12, -1078.61, 11714.06, -47670.08, -12096.21, 34319.71, -3727.15, -11055.89, 0.00, 0.00, 0.00, 0.00, 0.00, 0.00, 0.00
79, 3815.15, 56857.27, 2895.94, 27133.23, -17046.09, -1095.10, 11684.49, -47686.24, -12096.21, 34319.71, -3727.15, -11055.89, 0.00, 0.00, 0.00, 0.00, 0.00, 0.00, 0.00
80, 3815.15, 56857.27, 2895.94, 27133.23, -17046.09, -1095.10, 11684.49, -47686.24, -12094.64, 34351.19, -3716.87, -11097.95, 0.00, 0.00, 0.00, 0.00, 0.00, 0.00, 0.00
81, 3826.95, 56868.85, 2907.31, 27149.59, -17031.71, -1085.67, 11698.97, -47672.00, -12094.64, 34351.19, -3716.87, -11097.95, 0.00, 0.00, 0.00, 0.00, 0.00, 0.00, 0.00
82, 3826.95, 56868.85, 2907.31, 27149.59, -17031.71, -1085.67, 11698.97, -47672.00, -12098.62, 34324.97, -3733.61, -11086.93, 0.00, 0.00, 0.00, 0.00, 0.10, 0.32, 0.97
83, 3809.65, 56853.49, 2894.86, 27129.76, -17038.18, -1106.17, 11675.84, -47689.64, -12098.62, 34324.97, -3733.61, -11086.93, 0.00, 0.00, 0.00, 0.00, 0.00, 0.00, 0.00
84, 3809.65, 56853.49, 2894.86, 27129.76, -17038.18, -1106.17, 11675.84, -47689.64, -12095.58, 34341.04, -3721.50, -11099.58, 0.00, 0.00, 0.00, 0.00, 0.00, 0.00, 0.00
85, 3812.05, 56866.52, 2898.28, 27149.14, -17039.63, -1086.03, 11685.07, -47679.96, -12095.58, 34341.04, -3721.50, -11099.58, 0.00, 0.00, 0.00, 0.00, 0.00, 0.00, 0.00
86, 3812.05, 56866.52, 2898.28, 27149.14, -17039.63, -1086.03, 11685.07, -47679.96, -12106.24, 34319.18, -3736.05, -11069.19, 0.00, 0.00, 0.00, 0.00, 0.00, 0.00, 0.00
87, 3807.06, 56842.63, 2879.31, 27122.95, -17056.28, -1108.27, 11651.63, -47698.62, -12106.24, 34319.18, -3736.05, -11069.19, 0.00, 0.00, 0.00, 0.00, 0.00, 0.00, 0.00
88, 3807.06, 56842.63, 2879.31, 27122.95, -17056.28, -1108.27, 11651.63, -47698.62, -12107.20, 34327.45, -3735.83, -11105.35, 0.00, 0.00, 0.00, 0.00, 0.00, 0.00, 0.00
89, 3797.90, 56852.96, 2892.05, 27149.97, -17040.43, -1088.28, 11675.39, -47676.63, -12107.20, 34327.45, -3735.83, -11105.35, 0.00, 0.00, 0.00, 0.00, 0.00, 0.00, 0.00
90, 3797.90, 56852.96, 2892.05, 27149.97, -17040.43, -1088.28, 11675.39, -47676.63, -12101.37, 34342.00, -3736.23, -11075.16, 0.00, 0.00, 0.00, 0.00, 0.00, 0.00, 0.00
91, 3802.88, 56853.94, 2878.28, 27127.02, -17053.98, -1107.71, 11649.42, -47695.65, -12101.37, 34342.00, -3736.23, -11075.16, 0.00, 0.00, 0.00, 0.00, 0.00, 0.00, 0.00
92, 3802.88, 56853.94, 2878.28, 27127.02, -17053.98, -1107.71, 11649.42, -47695.65, -12100.79, 34328.48, -3731.18, -11091.85, 0.00, 0.00, 0.00, 0.00, 0.11, 0.31, 0.96
93, 3826.24, 56870.66, 2906.87, 27157.70, -17032.70, -1084.66, 11676.13, -47673.00, -12100.79, 34328.48, -3731.18, -11091.85, 0.00, 0.00, 0.00, 0.00, 0.00, 0.00, 0.00
94, 3826.24, 56870.66, 2906.87, 27157.70, -17032.70, -1084.66, 11676.13, -47673.00, -12109.79, 34329.89, -3726.06, -11081.08, 0.00, 0.00, 0.00, 0.00, 0.00, 0.00, 0.00
95, 3813.65, 56842.90, 2895.87, 27135.98, -17048.41, -1100.98, 11646.06, -47691.16, -12109.79, 34329.89, -3726.06, -11081.08, 0.00, 0.00, 0.00, 0.00, 0.00, 0.00, 0.00
96, 3813.65, 56842.90, 2895.87, 27135.98, -17048.41, -1100.98, 11646.06, -47691.16, -12100.00, 34327.67, -3725.03, -11094.65, 0.00, 0.00, 0.00, 0.00, 0.00, 0.00, 0.00
97, 3819.67, 56870.30, 2909.35, 27150.17, -17039.03, -1088.26, 11672.24, -47666.03, -12100.00, 34327.67, -3725.03, -11094.65, 0.00, 0.00, 0.00, 0.00, 0.00, 0.00, 0.00
98, 3819.67, 56870.30, 2909.35, 27150.17, -17039.03, -1088.26, 11672.24, -47666.03, -12100.67, 34346.14, -3714.19, -11072.90, 0.00, 0.00, 0.00, 0.00, 0.00, 0.00, 0.00
99, 3813.57, 56861.96, 2895.11, 27131.22, -17041.55, -1105.27, 11642.00, -47688.54, -12100.67, 34346.14, -3714.19, -11072.90, 0.00, 0.00, 0.00, 0.00, 0.00, 0.00, 0.00
100, 3813.57, 56861.96, 2895.11, 27131.22, -17041.55, -1105.27, 11642.00, -47688.54, -12097.77, 34314.40, -3726.28, -11080.38, 0.00, 0.00, 0.00, 0.00, 0.00, 0.00, 0.00
101, 3811.13, 56879.29, 2906.44, 27151.45, -17036.30, -1087.95, 11655.41, -47668.02, -12097.77, 34314.40, -3726.28, -11080.38, 0.00, 0.00, 0.00, 0.00, 0.00, 0.00, 0.00
102, 3811.13, 56879.29, 2906.44, 27151.45, -17036.30, -1087.95, 11655.41, -47668.02, -12087.31, 34356.48, -3694.74, -11087.43, 0.00, 0.00, 0.00, 0.00, 0.11, 0.32, 0.96
103, 3807.75, 56866.57, 2899.47, 27133.38, -17042.13, -1096.26, 11643.49, -47673.41, -12087.31, 34356.48, -3694.74, -11087.43, 0.00, 0.00, 0.00, 0.00, 0.00, 0.00, 0.00
104, 3807.75, 56866.57, 2899.47, 27133.38, -17042.13, -1096.26, 11643.49, -47673.41, -12086.93, 34341.93, -3721.97, -11060.85, 0.00, 0.00, 0.00, 0.00, 0.00, 0.00, 0.00
105, 3833.10, 56904.16, 2923.72, 27155.36, -17027.13, -1091.99, 11664.86, -47667.21, -12086.93, 34341.93, -3721.97, -11060.85, 0.00, 0.00, 0.00, 0.00, 0.00, 0.00, 0.00
106, 3833.10, 56904.16, 2923.72, 27155.36, -17027.13, -1091.99, 11664.86, -47667.21, -12098.64, 34343.10, -3689.62, -11090.22, 0.00, 0.00, 0.00, 0.00, 0.00, 0.00, 0.00
107, 3801.12, 56862.61, 2898.28, 27137.32, -17051.16, -1096.00, 11619.78, -47687.85, -12098.64, 34343.10, -3689.62, -11090.22, 0.00, 0.00, 0.00, 0.00, 0.00, 0.00, 0.00
108, 3801.12, 56862.61, 2898.28, 27137.32, -17051.16, -1096.00, 11619.78, -47687.85, -12104.90, 34309.28, -3730.08, -11068.94, 0.00, 0.00, 0.00, 0.00, 0.00, 0.00, 0.00
109, 3814.41, 56859.10, 2906.24, 27146.71, -17040.43, -1094.63, 11629.72, -47680.09, -12104.90, 34309.28, -3730.08, -11068.94, 0.00, 0.00, 0.00, 0.00, 0.00, 0.00, 0.00
110, 3814.41, 56859.10, 2906.24, 27146.71, -17040.43, -1094.63, 11629.72, -47680.09, -12099.69, 34343.03, -3693.38, -11118.70, 0.00, 0.00, 0.00, 0.00, 0.00, 0.00, 0.00
111, 3829.10, 56870.32, 2902.75, 27134.06, -17045.71, -1102.32, 11625.46, -47681.10, -12099.69, 34343.03, -3693.38, -11118.70, 0.00, 0.00, 0.00, 0.00, 0.11, 0.32, 0.96
112, 3829.10, 56870.32, 2902.75, 27134.06, -17045.71, -1102.32, 11625.46, -47681.10, -12096.65, 34328.03, -3731.36, -11053.67, 0.00, 0.00, 0.00, 0.00, 0.00, 0.00, 0.00
113, 3800.51, 56868.00, 2901.79, 27142.55, -17043.07, -1095.08, 11634.24, -47668.54, -12096.65, 34328.03, -3731.36, -11053.67, 0.00, 0.00, 0.00, 0.00, 0.00, 0.00, 0.00
114, 3800.51, 56868.00, 2901.79, 27142.55, -17043.07, -1095.08, 11634.24, -47668.54, -12090.95, 34369.20, -3693.78, -11098.22, 0.00, 0.00, 0.00, 0.00, 0.00, 0.00, 0.00
115, 3810.57, 56873.03, 2906.73, 27146.19, -17038.38, -1091.03, 11620.72, -47673.43, -12090.95, 34369.20, -3693.78, -11098.22, 0.00, 0.00, 0.00, 0.00, 0.00, 0.00, 0.00
116, 3810.57, 56873.03, 2906.73, 27146.19, -17038.38, -1091.03, 11620.72, -47673.43, -12098.17, 34308.63, -3724.43, -11051.64, 0.00, 0.00, 0.00, 0.00, 0.00, 0.00, 0.00
117, 3823.98, 56879.22, 2903.29, 27141.97, -17054.85, -1097.81, 11616.80, -47683.60, -12098.17, 34308.63, -3724.43, -11051.64, 0.00, 0.00, 0.00, 0.00, 0.00, 0.00, 0.00
118, 3823.98, 56879.22, 2903.29, 27141.97, -17054.85, -1097.81, 11616.80, -47683.60, -12104.90, 34341.64, -3706.37, -11120.37, 0.00, 0.00, 0.00, 0.00, 0.00, 0.00, 0.00
119, 3809.34, 56875.46, 2895.31, 27139.13, -17047.47, -1098.66, 11613.74, -47678.86, -12104.90, 34341.64, -3706.37, -11120.37, 0.00, 0.00, 0.00, 0.00, 0.00, 0.00, 0.00
120, 3809.34, 56875.46, 2895.31, 27139.13, -17047.47, -1098.66, 11613.74, -47678.86, -12108.90, 34312.92, -3732.96, -11054.90, 0.00, 0.00, 0.00, 0.00, 0.00, 0.00, 0.00
121, 3792.06, 56840.80, 2891.67, 27135.08, -17055.03, -1099.04, 11602.23, -47684.76, -12108.90, 34312.92, -3732.96, -11054.90, 0.00, 0.00, 0.00, 0.00, 0.11, 0.32, 0.96
122, 3792.06, 56840.80, 2891.67, 27135.08, -17055.03, -1099.04, 11602.23, -47684.76, -12100.27, 34349.76, -3698.90, -11082.24, 0.00, 0.00, 0.00, 0.00, 0.00, 0.00, 0.00
123, 3820.83, 56879.58, 2909.21, 27141.37, -17039.92, -1095.48, 11615.69, -47669.16, -12100.27, 34349.76, -3698.90, -11082.24, 0.00, 0.00, 0.00, 0.00, 0.00, 0.00, 0.00
124, 3820.83, 56879.58, 2909.21, 27141.37, -17039.92, -1095.48, 11615.69, -47669.16, -12096.32, 34328.30, -3716.02, -11054.41, 0.00, 0.00, 0.00, 0.00, 0.00, 0.00, 0.00
125, 3811.46, 56876.74, 2901.68, 27131.40, -17050.36, -1104.09, 11604.82, -47680.80, -12096.32, 34328.30, -3716.02, -11054.41, 0.00, 0.00, 0.00, 0.00, 0.00, 0.00, 0.00
126, 3811.46, 56876.74, 2901.68, 27131.40, -17050.36, -1104.09, 11604.82, -47680.80, -12102.60, 34343.30, -3700.17, -11112.84, 0.00, 0.00, 0.00, 0.00, 0.00, 0.00, 0.00
127, 3817.12, 56881.03, 2905.68, 27138.41, -17042.20, -1098.99, 11617.25, -47670.73, -12102.60, 34343.30, -3700.17, -11112.84, 0.00, 0.00, 0.00, 0.00, 0.00, 0.00, 0.00
128, 3817.12, 56881.03, 2905.68, 27138.41, -17042.20, -1098.99, 11617.25, -47670.73, -12105.32, 34324.43, -3719.26, -11061.50, 0.00, 0.00, 0.00, 0.00, 0.00, 0.00, 0.00
129, 3813.34, 56880.54, 2897.79, 27124.40, -17057.22, -1107.51, 11593.83, -47683.89, -12105.32, 34324.43, -3719.26, -11061.50, 0.00, 0.00, 0.00, 0.00, 0.00, 0.00, 0.00
130, 3813.34, 56880.54, 2897.79, 27124.40, -17057.22, -1107.51, 11593.83, -47683.89, -12095.96, 34347.39, -3694.41, -11079.36, 0.00, 0.00, 0.00, 0.00, 0.00, 0.00, 0.00
131, 3823.29, 56912.41, 2916.66, 27150.78, -17037.75, -1088.82, 11612.89, -47663.42, -12095.96, 34347.39, -3694.41, -11079.36, 0.00, 0.00, 0.00, 0.00, 0.11, 0.32, 0.97
132, 3823.29, 56912.41, 2916.66, 27150.78, -17037.75, -1088.82, 11612.89, -47663.42, -12101.64, 34324.21, -3705.38, -11067.04, 0.00, 0.00, 0.00, 0.00, 0.00, 0.00, 0.00
133, 3791.95, 56854.14, 2895.87, 27120.60, -17051.09, -1110.90, 11586.67, -47686.13, -12101.64, 34324.21, -3705.38, -11067.04, 0.00, 0.00, 0.00, 0.00, 0.00, 0.00, 0.00
134, 3791.95, 56854.14, 2895.87, 27120.60, -17051.09, -1110.90, 11586.67, -47686.13, -12100.23, 34344.46, -3699.35, -11081.93, 0.00, 0.00, 0.00, 0.00, 0.00, 0.00, 0.00
135, 3810.75, 56889.03, 2914.35, 27146.60, -17038.55, -1090.70, 11616.56, -47657.81, -12100.23, 34344.46, -3699.35, -11081.93, 0.00, 0.00, 0.00, 0.00, 0.00, 0.00, 0.00
136, 3810.75, 56889.03, 2914.35, 27146.60, -17038.55, -1090.70, 11616.56, -47657.81, -12087.73, 34348.48, -3697.83, -11043.66, 0.00, 0.00, 0.00, 0.00, 0.00, 0.00, 0.00
137, 3804.83, 56872.83, 2896.27, 27121.63, -17047.38, -1107.46, 11586.61, -47674.86, -12087.73, 34348.48, -3697.83, -11043.66, 0.00, 0.00, 0.00, 0.00, 0.00, 0.00, 0.00
138, 3804.83, 56872.83, 2896.27, 27121.63, -17047.38, -1107.46, 11586.61, -47674.86, -12098.22, 34337.06, -3703.04, -11099.36, 0.00, 0.00, 0.00, 0.00, 0.00, 0.00, 0.00
139, 3823.94, 56906.91, 2910.51, 27141.79, -17046.38, -1095.44, 11606.39, -47665.56, -12098.22, 34337.06, -3703.04, -11099.36, 0.00, 0.00, 0.00, 0.00, 0.00, 0.00, 0.00
140, 3823.94, 56906.91, 2910.51, 27141.79, -17046.38, -1095.44, 11606.39, -47665.56, -12101.50, 34335.50, -3687.75, -11080.59, 0.00, 0.00, 0.00, 0.00, 0.00, 0.00, 0.00
141, 3788.31, 56859.39, 2896.00, 27114.79, -17057.58, -1118.66, 11581.94, -47686.86, -12101.50, 34335.50, -3687.75, -11080.59, 0.00, 0.00, 0.00, 0.00, 0.10, 0.32, 0.96
142, 3788.31, 56859.39, 2896.00, 27114.79, -17057.58, -1118.66, 11581.94, -47686.86, -12106.87, 34318.98, -3705.90, -11062.55, 0.00, 0.00, 0.00, 0.00, 0.00, 0.00, 0.00
143, 3808.51, 56873.05, 2901.61, 27135.46, -17051.01, -1103.86, 11593.54, -47669.12, -12106.87, 34318.98, -3705.90, -11062.55, 0.00, 0.00, 0.00, 0.00, 0.00, 0.00, 0.00
144, 3808.51, 56873.05, 2901.61, 27135.46, -17051.01, -1103.86, 11593.54, -47669.12, -12098.64, 34341.82, -3691.10, -11071.49, 0.00, 0.00, 0.00, 0.00, 0.00, 0.00, 0.00
145, 3793.23, 56865.34, 2887.98, 27112.73, -17060.26, -1115.40, 11573.02, -47685.61, -12098.64, 34341.82, -3691.10, -11071.49, 0.00, 0.00, 0.00, 0.00, 0.00, 0.00, 0.00
146, 3793.23, 56865.34, 2887.98, 27112.73, -17060.26, -1115.40, 11573.02, -47685.61, -12100.90, 34328.79, -3709.18, -11067.35, 0.00, 0.00, 0.00, 0.00, 0.00, 0.00, 0.00
147, 3830.62, 56903.38, 2909.97, 27139.62, -17041.46, -1100.42, 11594.92, -47665.21, -12100.90, 34328.79, -3709.18, -11067.35, 0.00, 0.00, 0.00, 0.00, 0.00, 0.00, 0.00
148, 3830.62, 56903.38, 2909.97, 27139.62, -17041.46, -1100.42, 11594.92, -47665.21, -12094.71, 34348.02, -3681.15, -11087.16, 0.00, 0.00, 0.00, 0.00, 0.00, 0.00, 0.00
149, 3810.50, 56873.63, 2904.48, 27117.40, -17052.39, -1116.96, 11581.96, -47678.01, -12094.71, 34348.02, -3681.15, -11087.16, 0.00, 0.00, 0.00, 0.00, 0.00, 0.00, 0.00
150, 3810.50, 56873.63, 2904.48, 27117.40, -17052.39, -1116.96, 11581.96, -47678.01, -12097.55, 34324.43, -3702.81, -11055.19, 0.00, 0.00, 0.00, 0.00, 0.00, 0.00, 0.00
151, 3811.33, 56889.90, 2911.38, 27139.26, -17049.04, -1097.85, 11592.55, -47668.76, -12097.55, 34324.43, -3702.81, -11055.19, 0.00, 0.00, 0.00, 0.00, 0.10, 0.31, 0.97
152, 3811.33, 56889.90, 2911.38, 27139.26, -17049.04, -1097.85, 11592.55, -47668.76, -12098.17, 34351.61, -3680.35, -11095.05, 0.00, 0.00, 0.00, 0.00, 0.00, 0.00, 0.00
153, 3803.46, 56882.30, 2906.37, 27120.53, -17050.63, -1111.60, 11576.24, -47678.77, -12098.17, 34351.61, -3680.35, -11095.05, 0.00, 0.00, 0.00, 0.00, 0.00, 0.00, 0.00
154, 3803.46, 56882.30, 2906.37, 27120.53, -17050.63, -1111.60, 11576.24, -47678.77, -12094.93, 34325.84, -3701.36, -11055.89, 0.00, 0.00, 0.00, 0.00, 0.00, 0.00, 0.00
155, 3818.55, 56902.58, 2909.82, 27131.53, -17048.35, -1103.71, 11585.53, -47668.80, -12094.93, 34325.84, -3701.36, -11055.89, 0.00, 0.00, 0.00, 0.00, 0.00, 0.00, 0.00
156, 3818.55, 56902.58, 2909.82, 27131.53, -17048.35, -1103.71, 11585.53, -47668.80, -12093.19, 34357.74, -3671.56, -11089.21, 0.00, 0.00, 0.00, 0.00, 0.00, 0.00, 0.00
157, 3815.20, 56887.24, 2912.28, 27128.42, -17043.23, -1108.20, 11588.02, -47667.53, -12093.19, 34357.74, -3671.56, -11089.21, 0.00, 0.00, 0.00, 0.00, 0.00, 0.00, 0.00
158, 3815.20, 56887.24, 2912.28, 27128.42, -17043.23, -1108.20, 11588.02, -47667.53, -12091.06, 34323.41, -3696.75, -11036.33, 0.00, 0.00, 0.00, 0.00, 0.00, 0.00, 0.00
159, 3820.94, 56907.07, 2915.52, 27133.90, -17047.38, -1101.78, 11592.11, -47662.52, -12091.06, 34323.41, -3696.75, -11036.33, 0.00, 0.00, 0.00, 0.00, 0.00, 0.00, 0.00
160, 3820.94, 56907.07, 2915.52, 27133.90, -17047.38, -1101.78, 11592.11, -47662.52, -12086.55, 34367.01, -3668.68, -11091.70, 0.00, 0.00, 0.00, 0.00, 0.10, 0.32, 0.97
161, 3815.62, 56885.75, 2907.89, 27124.85, -17040.12, -1107.86, 11574.67, -47667.21, -12086.55, 34367.01, -3668.68, -11091.70, 0.00, 0.00, 0.00, 0.00, 0.00, 0.00, 0.00
162, 3815.62, 56885.75, 2907.89, 27124.85, -17040.12, -1107.86, 11574.67, -47667.21, -12097.57, 34320.52, -3706.72, -11044.76, 0.00, 0.00, 0.00, 0.00, 0.00, 0.00, 0.00
163, 3812.31, 56887.98, 2907.81, 27127.64, -17052.21, -1107.53, 11581.22, -47669.74, -12097.57, 34320.52, -3706.72, -11044.76, 0.00, 0.00, 0.00, 0.00, 0.00, 0.00, 0.00
164, 3812.31, 56887.98, 2907.81, 27127.64, -17052.21, -1107.53, 11581.22, -47669.74, -12095.31, 34357.67, -3668.44, -11099.41, 0.00, 0.00, 0.00, 0.00, 0.00, 0.00, 0.00
165, 3806.81, 56883.87, 2908.95, 27125.27, -17050.02, -1113.41, 11581.31, -47672.78, -12095.31, 34357.67, -3668.44, -11099.41, 0.00, 0.00, 0.00, 0.00, 0.00, 0.00, 0.00
166, 3806.81, 56883.87, 2908.95, 27125.27, -17050.02, -1113.41, 11581.31, -47672.78, -12102.35, 34316.97, -3709.09, -11034.23, 0.00, 0.00, 0.00, 0.00, 0.00, 0.00, 0.00
167, 3805.32, 56877.41, 2899.87, 27122.52, -17054.47, -1113.34, 11575.43, -47674.82, -12102.35, 34316.97, -3709.09, -11034.23, 0.00, 0.00, 0.00, 0.00, 0.00, 0.00, 0.00
168, 3805.32, 56877.41, 2899.87, 27122.52, -17054.47, -1113.34, 11575.43, -47674.82, -12093.01, 34364.71, -3669.66, -11097.51, 0.00, 0.00, 0.00, 0.00, 0.00, 0.00, 0.00
169, 3827.20, 56893.95, 2910.38, 27135.38, -17045.87, -1103.08, 11584.31, -47666.64, -12093.01, 34364.71, -3669.66, -11097.51, 0.00, 0.00, 0.00, 0.00, 0.00, 0.00, 0.00
170, 3827.20, 56893.95, 2910.38, 27135.38, -17045.87, -1103.08, 11584.31, -47666.64, -12102.53, 34316.57, -3705.05, -11040.76, 0.00, 0.00, 0.00, 0.00, 0.10, 0.32, 0.96
171, 3813.30, 56891.09, 2897.93, 27116.67, -17063.30, -1118.75, 11572.17, -47681.23, -12102.53, 34316.57, -3705.05, -11040.76, 0.00, 0.00, 0.00, 0.00, 0.00, 0.00, 0.00
172, 3813.30, 56891.09, 2897.93, 27116.67, -17063.30, -1118.75, 11572.17, -47681.23, -12088.58, 34364.13, -3669.08, -11065.66, 0.00, 0.00, 0.00, 0.00, 0.00, 0.00, 0.00
173, 3825.30, 56910.33, 2919.79, 27141.41, -17029.82, -1100.82, 11593.56, -47651.77, -12088.58, 34364.13, -3669.08, -11065.66, 0.00, 0.00, 0.00, 0.00, 0.00, 0.00, 0.00
174, 3825.30, 56910.33, 2919.79, 27141.41, -17029.82, -1100.82, 11593.56, -47651.77, -12093.17, 34332.48, -3690.05, -11040.91, 0.00, 0.00, 0.00, 0.00, 0.00, 0.00, 0.00
175, 3805.23, 56889.32, 2904.39, 27120.35, -17051.03, -1112.80, 11570.13, -47675.93, -12093.17, 34332.48, -3690.05, -11040.91, 0.00, 0.00, 0.00, 0.00, 0.00, 0.00, 0.00
176, 3805.23, 56889.32, 2904.39, 27120.35, -17051.03, -1112.80, 11570.13, -47675.93, -12096.79, 34352.30, -3674.38, -11087.45, 0.00, 0.00, 0.00, 0.00, 0.00, 0.00, 0.00
177, 3826.62, 56912.88, 2924.59, 27139.93, -17042.38, -1099.04, 11598.30, -47657.27, -12096.79, 34352.30, -3674.38, -11087.45, 0.00, 0.00, 0.00, 0.00, 0.00, 0.00, 0.00
178, 3826.62, 56912.88, 2924.59, 27139.93, -17042.38, -1099.04, 11598.30, -47657.27, -12093.32, 34332.34, -3677.20, -11069.48, 0.00, 0.00, 0.00, 0.00, 0.00, 0.00, 0.00
179, 3822.35, 56897.08, 2910.09, 27118.77, -17056.57, -1117.77, 11573.42, -47674.30, -12093.32, 34332.34, -3677.20, -11069.48, 0.00, 0.00, 0.00, 0.00, 0.00, 0.00, 0.00
180, 3822.35, 56897.08, 2910.09, 27118.77, -17056.57, -1117.77, 11573.42, -47674.30, -12085.99, 34358.81, -3662.91, -11048.56, 0.00, 0.00, 0.00, 0.00, 0.11, 0.32, 0.97
181, 3840.16, 56935.08, 2932.06, 27144.83, -17024.76, -1095.53, 11600.24, -47647.08, -12085.99, 34358.81, -3662.91, -11048.56, 0.00, 0.00, 0.00, 0.00, 0.00, 0.00, 0.00
182, 3840.16, 56935.08, 2932.06, 27144.83, -17024.76, -1095.53, 11600.24, -47647.08, -12088.63, 34346.52, -3668.79, -11046.46, 0.00, 0.00, 0.00, 0.00, 0.00, 0.00, 0.00
183, 3822.30, 56900.34, 2908.83, 27117.56, -17047.70, -1118.57, 11572.35, -47675.04, -12088.63, 34346.52, -3668.79, -11046.46, 0.00, 0.00, 0.00, 0.00, 0.00, 0.00, 0.00
184, 3822.30, 56900.34, 2908.83, 27117.56, -17047.70, -1118.57, 11572.35, -47675.04, -12097.43, 34346.94, -3675.10, -11065.83, 0.00, 0.00, 0.00, 0.00, 0.00, 0.00, 0.00
185, 3833.37, 56928.91, 2925.73, 27140.25, -17036.41, -1101.54, 11594.10, -47654.75, -12097.43, 34346.94, -3675.10, -11065.83, 0.00, 0.00, 0.00, 0.00, 0.00, 0.00, 0.00
186, 3833.37, 56928.91, 2925.73, 27140.25, -17036.41, -1101.54, 11594.10, -47654.75, -12092.32, 34346.38, -3664.70, -11058.84, 0.00, 0.00, 0.00, 0.00, 0.00, 0.00, 0.00
187, 3821.72, 56902.69, 2916.43, 27123.13, -17048.37, -1112.56, 11580.55, -47669.12, -12092.32, 34346.38, -3664.70, -11058.84, 0.00, 0.00, 0.00, 0.00, 0.00, 0.00, 0.00
188, 3821.72, 56902.69, 2916.43, 27123.13, -17048.37, -1112.56, 11580.55, -47669.12, -12089.97, 34341.75, -3671.01, -11042.70, 0.00, 0.00, 0.00, 0.00, 0.00, 0.00, 0.00
189, 3819.98, 56911.63, 2926.58, 27143.29, -17036.43, -1101.18, 11596.02, -47654.23, -12089.97, 34341.75, -3671.01, -11042.70, 0.00, 0.00, 0.00, 0.00, 0.00, 0.00, 0.00
190, 3819.98, 56911.63, 2926.58, 27143.29, -17036.43, -1101.18, 11596.02, -47654.23, -12094.62, 34346.18, -3668.77, -11063.78, 0.00, 0.00, 0.00, 0.00, 0.11, 0.32, 0.97
191, 3829.99, 56894.82, 2914.11, 27118.68, -17047.63, -1121.30, 11576.53, -47674.35, -12094.62, 34346.18, -3668.77, -11063.78, 0.00, 0.00, 0.00, 0.00, 0.00, 0.00, 0.00
192, 3829.99, 56894.82, 2914.11, 27118.68, -17047.63, -1121.30, 11576.53, -47674.35, -12089.52, 34341.75, -3681.69, -11051.08, 0.00, 0.00, 0.00, 0.00, 0.00, 0.00, 0.00
193, 3826.89, 56926.27, 2925.55, 27145.19, -17038.76, -1097.92, 11600.13, -47654.63, -12089.52, 34341.75, -3681.69, -11051.08, 0.00, 0.00, 0.00, 0.00, 0.00, 0.00, 0.00
194, 3826.89, 56926.27, 2925.55, 27145.19, -17038.76, -1097.92, 11600.13, -47654.63, -12093.08, 34352.57, -3664.64, -11068.00, 0.00, 0.00, 0.00, 0.00, 0.00, 0.00, 0.00
195, 3820.32, 56899.61, 2908.83, 27114.34, -17051.65, -1126.75, 11576.17, -47674.35, -12093.08, 34352.57, -3664.64, -11068.00, 0.00, 0.00, 0.00, 0.00, 0.00, 0.00, 0.00
196, 3820.32, 56899.61, 2908.83, 27114.34, -17051.65, -1126.75, 11576.17, -47674.35, -12094.95, 34328.59, -3686.14, -11075.13, 0.00, 0.00, 0.00, 0.00, 0.00, 0.00, 0.00
197, 3827.11, 56914.25, 2919.79, 27140.85, -17040.37, -1099.17, 11594.18, -47658.19, -12094.95, 34328.59, -3686.14, -11075.13, 0.00, 0.00, 0.00, 0.00, 0.00, 0.00, 0.00
198, 3827.11, 56914.25, 2919.79, 27140.85, -17040.37, -1099.17, 11594.18, -47658.19, -12093.19, 34361.54, -3661.82, -11057.61, 0.00, 0.00, 0.00, 0.00, 0.00, 0.00, 0.00
199, 3810.37, 56904.79, 2912.88, 27121.67, -17052.03, -1119.58, 11576.50, -47676.71, -12093.19, 34361.54, -3661.82, -11057.61, 0.00, 0.00, 0.00, 0.00, 0.10, 0.32, 0.97
200, 3810.37, 56904.79, 2912.88, 27121.67, -17052.03, -1119.58, 11576.50, -47676.71, -12095.18, 34322.13, -3683.14, -11027.95, 0.00, 0.00, 0.00, 0.00, 0.00, 0.00, 0.00
201, 3828.59, 56917.11, 2927.81, 27141.97, -17042.49, -1108.15, 11603.53, -47659.50, -12095.18, 34322.13, -3683.14, -11027.95, 0.00, 0.00, 0.00, 0.00, 0.00, 0.00, 0.00
202, 3828.59, 56917.11, 2927.81, 27141.97, -17042.49, -1108.15, 11603.53, -47659.50, -12093.63, 34353.04, -3649.70, -11078.98, 0.00, 0.00, 0.00, 0.00, 0.00, 0.00, 0.00
203, 3817.23, 56907.32, 2915.61, 27123.37, -17052.46, -1120.02, 11575.14, -47678.37, -12093.63, 34353.04, -3649.70, -11078.98, 0.00, 0.00, 0.00, 0.00, 0.00, 0.00, 0.00
204, 3817.23, 56907.32, 2915.61, 27123.37, -17052.46, -1120.02, 11575.14, -47678.37, -12102.49, 34310.78, -3691.41, -11058.15, 0.00, 0.00, 0.00, 0.00, 0.00, 0.00, 0.00
205, 3811.89, 56901.86, 2907.05, 27127.26, -17056.95, -1117.01, 11576.46, -47674.39, -12102.49, 34310.78, -3691.41, -11058.15, 0.00, 0.00, 0.00, 0.00, 0.00, 0.00, 0.00
206, 3811.89, 56901.86, 2907.05, 27127.26, -17056.95, -1117.01, 11576.46, -47674.39, -12097.86, 34355.39, -3661.48, -11106.89, 0.00, 0.00, 0.00, 0.00, 0.00, 0.00, 0.00
207, 3842.31, 56911.38, 2916.10, 27124.04, -17050.38, -1118.79, 11588.51, -47670.73, -12097.86, 34355.39, -3661.48, -11106.89, 0.00, 0.00, 0.00, 0.00, 0.00, 0.00, 0.00
208, 3842.31, 56911.38, 2916.10, 27124.04, -17050.38, -1118.79, 11588.51, -47670.73, -12092.94, 34323.70, -3679.50, -11009.75, 0.00, 0.00, 0.00, 0.00, 0.00, 0.00, 0.00
209, 3854.58, 56931.19, 2923.56, 27134.79, -17041.04, -1117.65, 11597.29, -47663.93, -12092.94, 34323.70, -3679.50, -11009.75, 0.00, 0.00, 0.00, 0.00, 0.10, 0.32, 0.97
210, 3854.58, 56931.19, 2923.56, 27134.79, -17041.04, -1117.65, 11597.29, -47663.93, -12090.26, 34354.47, -3645.44, -11082.15, 0.00, 0.00, 0.00, 0.00, 0.00, 0.00, 0.00
211, 3811.20, 56929.51, 2918.15, 27125.79, -17054.56, -1118.32, 11583.05, -47674.48, -12090.26, 34354.47, -3645.44, -11082.15, 0.00, 0.00, 0.00, 0.00, 0.00, 0.00, 0.00
212, 3811.20, 56929.51, 2918.15, 27125.79, -17054.56, -1118.32, 11583.05, -47674.48, -12094.48, 34311.27, -3675.57, -11046.21, 0.00, 0.00, 0.00, 0.00, 0.00, 0.00, 0.00
213, 3808.60, 56920.35, 2921.44, 27129.52, -17050.18, -1116.31, 11586.27, -47673.23, -12094.48, 34311.27, -3675.57, -11046.21, 0.00, 0.00, 0.00, 0.00, 0.00, 0.00, 0.00
214, 3808.60, 56920.35, 2921.44, 27129.52, -17050.18, -1116.31, 11586.27, -47673.23, -12092.61, 34351.79, -3650.02, -11109.04, 0.00, 0.00, 0.00, 0.00, 0.00, 0.00, 0.00
215, 3813.86, 56927.37, 2921.51, 27127.22, -17049.71, -1118.66, 11586.58, -47671.62, -12092.61, 34351.79, -3650.02, -11109.04, 0.00, 0.00, 0.00, 0.00, 0.00, 0.00, 0.00
216, 3813.86, 56927.37, 2921.51, 27127.22, -17049.71, -1118.66, 11586.58, -47671.62, -12094.48, 34313.35, -3677.22, -11025.85, 0.00, 0.00, 0.00, 0.00, 0.00, 0.00, 0.00
217, 3817.59, 56887.33, 2912.39, 27121.09, -17051.92, -1124.00, 11581.00, -47676.11, -12094.48, 34313.35, -3677.22, -11025.85, 0.00, 0.00, 0.00, 0.00, 0.00, 0.00, 0.00
218, 3817.59, 56887.33, 2912.39, 27121.09, -17051.92, -1124.00, 11581.00, -47676.11, -12095.89, 34347.54, -3650.60, -11088.59, 0.00, 0.00, 0.00, 0.00, 0.00, 0.00, 0.00
219, 3837.28, 56912.14, 2924.46, 27130.64, -17040.95, -1118.15, 11604.35, -47662.48, -12095.89, 34347.54, -3650.60, -11088.59, 0.00, 0.00, 0.00, 0.00, 0.11, 0.31, 0.97
220, 3837.28, 56912.14, 2924.46, 27130.64, -17040.95, -1118.15, 11604.35, -47662.48, -12092.38, 34324.16, -3675.70, -11053.21, 0.00, 0.00, 0.00, 0.00, 0.00, 0.00, 0.00
221, 3826.04, 56914.74, 2907.60, 27119.84, -17056.55, -1123.62, 11576.44, -47681.93, -12092.38, 34324.16, -3675.70, -11053.21, 0.00, 0.00, 0.00, 0.00, 0.00, 0.00, 0.00
222, 3826.04, 56914.74, 2907.60, 27119.84, -17056.55, -1123.62, 11576.44, -47681.93, -12097.84, 34344.28, -3658.73, -11103.00, 0.00, 0.00, 0.00, 0.00, 0.00, 0.00, 0.00
223, 3815.24, 56918.45, 2922.80, 27138.55, -17051.74, -1107.93, 11596.69, -47664.42, -12097.84, 34344.28, -3658.73, -11103.00, 0.00, 0.00, 0.00, 0.00, 0.00, 0.00, 0.00
224, 3815.24, 56918.45, 2922.80, 27138.55, -17051.74, -1107.93, 11596.69, -47664.42, -12086.42, 34327.11, -3669.46, -11012.12, 0.00, 0.00, 0.00, 0.00, 0.00, 0.00, 0.00
225, 3799.42, 56908.12, 2911.52, 27119.57, -17048.08, -1124.99, 11586.88, -47673.45, -12086.42, 34327.11, -3669.46, -11012.12, 0.00, 0.00, 0.00, 0.00, 0.00, 0.00, 0.00
226, 3799.42, 56908.12, 2911.52, 27119.57, -17048.08, -1124.99, 11586.88, -47673.45, -12083.24, 34354.85, -3657.01, -11068.40, 0.00, 0.00, 0.00, 0.00, 0.00, 0.00, 0.00
227, 3849.35, 56934.74, 2930.74, 27143.73, -17039.00, -1104.76, 11609.61, -47650.81, -12083.24, 34354.85, -3657.01, -11068.40, 0.00, 0.00, 0.00, 0.00, 0.00, 0.00, 0.00
228, 3849.35, 56934.74, 2930.74, 27143.73, -17039.00, -1104.76, 11609.61, -47650.81, -12084.20, 34344.93, -3655.09, -11045.45, 0.00, 0.00, 0.00, 0.00, 0.00, 0.00, 0.00
229, 3807.31, 56913.48, 2915.67, 27117.56, -17059.25, -1128.70, 11582.43, -47679.96, -12084.20, 34344.93, -3655.09, -11045.45, 0.00, 0.00, 0.00, 0.00, 0.10, 0.32, 0.97
230, 3807.31, 56913.48, 2915.67, 27117.56, -17059.25, -1128.70, 11582.43, -47679.96, -12105.30, 34328.66, -3670.09, -11066.82, 0.00, 0.00, 0.00, 0.00, 0.00, 0.00, 0.00
231, 3810.68, 56926.36, 2916.86, 27129.18, -17049.78, -1119.24, 11595.21, -47671.38, -12105.30, 34328.66, -3670.09, -11066.82, 0.00, 0.00, 0.00, 0.00, 0.00, 0.00, 0.00
232, 3810.68, 56926.36, 2916.86, 27129.18, -17049.78, -1119.24, 11595.21, -47671.38, -12092.45, 34330.49, -3663.99, -11055.24, 0.00, 0.00, 0.00, 0.00, 0.00, 0.00, 0.00
233, 3813.39, 56912.46, 2909.86, 27114.27, -17057.58, -1132.45, 11579.75, -47683.31, -12092.45, 34330.49, -3663.99, -11055.24, 0.00, 0.00, 0.00, 0.00, 0.00, 0.00, 0.00
234, 3813.39, 56912.46, 2909.86, 27114.27, -17057.58, -1132.45, 11579.75, -47683.31, -12088.69, 34339.23, -3659.09, -11045.34, 0.00, 0.00, 0.00, 0.00, 0.00, 0.00, 0.00
235, 3842.96, 56931.63, 2935.81, 27146.01, -17036.25, -1107.60, 11611.33, -47656.46, -12088.69, 34339.23, -3659.09, -11045.34, 0.00, 0.00, 0.00, 0.00, 0.00, 0.00, 0.00
236, 3842.96, 56931.63, 2935.81, 27146.01, -17036.25, -1107.60, 11611.33, -47656.46, -12084.16, 34339.59, -3645.84, -11055.78, 0.00, 0.00, 0.00, 0.00, 0.00, 0.00, 0.00
237, 3836.90, 56923.95, 2920.48, 27119.21, -17059.19, -1129.63, 11583.28, -47682.82, -12084.16, 34339.59, -3645.84, -11055.78, 0.00, 0.00, 0.00, 0.00, 0.00, 0.00, 0.00
238, 3836.90, 56923.95, 2920.48, 27119.21, -17059.19, -1129.63, 11583.28, -47682.82, -12091.18, 34325.64, -3659.72, -11078.04, 0.00, 0.00, 0.00, 0.00, 0.10, 0.32, 0.97
239, 3848.81, 56948.71, 2935.66, 27141.61, -17044.79, -1114.28, 11605.88, -47664.24, -12091.18, 34325.64, -3659.72, -11078.04, 0.00, 0.00, 0.00, 0.00, 0.00, 0.00, 0.00
240, 3848.81, 56948.71, 2935.66, 27141.61, -17044.79, -1114.28, 11605.88, -47664.24, -12091.13, 34340.26, -3644.94, -11060.25, 0.00, 0.00, 0.00, 0.00, 0.00, 0.00, 0.00
241, 3810.50, 56915.00, 2915.07, 27117.02, -17056.95, -1131.60, 11582.63, -47682.91, -12091.13, 34340.26, -3644.94, -11060.25, 0.00, 0.00, 0.00, 0.00, 0.00, 0.00, 0.00
242, 3810.50, 56915.00, 2915.07, 27117.02, -17056.95, -1131.60, 11582.63, -47682.91, -12084.78, 34332.97, -3658.96, -11034.70, 0.00, 0.00, 0.00, 0.00, 0.00, 0.00, 0.00
243, 3836.70, 56940.11, 2936.97, 27143.85, -17042.18, -1111.44, 11610.59, -47658.88, -12084.78, 34332.97, -3658.96, -11034.70, 0.00, 0.00, 0.00, 0.00, 0.00, 0.00, 0.00
244, 3836.70, 56940.11, 2936.97, 27143.85, -17042.18, -1111.44, 11610.59, -47658.88, -12084.81, 34349.27, -3639.76, -11085.21, 0.00, 0.00, 0.00, 0.00, 0.00, 0.00, 0.00
245, 3821.77, 56914.16, 2922.11, 27121.45, -17058.85, -1128.34, 11586.88, -47681.19, -12084.81, 34349.27, -3639.76, -11085.21, 0.00, 0.00, 0.00, 0.00, 0.00, 0.00, 0.00
246, 3821.77, 56914.16, 2922.11, 27121.45, -17058.85, -1128.34, 11586.88, -47681.19, -12094.64, 34317.55, -3668.08, -11043.35, 0.00, 0.00, 0.00, 0.00, 0.00, 0.00, 0.00
247, 3839.05, 56934.99, 2927.18, 27132.76, -17049.37, -1123.11, 11599.08, -47671.06, -12094.64, 34317.55, -3668.08, -11043.35, 0.00, 0.00, 0.00, 0.00, 0.00, 0.00, 0.00
248, 3839.05, 56934.99, 2927.18, 27132.76, -17049.37, -1123.11, 11599.08, -47671.06, -12096.56, 34341.02, -3641.32, -11075.00, 0.00, 0.00, 0.00, 0.00, 0.10, 0.32, 0.97
249, 3825.97, 56918.40, 2918.80, 27116.71, -17064.08, -1133.35, 11583.84, -47689.19, -12096.56, 34341.02, -3641.32, -11075.00, 0.00, 0.00, 0.00, 0.00, 0.00, 0.00, 0.00
250, 3825.97, 56918.40, 2918.80, 27116.71, -17064.08, -1133.35, 11583.84, -47689.19, -12095.62, 34313.21, -3667.23, -11042.66, 0.00, 0.00, 0.00, 0.00, 0.00, 0.00, 0.00
251, 3815.64, 56931.70, 2929.40, 27137.30, -17051.59, -1118.32, 11600.53, -47673.68, -12095.62, 34313.21, -3667.23, -11042.66, 0.00, 0.00, 0.00, 0.00, 0.00, 0.00, 0.00
252, 3815.64, 56931.70, 2929.40, 27137.30, -17051.59, -1118.32, 11600.53, -47673.68, -12085.43, 34355.43, -3632.09, -11078.17, 0.00, 0.00, 0.00, 0.00, 0.00, 0.00, 0.00
253, 3814.32, 56923.27, 2917.57, 27115.35, -17056.75, -1133.81, 11588.60, -47677.88, -12085.43, 34355.43, -3632.09, -11078.17, 0.00, 0.00, 0.00, 0.00, 0.00, 0.00, 0.00
254, 3814.32, 56923.27, 2917.57, 27115.35, -17056.75, -1133.81, 11588.60, -47677.88, -12088.90, 34321.73, -3665.28, -11034.90, 0.00, 0.00, 0.00, 0.00, 0.00, 0.00, 0.00
255, 3828.63, 56940.98, 2926.58, 27127.19, -17056.26, -1125.61, 11599.17, -47674.73, -12088.90, 34321.73, -3665.28, -11034.90, 0.00, 0.00, 0.00, 0.00, 0.00, 0.00, 0.00
0, 3828.63, 56940.98, 2926.58, 27127.19, -17056.26, -1125.61, 11599.17, -47674.73, -12088.81, 34353.07, -3633.54, -11071.96, 0.00, 0.00, 0.00, 0.00, 0.00, 0.00, 0.00
1, 3835.45, 56927.05, 2929.71, 27124.65, -17053.55, -1127.89, 11591.77, -47682.04, -12088.81, 34353.07, -3633.54, -11071.96, 0.00, 0.00, 0.00, 0.00, 0.00, 0.00, 0.00
2, 3835.45, 56927.05, 2929.71, 27124.65, -17053.55, -1127.89, 11591.77, -47682.04, -12089.70, 34313.86, -3660.37, -11038.90, 0.00, 0.00, 0.00, 0.00, 0.10, 0.31, 0.96
3, 3836.07, 56938.88, 2929.15, 27128.49, -17059.01, -1126.28, 11595.66, -47681.34, -12089.70, 34313.86, -3660.37, -11038.90, 0.00, 0.00, 0.00, 0.00, 0.00, 0.00, 0.00
4, 3836.07, 56938.88, 2929.15, 27128.49, -17059.01, -1126.28, 11595.66, -47681.34, -12086.59, 34359.23, -3632.09, -11071.60, 0.00, 0.00, 0.00, 0.00, 0.00, 0.00, 0.00
5, 3834.75, 56947.30, 2934.96, 27129.36, -17051.23, -1124.34, 11598.61, -47673.52, -12086.59, 34359.23, -3632.09, -11071.60, 0.00, 0.00, 0.00, 0.00, 0.00, 0.00, 0.00
6, 3834.75, 56947.30, 2934.96, 27129.36, -17051.23, -1124.34, 11598.61, -47673.52, -12093.77, 34319.71, -3660.79, -11030.88, 0.00, 0.00, 0.00, 0.00, 0.00, 0.00, 0.00
7, 3823.36, 56937.74, 2918.87, 27118.57, -17063.03, -1128.76, 11585.96, -47686.13, -12093.77, 34319.71, -3660.79, -11030.88, 0.00, 0.00, 0.00, 0.00, 0.00, 0.00, 0.00
8, 3823.36, 56937.74, 2918.87, 27118.57, -17063.03, -1128.76, 11585.96, -47686.13, -12091.15, 34357.80, -3633.25, -11057.81, 0.00, 0.00, 0.00, 0.00, 0.00, 0.00, 0.00
9, 3819.06, 56942.23, 2925.93, 27129.09, -17055.05, -1123.56, 11595.37, -47676.74, -12091.15, 34357.80, -3633.25, -11057.81, 0.00, 0.00, 0.00, 0.00, 0.00, 0.00, 0.00
10, 3819.06, 56942.23, 2925.93, 27129.09, -17055.05, -1123.56, 11595.37, -47676.74, -12094.26, 34317.97, -3660.99, -11031.10, 0.00, 0.00, 0.00, 0.00, 0.00, 0.00, 0.00
11, 3817.36, 56921.55, 2919.18, 27117.89, -17062.63, -1133.35, 11588.11, -47684.83, -12094.26, 34317.97, -3660.99, -11031.10, 0.00, 0.00, 0.00, 0.00, 0.00, 0.00, 0.00
12, 3817.36, 56921.55, 2919.18, 27117.89, -17062.63, -1133.35, 11588.11, -47684.83, -12085.34, 34357.27, -3636.70, -11073.43, 0.00, 0.00, 0.00, 0.00, 0.10, 0.32, 0.97
13, 3826.80, 56939.93, 2926.45, 27128.04, -17053.64, -1122.35, 11597.67, -47673.86, -12085.34, 34357.27, -3636.70, -11073.43, 0.00, 0.00, 0.00, 0.00, 0.00, 0.00, 0.00
14, 3826.80, 56939.93, 2926.45, 27128.04, -17053.64, -1122.35, 11597.67, -47673.86, -12093.23, 34323.61, -3656.81, -11024.80, 0.00, 0.00, 0.00, 0.00, 0.00, 0.00, 0.00
15, 3821.19, 56920.10, 2919.90, 27115.95, -17066.32, -1136.27, 11582.96, -47694.87, -12093.23, 34323.61, -3656.81, -11024.80, 0.00, 0.00, 0.00, 0.00, 0.00, 0.00, 0.00
16, 3821.19, 56920.10, 2919.90, 27115.95, -17066.32, -1136.27, 11582.96, -47694.87, -12095.65, 34343.81, -3645.19, -11047.35, 0.00, 0.00, 0.00, 0.00, 0.00, 0.00, 0.00
17, 3825.75, 56933.11, 2927.21, 27127.71, -17059.05, -1122.33, 11597.51, -47679.13, -12095.65, 34343.81, -3645.19, -11047.35, 0.00, 0.00, 0.00, 0.00, 0.00, 0.00, 0.00
18, 3825.75, 56933.11, 2927.21, 27127.71, -17059.05, -1122.33, 11597.51, -47679.13, -12095.15, 34325.89, -3655.61, -11043.10, 0.00, 0.00, 0.00, 0.00, 0.00, 0.00, 0.00
19, 3806.21, 56914.76, 2911.96, 27108.33, -17068.82, -1139.89, 11576.08, -47698.91, -12095.15, 34325.89, -3655.61, -11043.10, 0.00, 0.00, 0.00, 0.00, 0.00, 0.00, 0.00
20, 3806.21, 56914.76, 2911.96, 27108.33, -17068.82, -1139.89, 11576.08, -47698.91, -12091.26, 34343.54, -3640.43, -11046.25, 0.00, 0.00, 0.00, 0.00, 0.00, 0.00, 0.00
21, 3836.32, 56953.94, 2930.05, 27132.38, -17050.02, -1119.08, 11603.84, -47674.23, -12091.26, 34343.54, -3640.43, -11046.25, 0.00, 0.00, 0.00, 0.00, 0.10, 0.32, 0.97
22, 3836.32, 56953.94, 2930.05, 27132.38, -17050.02, -1119.08, 11603.84, -47674.23, -12086.77, 34336.61, -3641.84, -11049.72, 0.00, 0.00, 0.00, 0.00, 0.00, 0.00, 0.00
23, 3826.80, 56930.70, 2919.34, 27110.94, -17067.34, -1134.98, 11583.68, -47691.00, -12086.77, 34336.61, -3641.84, -11049.72, 0.00, 0.00, 0.00, 0.00, 0.00, 0.00, 0.00
24, 3826.80, 56930.70, 2919.34, 27110.94, -17067.34, -1134.98, 11583.68, -47691.00, -12087.17, 34346.09, -3641.64, -11023.48, 0.00, 0.00, 0.00, 0.00, 0.00, 0.00, 0.00
25, 3828.45, 56962.41, 2937.29, 27138.66, -17048.79, -1116.22, 11609.12, -47669.79, -12087.17, 34346.09, -3641.64, -11023.48, 0.00, 0.00, 0.00, 0.00, 0.00, 0.00, 0.00
26, 3828.45, 56962.41, 2937.29, 27138.66, -17048.79, -1116.22, 11609.12, -47669.79, -12090.91, 34342.74, -3629.81, -11025.80, 0.00, 0.00, 0.00, 0.00, 0.00, 0.00, 0.00
27, 3810.01, 56919.61, 2919.36, 27109.47, -17062.52, -1139.63, 11582.56, -47694.15, -12090.91, 34342.74, -3629.81, -11025.80, 0.00, 0.00, 0.00, 0.00, 0.00, 0.00, 0.00
28, 3810.01, 56919.61, 2919.36, 27109.47, -17062.52, -1139.63, 11582.56, -47694.15, -12086.91, 34335.68, -3642.62, -11043.24, 0.00, 0.00, 0.00, 0.00, 0.00, 0.00, 0.00
29, 3823.87, 56942.18, 2933.62, 27132.38, -17051.41, -1121.36, 11604.58, -47674.57, -12086.91, 34335.68, -3642.62, -11043.24, 0.00, 0.00, 0.00, 0.00, 0.00, 0.00, 0.00
30, 3823.87, 56942.18, 2933.62, 27132.38, -17051.41, -1121.36, 11604.58, -47674.57, -12086.35, 34350.45, -3628.58, -11047.62, 0.00, 0.00, 0.00, 0.00, 0.00, 0.00, 0.00
31, 3829.17, 56925.31, 2915.34, 27108.80, -17065.42, -1136.63, 11579.88, -47690.98, -12086.35, 34350.45, -3628.58, -11047.62, 0.00, 0.00, 0.00, 0.00, 0.10, 0.32, 0.96
32, 3829.17, 56925.31, 2915.34, 27108.80, -17065.42, -1136.63, 11579.88, -47690.98, -12091.06, 34334.80, -3643.96, -11009.87, 0.00, 0.00, 0.00, 0.00, 0.00, 0.00, 0.00
33, 3822.01, 56944.40, 2926.36, 27128.36, -17060.57, -1124.18, 11598.79, -47679.91, -12091.06, 34334.80, -3643.96, -11009.87, 0.00, 0.00, 0.00, 0.00, 0.00, 0.00, 0.00
34, 3822.01, 56944.40, 2926.36, 27128.36, -17060.57, -1124.18, 11598.79, -47679.91, -12094.53, 34337.87, -3635.11, -11055.80, 0.00, 0.00, 0.00, 0.00, 0.00, 0.00, 0.00
35, 3802.72, 56914.38, 2913.15, 27105.33, -17069.38, -1143.20, 11580.84, -47698.42, -12094.53, 34337.87, -3635.11, -11055.80, 0.00, 0.00, 0.00, 0.00, 0.00, 0.00, 0.00
36, 3802.72, 56914.38, 2913.15, 27105.33, -17069.38, -1143.20, 11580.84, -47698.42, -12089.07, 34323.23, -3649.15, -11036.24, 0.00, 0.00, 0.00, 0.00, 0.00, 0.00, 0.00
37, 3827.89, 56942.21, 2927.47, 27122.57, -17056.53, -1133.41, 11596.15, -47683.89, -12089.07, 34323.23, -3649.15, -11036.24, 0.00, 0.00, 0.00, 0.00, 0.00, 0.00, 0.00
38, 3827.89, 56942.21, 2927.47, 27122.57, -17056.53, -1133.41, 11596.15, -47683.89, -12091.31, 34345.64, -3632.00, -11074.75, 0.00, 0.00, 0.00, 0.00, 0.00, 0.00, 0.00
39, 3810.95, 56932.17, 2911.78, 27103.39, -17079.75, -1140.79, 11567.14, -47705.62, -12091.31, 34345.64, -3632.00, -11074.75, 0.00, 0.00, 0.00, 0.00, 0.00, 0.00, 0.00
40, 3810.95, 56932.17, 2911.78, 27103.39, -17079.75, -1140.79, 11567.14, -47705.62, -12094.98, 34314.15, -3655.47, -11045.81, 0.00, 0.00, 0.00, 0.00, 0.00, 0.00, 0.00
41, 3816.78, 56940.84, 2925.57, 27123.60, -17066.09, -1133.55, 11589.45, -47692.81, -12094.98, 34314.15, -3655.47, -11045.81, 0.00, 0.00, 0.00, 0.00, 0.10, 0.32, 0.97
42, 3816.78, 56940.84, 2925.57, 27123.60, -17066.09, -1133.55, 11589.45, -47692.81, -12097.95, 34336.52, -3627.11, -11053.63, 0.00, 0.00, 0.00, 0.00, 0.00, 0.00, 0.00
43, 3827.07, 56929.51, 2918.91, 27110.18, -17069.91, -1144.07, 11573.80, -47707.20, -12097.95, 34336.52, -3627.11, -11053.63, 0.00, 0.00, 0.00, 0.00, 0.00, 0.00, 0.00
44, 3827.07, 56929.51, 2918.91, 27110.18, -17069.91, -1144.07, 11573.80, -47707.20, -12098.33, 34302.80, -3648.88, -11047.55, 0.00, 0.00, 0.00, 0.00, 0.00, 0.00, 0.00
45, 3829.70, 56952.33, 2926.69, 27118.50, -17063.05, -1138.69, 11588.46, -47693.91, -12098.33, 34302.80, -3648.88, -11047.55, 0.00, 0.00, 0.00, 0.00, 0.00, 0.00, 0.00
46, 3829.70, 56952.33, 2926.69, 27118.50, -17063.05, -1138.69, 11588.46, -47693.91, -12096.00, 34338.31, -3615.93, -11073.23, 0.00, 0.00, 0.00, 0.00, 0.00, 0.00, 0.00
47, 3833.48, 56935.61, 2922.33, 27109.71, -17071.03, -1144.70, 11571.52, -47709.06, -12096.00, 34338.31, -3615.93, -11073.23, 0.00, 0.00, 0.00, 0.00, 0.00, 0.00, 0.00
48, 3833.48, 56935.61, 2922.33, 27109.71, -17071.03, -1144.70, 11571.52, -47709.06, -12101.57, 34293.27, -3649.46, -11029.76, 0.00, 0.00, 0.00, 0.00, 0.00, 0.00, 0.00
49, 3817.99, 56935.17, 2927.90, 27120.49, -17069.74, -1138.89, 11578.47, -47706.67, -12101.57, 34293.27, -3649.46, -11029.76, 0.00, 0.00, 0.00, 0.00, 0.00, 0.00, 0.00
50, 3817.99, 56935.17, 2927.90, 27120.49, -17069.74, -1138.89, 11578.47, -47706.67, -12091.80, 34342.18, -3612.60, -11075.00, 0.00, 0.00, 0.00, 0.00, 0.00, 0.00, 0.00
51, 3810.68, 56937.47, 2924.08, 27111.90, -17072.84, -1144.70, 11573.96, -47710.40, -12091.80, 34342.18, -3612.60, -11075.00, 0.00, 0.00, 0.00, 0.00, 0.09, 0.32, 0.97
52, 3810.68, 56937.47, 2924.08, 27111.90, -17072.84, -1144.70, 11573.96, -47710.40, -12107.63, 34295.02, -3648.23, -11057.00, 0.00, 0.00, 0.00, 0.00, 0.00, 0.00, 0.00
53, 3813.32, 56939.91, 2919.47, 27109.69, -17081.63, -1149.84, 11570.60, -47717.33, -12107.63, 34295.02, -3648.23, -11057.00, 0.00, 0.00, 0.00, 0.00, 0.00, 0.00, 0.00
54, 3813.32, 56939.91, 2919.47, 27109.69, -17081.63, -1149.84, 11570.60, -47717.33, -12101.57, 34325.82, -3620.24, -11088.25, 0.00, 0.00, 0.00, 0.00, 0.00, 0.00, 0.00
55, 3838.71, 56951.01, 2929.37, 27121.40, -17063.84, -1138.60, 11572.91, -47707.67, -12101.57, 34325.82, -3620.24, -11088.25, 0.00, 0.00, 0.00, 0.00, 0.00, 0.00, 0.00
56, 3838.71, 56951.01, 2929.37, 27121.40, -17063.84, -1138.60, 11572.91, -47707.67, -12105.82, 34287.51, -3643.27, -11027.70, 0.00, 0.00, 0.00, 0.00, 0.00, 0.00, 0.00
57, 3819.35, 56941.58, 2924.57, 27109.98, -17070.61, -1153.62, 11570.00, -47717.38, -12105.82, 34287.51, -3643.27, -11027.70, 0.00, 0.00, 0.00, 0.00, 0.00, 0.00, 0.00
58, 3819.35, 56941.58, 2924.57, 27109.98, -17070.61, -1153.62, 11570.00, -47717.38, -12100.50, 34323.96, -3615.44, -11114.05, 0.00, 0.00, 0.00, 0.00, 0.00, 0.00, 0.00
59, 3831.85, 56948.96, 2931.39, 27125.03, -17069.49, -1135.49, 11577.22, -47710.69, -12100.50, 34323.96, -3615.44, -11114.05, 0.00, 0.00, 0.00, 0.00, 0.00, 0.00, 0.00
60, 3831.85, 56948.96, 2931.39, 27125.03, -17069.49, -1135.49, 11577.22, -47710.69, -12110.78, 34287.44, -3640.27, -11040.87, 0.00, 0.00, 0.00, 0.00, 0.10, 0.32, 0.97
61, 3820.00, 56935.05, 2920.03, 27111.77, -17084.60, -1151.56, 11559.92, -47729.36, -12110.78, 34287.44, -3640.27, -11040.87, 0.00, 0.00, 0.00, 0.00, 0.00, 0.00, 0.00
62, 3820.00, 56935.05, 2920.03, 27111.77, -17084.60, -1151.56, 11559.92, -47729.36, -12108.36, 34308.92, -3621.45, -11099.63, 0.00, 0.00, 0.00, 0.00, 0.00, 0.00, 0.00
63, 3838.82, 56955.86, 2934.74, 27129.21, -17064.15, -1136.85, 11576.30, -47711.05, -12108.36, 34308.92, -3621.45, -11099.63, 0.00, 0.00, 0.00, 0.00, 0.00, 0.00, 0.00
64, 3838.82, 56955.86, 2934.74, 27129.21, -17064.15, -1136.85, 11576.30, -47711.05, -12098.78, 34299.55, -3632.20, -11064.45, 0.00, 0.00, 0.00, 0.00, 0.00, 0.00, 0.00
65, 3832.63, 56942.92, 2931.16, 27121.94, -17067.03, -1143.07, 11571.30, -47716.12, -12098.78, 34299.55, -3632.20, -11064.45, 0.00, 0.00, 0.00, 0.00, 0.00, 0.00, 0.00
66, 3832.63, 56942.92, 2931.16, 27121.94, -17067.03, -1143.07, 11571.30, -47716.12, -12085.05, 34336.17, -3614.17, -11048.20, 0.00, 0.00, 0.00, 0.00, 0.00, 0.00, 0.00
67, 3845.26, 56971.64, 2946.34, 27145.12, -17055.86, -1122.46, 11594.54, -47695.92, -12085.05, 34336.17, -3614.17, -11048.20, 0.00, 0.00, 0.00, 0.00, 0.00, 0.00, 0.00
68, 3845.26, 56971.64, 2946.34, 27145.12, -17055.86, -1122.46, 11594.54, -47695.92, -12089.30, 34316.63, -3623.75, -11029.78, 0.00, 0.00, 0.00, 0.00, 0.00, 0.00, 0.00
69, 3815.49, 56933.64, 2919.05, 27107.10, -17082.28, -1151.67, 11555.34, -47727.07, -12089.30, 34316.63, -3623.75, -11029.78, 0.00, 0.00, 0.00, 0.00, 0.00, 0.00, 0.00
70, 3815.49, 56933.64, 2919.05, 27107.10, -17082.28, -1151.67, 11555.34, -47727.07, -12099.27, 34316.48, -3626.21, -11086.26, 0.00, 0.00, 0.00, 0.00, 0.10, 0.32, 0.96
71, 3839.52, 56966.73, 2947.08, 27140.67, -17057.87, -1127.35, 11587.12, -47704.50, -12099.27, 34316.48, -3626.21, -11086.26, 0.00, 0.00, 0.00, 0.00, 0.00, 0.00, 0.00
72, 3839.52, 56966.73, 2947.08, 27140.67, -17057.87, -1127.35, 11587.12, -47704.50, -12084.72, 34324.41, -3615.73, -11016.41, 0.00, 0.00, 0.00, 0.00, 0.00, 0.00, 0.00
73, 3834.89, 56953.27, 2933.35, 27119.84, -17069.18, -1140.63, 11566.65, -47709.28, -12084.72, 34324.41, -3615.73, -11016.41, 0.00, 0.00, 0.00, 0.00, 0.00, 0.00, 0.00
74, 3834.89, 56953.27, 2933.35, 27119.84, -17069.18, -1140.63, 11566.65, -47709.28, -12085.83, 34333.80, -3621.92, -11041.52, 0.00, 0.00, 0.00, 0.00, 0.00, 0.00, 0.00
75, 3840.34, 56967.87, 2944.06, 27143.73, -17058.92, -1124.45, 11588.08, -47703.92, -12085.83, 34333.80, -3621.92, -11041.52, 0.00, 0.00, 0.00, 0.00, 0.00, 0.00, 0.00
76, 3840.34, 56967.87, 2944.06, 27143.73, -17058.92, -1124.45, 11588.08, -47703.92, -12091.00, 34322.58, -3610.43, -11032.73, 0.00, 0.00, 0.00, 0.00, 0.00, 0.00, 0.00
77, 3835.85, 56954.84, 2933.40, 27118.34, -17068.66, -1143.67, 11570.04, -47720.88, -12091.00, 34322.58, -3610.43, -11032.73, 0.00, 0.00, 0.00, 0.00, 0.00, 0.00, 0.00
78, 3835.85, 56954.84, 2933.40, 27118.34, -17068.66, -1143.67, 11570.04, -47720.88, -12095.91, 34304.03, -3627.06, -11053.65, 0.00, 0.00, 0.00, 0.00, 0.00, 0.00, 0.00
79, 3846.31, 56970.71, 2942.32, 27136.56, -17057.13, -1130.51, 11586.36, -47712.25, -12095.91, 34304.03, -3627.06, -11053.65, 0.00, 0.00, 0.00, 0.00, 0.00, 0.00, 0.00
80, 3846.31, 56970.71, 2942.32, 27136.56, -17057.13, -1130.51, 11586.36, -47712.25, -12106.40, 34315.67, -3620.00, -11050.50, 0.00, 0.00, 0.00, 0.00, 0.10, 0.32, 0.96
81, 3827.65, 56951.26, 2930.65, 27116.40, -17065.96, -1145.93, 11567.68, -47731.12, -12106.40, 34315.67, -3620.00, -11050.50, 0.00, 0.00, 0.00, 0.00, 0.00, 0.00, 0.00
82, 3827.65, 56951.26, 2930.65, 27116.40, -17065.96, -1145.93, 11567.68, -47731.12, -12097.99, 34290.57, -3625.34, -11026.85, 0.00, 0.00, 0.00, 0.00, 0.00, 0.00, 0.00
83, 3852.48, 56982.80, 2958.14, 27151.15, -17039.03, -1117.52, 11605.05, -47706.73, -12097.99, 34290.57, -3625.34, -11026.85, 0.00, 0.00, 0.00, 0.00, 0.00, 0.00, 0.00
84, 3852.48, 56982.80, 2958.14, 27151.15, -17039.03, -1117.52, 11605.05, -47706.73, -12086.37, 34336.52, -3599.84, -11076.25, 0.00, 0.00, 0.00, 0.00, 0.00, 0.00, 0.00
85, 3854.42, 56972.38, 2955.12, 27147.49, -17041.48, -1117.32, 11603.71, -47713.66, -12086.37, 34336.52, -3599.84, -11076.25, 0.00, 0.00, 0.00, 0.00, 0.00, 0.00, 0.00
86, 3854.42, 56972.38, 2955.12, 27147.49, -17041.48, -1117.32, 11603.71, -47713.66, -12094.46, 34303.71, -3626.77, -11034.00, 0.00, 0.00, 0.00, 0.00, 0.00, 0.00, 0.00
87, 3858.87, 56979.29, 2953.22, 27152.34, -17035.25, -1119.73, 11607.73, -47721.75, -12094.46, 34303.71, -3626.77, -11034.00, 0.00, 0.00, 0.00, 0.00, 0.00, 0.00, 0.00
88, 3858.87, 56979.29, 2953.22, 27152.34, -17035.25, -1119.73, 11607.73, -47721.75, -12119.14, 34279.28, -3614.12, -11081.19, 0.00, 0.00, 0.00, 0.00, 0.00, 0.00, 0.00
89, 3834.33, 56960.02, 2940.01, 27132.04, -17044.93, -1138.13, 11588.15, -47742.16, -12119.14, 34279.28, -3614.12, -11081.19, 0.00, 0.00, 0.00, 0.00, 0.00, 0.00, 0.00
90, 3834.33, 56960.02, 2940.01, 27132.04, -17044.93, -1138.13, 11588.15, -47742.16, -12104.30, 34288.69, -3630.06, -11003.45, 0.00, 0.00, 0.00, 0.00, 0.09, 0.32, 0.96
91, 3874.59, 56998.71, 2974.55, 27178.40, -17004.74, -1092.06, 11638.49, -47681.25, -12104.30, 34288.69, -3630.06, -11003.45, 0.00, 0.00, 0.00, 0.00, 0.00, 0.00, 0.00
92, 3874.59, 56998.71, 2974.55, 27178.40, -17004.74, -1092.06, 11638.49, -47681.25, -12076.13, 34356.48, -3579.94, -11032.66, 0.00, 0.00, 0.00, 0.00, 0.00, 0.00, 0.00
93, 3863.05, 56989.68, 2973.05, 27176.05, -16993.27, -1087.70, 11646.58, -47671.82, -12076.13, 34356.48, -3579.94, -11032.66, 0.00, 0.00, 0.00, 0.00, 0.00, 0.00, 0.00
94, 3863.05, 56989.68, 2973.05, 27176.05, -16993.27, -1087.70, 11646.58, -47671.82, -12088.38, 34327.36, -3624.96, -10960.49, 0.00, 0.00, 0.00, 0.00, 0.00, 0.00, 0.00
95, 3875.01, 57003.81, 2984.11, 27194.61, -16982.36, -1064.03, 11681.94, -47622.38, -12088.38, 34327.36, -3624.96, -10960.49, 0.00, 0.00, 0.00, 0.00, 0.00, 0.00, 0.00
96, 3875.01, 57003.81, 2984.11, 27194.61, -16982.36, -1064.03, 11681.94, -47622.38, -12071.89, 34382.61, -3585.64, -10940.91, 0.00, 0.00, 0.00, 0.00, 0.00, 0.00, 0.00
97, 3853.60, 56977.25, 2962.92, 27175.09, -16984.08, -1072.64, 11669.24, -47632.68, -12071.89, 34382.61, -3585.64, -10940.91, 0.00, 0.00, 0.00, 0.00, 0.00, 0.00, 0.00
98, 3853.60, 56977.25, 2962.92, 27175.09, -16984.08, -1072.64, 11669.24, -47632.68, -12094.46, 34319.98, -3635.04, -10905.91, 0.00, 0.00, 0.00, 0.00, 0.00, 0.00, 0.00
99, 3867.01, 56991.96, 2981.23, 27193.44, -16974.74, -1051.36, 11691.84, -47596.14, -12094.46, 34319.98, -3635.04, -10905.91, 0.00, 0.00, 0.00, 0.00, 0.09, 0.32, 0.96
100, 3867.01, 56991.96, 2981.23, 27193.44, -16974.74, -1051.36, 11691.84, -47596.14, -12043.95, 34404.77, -3561.66, -10933.83, 0.00, 0.00, 0.00, 0.00, 0.00, 0.00, 0.00
101, 3902.59, 57033.29, 3012.70, 27226.86, -16933.61, -1010.34, 11726.62, -47557.96, -12043.95, 34404.77, -3561.66, -10933.83, 0.00, 0.00, 0.00, 0.00, 0.00, 0.00, 0.00
102, 3902.59, 57033.29, 3012.70, 27226.86, -16933.61, -1010.34, 11726.62, -47557.96, -12066.08, 34362.83, -3601.47, -10860.53, 0.00, 0.00, 0.00, 0.00, 0.00, 0.00, 0.00
103, 3885.18, 57009.69, 2991.49, 27200.35, -16959.86, -1057.77, 11703.66, -47574.61, -12066.08, 34362.83, -3601.47, -10860.53, 0.00, 0.00, 0.00, 0.00, 0.00, 0.00, 0.00
104, 3885.18, 57009.69, 2991.49, 27200.35, -16959.86, -1057.77, 11703.66, -47574.61, -12046.45, 34395.15, -3591.93, -10945.56, 0.00, 0.00, 0.00, 0.00, 0.00, 0.00, 0.00
105, 3884.93, 57003.65, 3001.95, 27207.93, -16958.96, -1038.48, 11709.03, -47594.20, -12046.45, 34395.15, -3591.93, -10945.56, 0.00, 0.00, 0.00, 0.00, 0.00, 0.00, 0.00
106, 3884.93, 57003.65, 3001.95, 27207.93, -16958.96, -1038.48, 11709.03, -47594.20, -12067.24, 34346.94, -3630.50, -10842.54, 0.00, 0.00, 0.00, 0.00, 0.00, 0.00, 0.00
107, 3855.63, 56986.55, 2976.81, 27191.05, -16971.75, -1046.80, 11687.55, -47569.36, -12067.24, 34346.94, -3630.50, -10842.54, 0.00, 0.00, 0.00, 0.00, 0.00, 0.00, 0.00
108, 3855.63, 56986.55, 2976.81, 27191.05, -16971.75, -1046.80, 11687.55, -47569.36, -12065.38, 34390.32, -3600.06, -10994.13, 0.00, 0.00, 0.00, 0.00, 0.00, 0.00, 0.00
109, 3898.37, 57017.27, 3002.58, 27228.38, -16946.82, -1028.83, 11733.53, -47527.21, -12065.38, 34390.32, -3600.06, -10994.13, 0.00, 0.00, 0.00, 0.00, 0.10, 0.32, 0.96
110, 3898.37, 57017.27, 3002.58, 27228.38, -16946.82, -1028.83, 11733.53, -47527.21, -12073.27, 34377.88, -3634.84, -10966.30, 0.00, 0.00, 0.00, 0.00, 0.00, 0.00, 0.00
111, 3841.86, 56963.91, 2951.39, 27184.44, -16985.83, -1061.51, 11690.23, -47554.39, -12073.27, 34377.88, -3634.84, -10966.30, 0.00, 0.00, 0.00, 0.00, 0.00, 0.00, 0.00
112, 3841.86, 56963.91, 2951.39, 27184.44, -16985.83, -1061.51, 11690.23, -47554.39, -12075.40, 34377.00, -3640.09, -11045.63, 0.00, 0.00, 0.00, 0.00, 0.00, 0.00, 0.00
113, 3852.79, 56990.20, 2980.27, 27208.60, -16971.57, -1032.81, 11699.06, -47574.84, -12075.40, 34377.00, -3640.09, -11045.63, 0.00, 0.00, 0.00, 0.00, 0.00, 0.00, 0.00
114, 3852.79, 56990.20, 2980.27, 27208.60, -16971.57, -1032.81, 11699.06, -47574.84, -12023.47, 34351.77, -3646.96, -11025.91, 0.00, 0.00, 0.00, 0.00, 0.00, 0.00, 0.00
115, 3822.55, 56959.98, 2945.94, 27170.58, -17015.42, -1060.97, 11652.79, -47646.07, -12023.47, 34351.77, -3646.96, -11025.91, 0.00, 0.00, 0.00, 0.00, 0.00, 0.00, 0.00
116, 3822.55, 56959.98, 2945.94, 27170.58, -17015.42, -1060.97, 11652.79, -47646.07, -12090.15, 34362.79, -3669.75, -11086.84, 0.00, 0.00, 0.00, 0.00, 0.00, 0.00, 0.00
117, 3845.95, 56955.04, 2955.06, 27197.15, -16973.98, -1052.74, 11718.86, -47521.75, -12090.15, 34362.79, -3669.75, -11086.84, 0.00, 0.00, 0.00, 0.00, 0.00, 0.00, 0.00
118, 3845.95, 56955.04, 2955.06, 27197.15, -16973.98, -1052.74, 11718.86, -47521.75, -12054.27, 34399.54, -3644.36, -11039.44, 0.00, 0.00, 0.00, 0.00, 0.00, 0.00, 0.00
119, 3828.27, 57002.36, 2969.36, 27214.79, -16944.03, -1037.55, 11725.05, -47508.07, -12054.27, 34399.54, -3644.36, -11039.44, 0.00, 0.00, 0.00, 0.00, 0.10, 0.32, 0.97
120, 3828.27, 57002.36, 2969.36, 27214.79, -16944.03, -1037.55, 11725.05, -47508.07, -12054.83, 34391.04, -3666.36, -11092.12, 0.00, 0.00, 0.00, 0.00, 0.00, 0.00, 0.00
121, 3808.65, 56962.82, 2947.03, 27215.86, -16990.10, -1040.85, 11715.42, -47565.00, -12054.83, 34391.04, -3666.36, -11092.12, 0.00, 0.00, 0.00, 0.00, 0.00, 0.00, 0.00
122, 3808.65, 56962.82, 2947.03, 27215.86, -16990.10, -1040.85, 11715.42, -47565.00, -12059.93, 34371.73, -3697.74, -11061.50, 0.00, 0.00, 0.00, 0.00, 0.00, 0.00, 0.00
123, 3777.74, 56920.57, 2928.53, 27189.78, -17000.65, -1057.89, 11692.04, -47626.52, -12059.93, 34371.73, -3697.74, -11061.50, 0.00, 0.00, 0.00, 0.00, 0.00, 0.00, 0.00
124, 3777.74, 56920.57, 2928.53, 27189.78, -17000.65, -1057.89, 11692.04, -47626.52, -12019.67, 34403.94, -3705.16, -11131.17, 0.00, 0.00, 0.00, 0.00, 0.00, 0.00, 0.00
125, 3764.21, 56960.51, 2990.51, 27245.72, -16987.88, -1008.94, 11755.85, -47553.25, -12019.67, 34403.94, -3705.16, -11131.17, 0.00, 0.00, 0.00, 0.00, 0.00, 0.00, 0.00
126, 3764.21, 56960.51, 2990.51, 27245.72, -16987.88, -1008.94, 11755.85, -47553.25, -12061.54, 34397.84, -3713.54, -11102.74, 0.00, 0.00, 0.00, 0.00, 0.00, 0.00, 0.00
127, 3809.34, 56926.09, 2883.02, 27186.69, -17010.97, -1053.08, 11701.29, -47643.01, -12061.54, 34397.84, -3713.54, -11102.74, 0.00, 0.00, 0.00, 0.00, 0.00, 0.00, 0.00
128, 3809.34, 56926.09, 2883.02, 27186.69, -17010.97, -1053.08, 11701.29, -47643.01, -12044.50, 34378.08, -3748.12, -11083.11, 0.00, 0.00, 0.00, 0.00, 0.00, 0.00, 0.00
129, 3841.75, 56927.70, 2860.17, 27222.14, -16970.36, -1038.86, 11748.05, -47640.73, -12044.50, 34378.08, -3748.12, -11083.11, 0.00, 0.00, 0.00, 0.00, 0.10, 0.31, 0.96
130, 3841.75, 56927.70, 2860.17, 27222.14, -16970.36, -1038.86, 11748.05, -47640.73, -12028.39, 34406.89, -3757.86, -11125.83, 0.00, 0.00, 0.00, 0.00, 0.00, 0.00, 0.00
131, 3784.51, 56884.85, 2835.68, 27187.79, -17014.73, -1057.60, 11677.87, -47755.46, -12028.39, 34406.89, -3757.86, -11125.83, 0.00, 0.00, 0.00, 0.00, 0.00, 0.00, 0.00
132, 3784.51, 56884.85, 2835.68, 27187.79, -17014.73, -1057.60, 11677.87, -47755.46, -12021.73, 34350.76, -3829.70, -11138.90, 0.00, 0.00, 0.00, 0.00, 0.00, 0.00, 0.00
133, 3704.58, 56882.17, 2817.79, 27219.10, -17066.92, -1009.92, 11685.65, -47780.27, -12021.73, 34350.76, -3829.70, -11138.90, 0.00, 0.00, 0.00, 0.00, 0.00, 0.00, 0.00
134, 3704.58, 56882.17, 2817.79, 27219.10, -17066.92, -1009.92, 11685.65, -47780.27, -12068.20, 34378.95, -3805.14, -11276.01, 0.00, 0.00, 0.00, 0.00, 0.00, 0.00, 0.00
135, 3725.83, 56870.70, 2780.56, 27215.44, -17085.14, -1012.22, 11684.89, -47830.74, -12068.20, 34378.95, -3805.14, -11276.01, 0.00, 0.00, 0.00, 0.00, 0.00, 0.00, 0.00
136, 3725.83, 56870.70, 2780.56, 27215.44, -17085.14, -1012.22, 11684.89, -47830.74, -12023.88, 34349.38, -3861.40, -11115.21, 0.00, 0.00, 0.00, 0.00, 0.00, 0.00, 0.00
137, 3730.93, 56894.64, 2710.89, 27211.59, -17072.28, -1061.06, 11695.71, -47929.11, -12023.88, 34349.38, -3861.40, -11115.21, 0.00, 0.00, 0.00, 0.00, 0.00, 0.00, 0.00
138, 3730.93, 56894.64, 2710.89, 27211.59, -17072.28, -1061.06, 11695.71, -47929.11, -12039.77, 34380.60, -3867.28, -11221.87, 0.00, 0.00, 0.00, 0.00, 0.10, 0.32, 0.96
139, 3685.78, 56809.41, 2627.47, 27185.67, -17132.72, -1055.58, 11712.85, -47912.15, -12039.77, 34380.60, -3867.28, -11221.87, 0.00, 0.00, 0.00, 0.00, 0.00, 0.00, 0.00
140, 3685.78, 56809.41, 2627.47, 27185.67, -17132.72, -1055.58, 11712.85, -47912.15, -12147.61, 34340.77, -3920.32, -11175.67, 0.00, 0.00, 0.00, 0.00, 0.00, 0.00, 0.00
141, 3631.09, 56866.59, 2533.91, 27205.04, -17152.82, -1071.03, 11752.10, -48034.86, -12147.61, 34340.77, -3920.32, -11175.67, 0.00, 0.00, 0.00, 0.00, 0.00, 0.00, 0.00
142, 3631.09, 56866.59, 2533.91, 27205.04, -17152.82, -1071.03, 11752.10, -48034.86, -12077.56, 34356.44, -3892.62, -11243.33, 0.00, 0.00, 0.00, 0.00, 0.00, 0.00, 0.00
143, 3672.44, 56842.94, 2379.25, 27210.34, -17122.35, -1044.83, 11703.73, -48202.41, -12077.56, 34356.44, -3892.62, -11243.33, 0.00, 0.00, 0.00, 0.00, 0.00, 0.00, 0.00
144, 3672.44, 56842.94, 2379.25, 27210.34, -17122.35, -1044.83, 11703.73, -48202.41, -12058.61, 34347.41, -3923.22, -11195.97, 0.00, 0.00, 0.00, 0.00, 0.00, 0.00, 0.00
145, 3622.75, 56859.57, 2288.53, 27227.33, -17096.49, -1027.17, 11740.90, -48346.08, -12058.61, 34347.41, -3923.22, -11195.97, 0.00, 0.00, 0.00, 0.00, 0.00, 0.00, 0.00
146, 3622.75, 56859.57, 2288.53, 27227.33, -17096.49, -1027.17, 11740.90, -48346.08, -12059.93, 34364.42, -3900.60, -11304.55, 0.00, 0.00, 0.00, 0.00, 0.00, 0.00, 0.00
147, 3567.63, 56832.21, 2171.94, 27216.76, -17165.02, -1031.35, 11709.83, -48595.86, -12059.93, 34364.42, -3900.60, -11304.55, 0.00, 0.00, 0.00, 0.00, 0.00, 0.00, 0.00
148, 3567.63, 56832.21, 2171.94, 27216.76, -17165.02, -1031.35, 11709.83, -48595.86, -12041.96, 34320.68, -3962.70, -11213.31, 0.00, 0.00, 0.00, 0.00, 0.10, 0.32, 0.95
149, 3553.82, 56824.21, 2089.51, 27228.22, -17176.40, -1023.62, 11723.65, -48763.91, -12041.96, 34320.68, -3962.70, -11213.31, 0.00, 0.00, 0.00, 0.00, 0.00, 0.00, 0.00
150, 3553.82, 56824.21, 2089.51, 27228.22, -17176.40, -1023.62, 11723.65, -48763.91, -12031.00, 34359.77, -3942.02, -11377.02, 0.00, 0.00, 0.00, 0.00, 0.00, 0.00, 0.00
151, 3454.48, 56819.36, 1974.91, 27216.15, -17221.21, -1055.23, 11735.85, -48924.57, -12031.00, 34359.77, -3942.02, -11377.02, 0.00, 0.00, 0.00, 0.00, 0.00, 0.00, 0.00
152, 3454.48, 56819.36, 1974.91, 27216.15, -17221.21, -1055.23, 11735.85, -48924.57, -12107.85, 34315.36, -4009.23, -11242.26, 0.00, 0.00, 0.00, 0.00, 0.00, 0.00, 0.00
153, 3420.53, 56787.96, 1782.15, 27217.23, -17264.26, -1029.10, 11685.83, -49106.09, -12107.85, 34315.36, -4009.23, -11242.26, 0.00, 0.00, 0.00, 0.00, 0.00, 0.00, 0.00
154, 3420.53, 56787.96, 1782.15, 27217.23, -17264.26, -1029.10, 11685.83, -49106.09, -12070.95, 34304.11, -4022.31, -11427.93, 0.00, 0.00, 0.00, 0.00, 0.00, 0.00, 0.00
155, 3467.81, 56804.39, 1709.01, 27226.81, -17232.23, -1025.16, 11724.03, -49224.69, -12070.95, 34304.11, -4022.31, -11427.93, 0.00, 0.00, 0.00, 0.00, 0.00, 0.00, 0.00
156, 3467.81, 56804.39, 1709.01, 27226.81, -17232.23, -1025.16, 11724.03, -49224.69, -12093.70, 34293.83, -4019.94, -11352.36, 0.00, 0.00, 0.00, 0.00, 0.00, 0.00, 0.00
157, 3351.67, 56773.14, 1647.68, 27205.07, -17274.97, -1063.50, 11731.22, -49384.99, -12093.70, 34293.83, -4019.94, -11352.36, 0.00, 0.00, 0.00, 0.00, 0.00, 0.00, 0.00
158, 3351.67, 56773.14, 1647.68, 27205.07, -17274.97, -1063.50, 11731.22, -49384.99, -12081.21, 34321.08, -4026.11, -11261.79, 0.00, 0.00, 0.00, 0.00, 0.10, 0.31, 0.95
159, 3268.20, 56779.51, 1629.87, 27215.13, -17326.15, -1051.05, 11744.46, -49543.96, -12081.21, 34321.08, -4026.11, -11261.79, 0.00, 0.00, 0.00, 0.00, 0.00, 0.00, 0.00
160, 3268.20, 56779.51, 1629.87, 27215.13, -17326.15, -1051.05, 11744.46, -49543.96, -12070.25, 34269.58, -4059.19, -11307.93, 0.00, 0.00, 0.00, 0.00, 0.00, 0.00, 0.00
161, 3148.51, 56738.16, 1477.36, 27194.00, -17380.25, -1065.95, 11689.56, -49788.55, -12070.25, 34269.58, -4059.19, -11307.93, 0.00, 0.00, 0.00, 0.00, 0.00, 0.00, 0.00
162, 3148.51, 56738.16, 1477.36, 27194.00, -17380.25, -1065.95, 11689.56, -49788.55, -12088.07, 34283.62, -4067.66, -11442.62, 0.00, 0.00, 0.00, 0.00, 0.00, 0.00, 0.00
163, 3260.83, 56762.99, 1358.61, 27232.94, -17343.43, -1011.33, 11670.16, -49922.62, -12088.07, 34283.62, -4067.66, -11442.62, 0.00, 0.00, 0.00, 0.00, 0.00, 0.00, 0.00
164, 3260.83, 56762.99, 1358.61, 27232.94, -17343.43, -1011.33, 11670.16, -49922.62, -12068.60, 34265.76, -4086.75, -11469.28, 0.00, 0.00, 0.00, 0.00, 0.00, 0.00, 0.00
165, 3121.67, 56719.11, 1324.27, 27225.12, -17413.77, -1029.12, 11707.37, -49999.53, -12068.60, 34265.76, -4086.75, -11469.28, 0.00, 0.00, 0.00, 0.00, 0.00, 0.00, 0.00
166, 3121.67, 56719.11, 1324.27, 27225.12, -17413.77, -1029.12, 11707.37, -49999.53, -12119.45, 34282.41, -4089.94, -11408.51, 0.00, 0.00, 0.00, 0.00, 0.00, 0.00, 0.00
167, 3111.05, 56744.35, 1211.89, 27225.90, -17390.33, -1053.04, 11744.14, -50106.20, -12119.45, 34282.41, -4089.94, -11408.51, 0.00, 0.00, 0.00, 0.00, 0.00, 0.00, 0.00
168, 3111.05, 56744.35, 1211.89, 27225.90, -17390.33, -1053.04, 11744.14, -50106.20, -12052.28, 34284.40, -4082.59, -11412.67, 0.00, 0.00, 0.00, 0.00, 0.11, 0.31, 0.96
169, 3096.21, 56738.16, 1132.50, 27226.48, -17364.67, -1032.29, 11726.51, -50252.93, -12052.28, 34284.40, -4082.59, -11412.67, 0.00, 0.00, 0.00, 0.00, 0.00, 0.00, 0.00
170, 3096.21, 56738.16, 1132.50, 27226.48, -17364.67, -1032.29, 11726.51, -50252.93, -12040.15, 34299.89, -4079.89, -11403.03, 0.00, 0.00, 0.00, 0.00, 0.00, 0.00, 0.00
171, 3002.44, 56716.92, 1108.22, 27255.00, -17409.44, -1009.36, 11735.63, -50343.50, -12040.15, 34299.89, -4079.89, -11403.03, 0.00, 0.00, 0.00, 0.00, 0.00, 0.00, 0.00
172, 3002.44, 56716.92, 1108.22, 27255.00, -17409.44, -1009.36, 11735.63, -50343.50, -12078.73, 34245.40, -4124.99, -11532.58, 0.00, 0.00, 0.00, 0.00, 0.00, 0.00, 0.00
173, 2869.90, 56663.75, 990.38, 27194.18, -17531.32, -1057.35, 11642.55, -50563.87, -12078.73, 34245.40, -4124.99, -11532.58, 0.00, 0.00, 0.00, 0.00, 0.00, 0.00, 0.00
174, 2869.90, 56663.75, 990.38, 27194.18, -17531.32, -1057.35, 11642.55, -50563.87, -12103.51, 34222.64, -4164.47, -11535.74, 0.00, 0.00, 0.00, 0.00, 0.00, 0.00, 0.00
175, 2929.46, 56686.37, 860.50, 27215.88, -17485.97, -1075.63, 11755.32, -50445.09, -12103.51, 34222.64, -4164.47, -11535.74, 0.00, 0.00, 0.00, 0.00, 0.00, 0.00, 0.00
176, 2929.46, 56686.37, 860.50, 27215.88, -17485.97, -1075.63, 11755.32, -50445.09, -12112.30, 34221.79, -4148.75, -11467.85, 0.00, 0.00, 0.00, 0.00, 0.00, 0.00, 0.00
177, 2822.67, 56638.71, 791.32, 27211.64, -17567.44, -1043.76, 11695.26, -50576.86, -12112.30, 34221.79, -4148.75, -11467.85, 0.00, 0.00, 0.00, 0.00, 0.10, 0.31, 0.96
178, 2822.67, 56638.71, 791.32, 27211.64, -17567.44, -1043.76, 11695.26, -50576.86, -12102.60, 34206.97, -4184.74, -11532.99, 0.00, 0.00, 0.00, 0.00, 0.00, 0.00, 0.00
179, 2727.40, 56667.26, 747.96, 27232.43, -17548.00, -1050.64, 11684.26, -50672.18, -12102.60, 34206.97, -4184.74, -11532.99, 0.00, 0.00, 0.00, 0.00, 0.00, 0.00, 0.00
180, 2727.40, 56667.26, 747.96, 27232.43, -17548.00, -1050.64, 11684.26, -50672.18, -12106.91, 34224.66, -4173.32, -11582.79, 0.00, 0.00, 0.00, 0.00, 0.00, 0.00, 0.00
181, 2723.94, 56605.61, 642.77, 27217.74, -17594.76, -1053.08, 11668.24, -50721.58, -12106.91, 34224.66, -4173.32, -11582.79, 0.00, 0.00, 0.00, 0.00, 0.00, 0.00, 0.00
182, 2723.94, 56605.61, 642.77, 27217.74, -17594.76, -1053.08, 11668.24, -50721.58, -12098.04, 34188.63, -4197.52, -11521.70, 0.00, 0.00, 0.00, 0.00, 0.00, 0.00, 0.00
183, 2680.33, 56628.03, 630.68, 27242.80, -17601.69, -1032.47, 11705.65, -50775.45, -12098.04, 34188.63, -4197.52, -11521.70, 0.00, 0.00, 0.00, 0.00, 0.00, 0.00, 0.00
184, 2680.33, 56628.03, 630.68, 27242.80, -17601.69, -1032.47, 11705.65, -50775.45, -12056.46, 34233.21, -4158.41, -11498.45, 0.00, 0.00, 0.00, 0.00, 0.00, 0.00, 0.00
185, 2649.42, 56618.15, 480.12, 27229.50, -17598.11, -1049.68, 11688.11, -50813.80, -12056.46, 34233.21, -4158.41, -11498.45, 0.00, 0.00, 0.00, 0.00, 0.00, 0.00, 0.00
186, 2649.42, 56618.15, 480.12, 27229.50, -17598.11, -1049.68, 11688.11, -50813.80, -12087.53, 34214.57, -4163.84, -11514.37, 0.00, 0.00, 0.00, 0.00, 0.00, 0.00, 0.00
187, 2648.12, 56666.68, 455.77, 27279.12, -17563.93, -990.96, 11722.95, -50837.14, -12087.53, 34214.57, -4163.84, -11514.37, 0.00, 0.00, 0.00, 0.00, 0.10, 0.32, 0.96
188, 2648.12, 56666.68, 455.77, 27279.12, -17563.93, -990.96, 11722.95, -50837.14, -12094.75, 34208.92, -4181.56, -11593.63, 0.00, 0.00, 0.00, 0.00, 0.00, 0.00, 0.00
189, 2549.35, 56578.66, 318.65, 27207.79, -17689.95, -1098.72, 11696.91, -50931.38, -12094.75, 34208.92, -4181.56, -11593.63, 0.00, 0.00, 0.00, 0.00, 0.00, 0.00, 0.00
190, 2549.35, 56578.66, 318.65, 27207.79, -17689.95, -1098.72, 11696.91, -50931.38, -12115.41, 34163.57, -4233.31, -11568.95, 0.00, 0.00, 0.00, 0.00, 0.00, 0.00, 0.00
191, 2511.24, 56573.67, 261.60, 27227.73, -17660.47, -1059.83, 11706.77, -50980.48, -12115.41, 34163.57, -4233.31, -11568.95, 0.00, 0.00, 0.00, 0.00, 0.00, 0.00, 0.00
192, 2511.24, 56573.67, 261.60, 27227.73, -17660.47, -1059.83, 11706.77, -50980.48, -12081.16, 34193.94, -4231.27, -11640.61, 0.00, 0.00, 0.00, 0.00, 0.00, 0.00, 0.00
193, 2442.31, 56566.34, 197.72, 27229.86, -17712.33, -1042.69, 11673.87, -51040.88, -12081.16, 34193.94, -4231.27, -11640.61, 0.00, 0.00, 0.00, 0.00, 0.00, 0.00, 0.00
194, 2442.31, 56566.34, 197.72, 27229.86, -17712.33, -1042.69, 11673.87, -51040.88, -12125.26, 34151.99, -4240.71, -11512.04, 0.00, 0.00, 0.00, 0.00, 0.00, 0.00, 0.00
195, 2431.89, 56574.14, 153.29, 27245.55, -17739.10, -1047.09, 11726.73, -51064.10, -12125.26, 34151.99, -4240.71, -11512.04, 0.00, 0.00, 0.00, 0.00, 0.00, 0.00, 0.00
196, 2431.89, 56574.14, 153.29, 27245.55, -17739.10, -1047.09, 11726.73, -51064.10, -12087.87, 34192.94, -4217.93, -11598.36, 0.00, 0.00, 0.00, 0.00, 0.00, 0.00, 0.00
197, 2449.89, 56567.12, -30.26, 27227.08, -17725.51, -1063.41, 11701.03, -51123.27, -12087.87, 34192.94, -4217.93, -11598.36, 0.00, 0.00, 0.00, 0.00, 0.10, 0.32, 0.96
198, 2449.89, 56567.12, -30.26, 27227.08, -17725.51, -1063.41, 11701.03, -51123.27, -12121.02, 34118.42, -4269.90, -11609.72, 0.00, 0.00, 0.00, 0.00, 0.00, 0.00, 0.00
199, 2332.25, 56551.25, -35.79, 27218.32, -17757.88, -1074.65, 11694.28, -51164.26, -12121.02, 34118.42, -4269.90, -11609.72, 0.00, 0.00, 0.00, 0.00, 0.00, 0.00, 0.00
200, 2332.25, 56551.25, -35.79, 27218.32, -17757.88, -1074.65, 11694.28, -51164.26, -12103.13, 34170.70, -4246.52, -11650.40, 0.00, 0.00, 0.00, 0.00, 0.00, 0.00, 0.00
201, 2282.34, 56531.20, -112.23, 27220.51, -17805.09, -1059.07, 11688.53, -51225.68, -12103.13, 34170.70, -4246.52, -11650.40, 0.00, 0.00, 0.00, 0.00, 0.00, 0.00, 0.00
202, 2282.34, 56531.20, -112.23, 27220.51, -17805.09, -1059.07, 11688.53, -51225.68, -12055.10, 34142.73, -4271.91, -11596.71, 0.00, 0.00, 0.00, 0.00, 0.00, 0.00, 0.00
