%OpenBCI Raw EEG Data
%
%Sample Rate = 250.0 Hz
%First Column = SampleIndex
%Other Columns = EEG data in microvolts followed by Accel Data (in G) interleaved with Aux Data
0, 0.00, 0.00, 0.00, 0.00, 0.00, 0.00, 0.00, 0.00, -8149.65, 37439.08, 6066.51, -13018.17, 0.00, 0.00, 0.00, 0.00, 0.12, 0.37, 0.94
1, 1303.08, 66351.15, 3662.18, 28294.09, -19187.34, -3885.98, 9009.74, -54355.15, -8149.65, 37439.08, 6066.51, -13018.17, 0.00, 0.00, 0.00, 0.00, 0.00, 0.00, 0.00
2, 1303.08, 66351.15, 3662.18, 28294.09, -19187.34, -3885.98, 9009.74, -54355.15, -8032.55, 37636.87, 6249.21, -12788.91, 0.00, 0.00, 0.00, 0.00, 0.00, 0.00, 0.00
3, 1330.29, 66377.59, 3685.47, 28313.09, -19163.45, -3869.18, 9029.21, -54333.29, -8032.55, 37636.87, 6249.21, -12788.91, 0.00, 0.00, 0.00, 0.00, 0.00, 0.00, 0.00
4, 1330.29, 66377.59, 3685.47, 28313.09, -19163.45, -3869.18, 9029.21, -54333.29, -8034.24, 37605.89, 6222.97, -12722.25, 0.00, 0.00, 0.00, 0.00, 0.00, 0.00, 0.00
5, 1323.74, 66366.46, 3675.48, 28295.79, -19181.06, -3884.06, 9007.48, -54348.27, -8034.24, 37605.89, 6222.97, -12722.25, 0.00, 0.00, 0.00, 0.00, 0.00, 0.00, 0.00
6, 1323.74, 66366.46, 3675.48, 28295.79, -19181.06, -3884.06, 9007.48, -54348.27, -8036.48, 37629.63, 6257.26, -12770.27, 0.00, 0.00, 0.00, 0.00, 0.00, 0.00, 0.00
7, 1346.45, 66392.32, 3700.20, 28319.93, -19159.80, -3862.76, 9028.90, -54329.98, -8036.48, 37629.63, 6257.26, -12770.27, 0.00, 0.00, 0.00, 0.00, 0.14, 0.37, 0.95
8, 1346.45, 66392.32, 3700.20, 28319.93, -19159.80, -3862.76, 9028.90, -54329.98, -8035.05, 37609.34, 6237.25, -12734.19, 0.00, 0.00, 0.00, 0.00, 0.00, 0.00, 0.00
9, 1335.11, 66385.30, 3687.05, 28300.84, -19175.11, -3880.82, 9001.25, -54348.69, -8035.05, 37609.34, 6237.25, -12734.19, 0.00, 0.00, 0.00, 0.00, 0.00, 0.00, 0.00
10, 1335.11, 66385.30, 3687.05, 28300.84, -19175.11, -3880.82, 9001.25, -54348.69, -8025.57, 37632.22, 6259.65, -12748.79, 0.00, 0.00, 0.00, 0.00, 0.00, 0.00, 0.00
11, 1345.73, 66398.63, 3703.53, 28323.21, -19158.57, -3862.07, 9022.24, -54327.77, -8025.57, 37632.22, 6259.65, -12748.79, 0.00, 0.00, 0.00, 0.00, 0.00, 0.00, 0.00
12, 1345.73, 66398.63, 3703.53, 28323.21, -19158.57, -3862.07, 9022.24, -54327.77, -8026.18, 37622.39, 6253.46, -12719.71, 0.00, 0.00, 0.00, 0.00, 0.00, 0.00, 0.00
13, 1366.56, 66404.62, 3725.12, 28354.30, -19148.38, -3855.94, 9013.83, -54329.85, -8026.18, 37622.39, 6253.46, -12719.71, 0.00, 0.00, 0.00, 0.00, 0.00, 0.00, 0.00
14, 1366.56, 66404.62, 3725.12, 28354.30, -19148.38, -3855.94, 9013.83, -54329.85, -8010.22, 37641.95, 6308.73, -12741.59, 0.00, 0.00, 0.00, 0.00, 0.00, 0.00, 0.00
15, 1344.19, 66421.18, 3710.79, 28305.64, -19143.22, -3865.20, 9020.90, -54318.36, -8010.22, 37641.95, 6308.73, -12741.59, 0.00, 0.00, 0.00, 0.00, 0.00, 0.00, 0.00
16, 1344.19, 66421.18, 3710.79, 28305.64, -19143.22, -3865.20, 9020.90, -54318.36, -8015.27, 37627.57, 6250.91, -12738.55, 0.00, 0.00, 0.00, 0.00, 0.14, 0.37, 0.94
17, 1297.41, 66372.09, 3671.81, 28253.65, -19170.73, -3893.45, 8987.90, -54339.48, -8015.27, 37627.57, 6250.91, -12738.55, 0.00, 0.00, 0.00, 0.00, 0.00, 0.00, 0.00
18, 1297.41, 66372.09, 3671.81, 28253.65, -19170.73, -3893.45, 8987.90, -54339.48, -8005.21, 37639.33, 6252.92, -12729.90, 0.00, 0.00, 0.00, 0.00, 0.00, 0.00, 0.00
19, 1284.49, 66358.68, 3673.60, 28272.09, -19146.44, -3867.77, 9021.86, -54305.35, -8005.21, 37639.33, 6252.92, -12729.90, 0.00, 0.00, 0.00, 0.00, 0.00, 0.00, 0.00
20, 1284.49, 66358.68, 3673.60, 28272.09, -19146.44, -3867.77, 9021.86, -54305.35, -7994.73, 37654.26, 6267.65, -12730.12, 0.00, 0.00, 0.00, 0.00, 0.00, 0.00, 0.00
21, 1220.96, 66293.93, 3612.94, 28205.49, -19185.33, -3904.20, 8976.66, -54336.57, -7994.73, 37654.26, 6267.65, -12730.12, 0.00, 0.00, 0.00, 0.00, 0.00, 0.00, 0.00
22, 1220.96, 66293.93, 3612.94, 28205.49, -19185.33, -3904.20, 8976.66, -54336.57, -7988.56, 37653.39, 6246.35, -12733.41, 0.00, 0.00, 0.00, 0.00, 0.00, 0.00, 0.00
23, 1217.37, 66314.63, 3632.09, 28225.65, -19149.63, -3877.51, 9012.65, -54303.34, -7988.56, 37653.39, 6246.35, -12733.41, 0.00, 0.00, 0.00, 0.00, 0.00, 0.00, 0.00
24, 1217.37, 66314.63, 3632.09, 28225.65, -19149.63, -3877.51, 9012.65, -54303.34, -7986.61, 37656.00, 6256.45, -12730.77, 0.00, 0.00, 0.00, 0.00, 0.00, 0.00, 0.00
25, 1171.95, 66272.92, 3591.55, 28188.99, -19177.15, -3901.03, 8992.13, -54322.11, -7986.61, 37656.00, 6256.45, -12730.77, 0.00, 0.00, 0.00, 0.00, 0.00, 0.00, 0.00
26, 1171.95, 66272.92, 3591.55, 28188.99, -19177.15, -3901.03, 8992.13, -54322.11, -7984.31, 37639.04, 6223.57, -12707.32, 0.00, 0.00, 0.00, 0.00, 0.12, 0.36, 0.94
27, 1159.56, 66276.92, 3582.56, 28199.21, -19158.66, -3884.24, 9017.34, -54294.73, -7984.31, 37639.04, 6223.57, -12707.32, 0.00, 0.00, 0.00, 0.00, 0.00, 0.00, 0.00
28, 1159.56, 66276.92, 3582.56, 28199.21, -19158.66, -3884.24, 9017.34, -54294.73, -7968.71, 37669.50, 6264.19, -12731.69, 0.00, 0.00, 0.00, 0.00, 0.00, 0.00, 0.00
29, 1122.95, 66242.86, 3552.68, 28184.41, -19163.07, -3893.38, 9001.67, -54300.43, -7968.71, 37669.50, 6264.19, -12731.69, 0.00, 0.00, 0.00, 0.00, 0.00, 0.00, 0.00
30, 1122.95, 66242.86, 3552.68, 28184.41, -19163.07, -3893.38, 9001.67, -54300.43, -7951.88, 37658.40, 6208.87, -12680.50, 0.00, 0.00, 0.00, 0.00, 0.00, 0.00, 0.00
31, 1107.82, 66250.48, 3558.08, 28218.54, -19139.40, -3869.44, 9032.00, -54267.98, -7951.88, 37658.40, 6208.87, -12680.50, 0.00, 0.00, 0.00, 0.00, 0.00, 0.00, 0.00
32, 1107.82, 66250.48, 3558.08, 28218.54, -19139.40, -3869.44, 9032.00, -54267.98, -7937.86, 37702.30, 6221.67, -12701.62, 0.00, 0.00, 0.00, 0.00, 0.00, 0.00, 0.00
33, 1086.32, 66244.78, 3551.16, 28236.38, -19129.94, -3866.16, 9026.39, -54273.81, -7937.86, 37702.30, 6221.67, -12701.62, 0.00, 0.00, 0.00, 0.00, 0.00, 0.00, 0.00
34, 1086.32, 66244.78, 3551.16, 28236.38, -19129.94, -3866.16, 9026.39, -54273.81, -7936.21, 37663.58, 6179.50, -12675.14, 0.00, 0.00, 0.00, 0.00, 0.00, 0.00, 0.00
35, 1072.08, 66220.39, 3533.81, 28217.80, -19136.78, -3871.17, 9027.87, -54269.59, -7936.21, 37663.58, 6179.50, -12675.14, 0.00, 0.00, 0.00, 0.00, 0.00, 0.00, 0.00
36, 1072.08, 66220.39, 3533.81, 28217.80, -19136.78, -3871.17, 9027.87, -54269.59, -7931.61, 37702.00, 6263.41, -12722.72, 0.00, 0.00, 0.00, 0.00, 0.12, 0.37, 0.94
37, 1076.15, 66223.03, 3544.20, 28213.82, -19136.27, -3870.67, 9021.32, -54272.38, -7931.61, 37702.00, 6263.41, -12722.72, 0.00, 0.00, 0.00, 0.00, 0.00, 0.00, 0.00
38, 1076.15, 66223.03, 3544.20, 28213.82, -19136.27, -3870.67, 9021.32, -54272.38, -7927.60, 37670.67, 6267.83, -12673.89, 0.00, 0.00, 0.00, 0.00, 0.00, 0.00, 0.00
39, 1110.50, 66267.04, 3581.17, 28233.25, -19122.47, -3856.75, 9036.16, -54262.30, -7927.60, 37670.67, 6267.83, -12673.89, 0.00, 0.00, 0.00, 0.00, 0.00, 0.00, 0.00
40, 1110.50, 66267.04, 3581.17, 28233.25, -19122.47, -3856.75, 9036.16, -54262.30, -7931.20, 37702.96, 6336.76, -12710.10, 0.00, 0.00, 0.00, 0.00, 0.00, 0.00, 0.00
41, 1133.35, 66277.68, 3590.47, 28206.18, -19133.58, -3867.63, 9028.96, -54270.08, -7931.20, 37702.96, 6336.76, -12710.10, 0.00, 0.00, 0.00, 0.00, 0.00, 0.00, 0.00
42, 1133.35, 66277.68, 3590.47, 28206.18, -19133.58, -3867.63, 9028.96, -54270.08, -7941.87, 37660.43, 6308.91, -12681.22, 0.00, 0.00, 0.00, 0.00, 0.00, 0.00, 0.00
43, 1146.33, 66289.15, 3598.16, 28202.02, -19140.02, -3872.31, 9024.02, -54270.01, -7941.87, 37660.43, 6308.91, -12681.22, 0.00, 0.00, 0.00, 0.00, 0.00, 0.00, 0.00
44, 1146.33, 66289.15, 3598.16, 28202.02, -19140.02, -3872.31, 9024.02, -54270.01, -7928.50, 37709.07, 6397.38, -12704.31, 0.00, 0.00, 0.00, 0.00, 0.00, 0.00, 0.00
45, 1180.02, 66317.20, 3628.38, 28209.40, -19125.89, -3862.60, 9032.03, -54260.76, -7928.50, 37709.07, 6397.38, -12704.31, 0.00, 0.00, 0.00, 0.00, 0.00, 0.00, 0.00
46, 1180.02, 66317.20, 3628.38, 28209.40, -19125.89, -3862.60, 9032.03, -54260.76, -7943.14, 37658.08, 6365.44, -12664.21, 0.00, 0.00, 0.00, 0.00, 0.12, 0.38, 0.94
47, 1175.90, 66307.48, 3618.57, 28186.06, -19144.54, -3880.15, 9014.03, -54275.60, -7943.14, 37658.08, 6365.44, -12664.21, 0.00, 0.00, 0.00, 0.00, 0.00, 0.00, 0.00
48, 1175.90, 66307.48, 3618.57, 28186.06, -19144.54, -3880.15, 9014.03, -54275.60, -7925.12, 37709.98, 6429.08, -12727.08, 0.00, 0.00, 0.00, 0.00, 0.00, 0.00, 0.00
49, 1209.03, 66345.05, 3654.35, 28205.73, -19116.75, -3861.87, 9037.39, -54248.46, -7925.12, 37709.98, 6429.08, -12727.08, 0.00, 0.00, 0.00, 0.00, 0.00, 0.00, 0.00
50, 1209.03, 66345.05, 3654.35, 28205.73, -19116.75, -3861.87, 9037.39, -54248.46, -7933.42, 37670.49, 6421.88, -12674.18, 0.00, 0.00, 0.00, 0.00, 0.00, 0.00, 0.00
51, 1201.83, 66337.27, 3648.54, 28190.55, -19130.23, -3872.31, 9023.40, -54265.54, -7933.42, 37670.49, 6421.88, -12674.18, 0.00, 0.00, 0.00, 0.00, 0.00, 0.00, 0.00
52, 1201.83, 66337.27, 3648.54, 28190.55, -19130.23, -3872.31, 9023.40, -54265.54, -7926.64, 37708.58, 6464.79, -12710.32, 0.00, 0.00, 0.00, 0.00, 0.00, 0.00, 0.00
53, 1213.66, 66352.76, 3660.93, 28201.42, -19121.22, -3862.02, 9033.35, -54248.00, -7926.64, 37708.58, 6464.79, -12710.32, 0.00, 0.00, 0.00, 0.00, 0.00, 0.00, 0.00
54, 1213.66, 66352.76, 3660.93, 28201.42, -19121.22, -3862.02, 9033.35, -54248.00, -7932.32, 37676.95, 6442.35, -12664.79, 0.00, 0.00, 0.00, 0.00, 0.00, 0.00, 0.00
55, 1209.48, 66328.64, 3641.90, 28172.58, -19141.43, -3885.83, 9009.07, -54265.36, -7932.32, 37676.95, 6442.35, -12664.79, 0.00, 0.00, 0.00, 0.00, 0.12, 0.38, 0.94
56, 1209.48, 66328.64, 3641.90, 28172.58, -19141.43, -3885.83, 9009.07, -54265.36, -7927.27, 37700.80, 6469.13, -12693.53, 0.00, 0.00, 0.00, 0.00, 0.00, 0.00, 0.00
57, 1223.80, 66352.11, 3658.33, 28192.93, -19129.83, -3868.55, 9029.37, -54247.66, -7927.27, 37700.80, 6469.13, -12693.53, 0.00, 0.00, 0.00, 0.00, 0.00, 0.00, 0.00
58, 1223.80, 66352.11, 3658.33, 28192.93, -19129.83, -3868.55, 9029.37, -54247.66, -7931.38, 37681.60, 6448.88, -12677.10, 0.00, 0.00, 0.00, 0.00, 0.00, 0.00, 0.00
59, 1214.86, 66335.93, 3644.63, 28167.47, -19142.86, -3887.42, 9006.14, -54266.01, -7931.38, 37681.60, 6448.88, -12677.10, 0.00, 0.00, 0.00, 0.00, 0.00, 0.00, 0.00
60, 1214.86, 66335.93, 3644.63, 28167.47, -19142.86, -3887.42, 9006.14, -54266.01, -7929.75, 37698.59, 6461.40, -12703.73, 0.00, 0.00, 0.00, 0.00, 0.00, 0.00, 0.00
61, 1234.82, 66362.10, 3664.14, 28193.84, -19132.06, -3868.53, 9027.87, -54246.54, -7929.75, 37698.59, 6461.40, -12703.73, 0.00, 0.00, 0.00, 0.00, 0.00, 0.00, 0.00
62, 1234.82, 66362.10, 3664.14, 28193.84, -19132.06, -3868.53, 9027.87, -54246.54, -7931.45, 37692.15, 6451.52, -12696.97, 0.00, 0.00, 0.00, 0.00, 0.00, 0.00, 0.00
63, 1214.97, 66336.40, 3642.08, 28167.02, -19149.61, -3892.58, 8996.51, -54272.34, -7931.45, 37692.15, 6451.52, -12696.97, 0.00, 0.00, 0.00, 0.00, 0.00, 0.00, 0.00
64, 1214.97, 66336.40, 3642.08, 28167.02, -19149.61, -3892.58, 8996.51, -54272.34, -7929.28, 37695.95, 6452.26, -12703.79, 0.00, 0.00, 0.00, 0.00, 0.00, 0.00, 0.00
65, 1233.06, 66362.70, 3666.33, 28194.67, -19127.88, -3869.85, 9027.40, -54245.27, -7929.28, 37695.95, 6452.26, -12703.79, 0.00, 0.00, 0.00, 0.00, 0.12, 0.38, 0.94
66, 1233.06, 66362.70, 3666.33, 28194.67, -19127.88, -3869.85, 9027.40, -54245.27, -7936.14, 37686.80, 6461.80, -12681.53, 0.00, 0.00, 0.00, 0.00, 0.00, 0.00, 0.00
67, 1224.85, 66340.16, 3649.86, 28174.13, -19143.33, -3887.15, 9002.23, -54266.99, -7936.14, 37686.80, 6461.80, -12681.53, 0.00, 0.00, 0.00, 0.00, 0.00, 0.00, 0.00
68, 1224.85, 66340.16, 3649.86, 28174.13, -19143.33, -3887.15, 9002.23, -54266.99, -7931.83, 37685.29, 6454.78, -12691.16, 0.00, 0.00, 0.00, 0.00, 0.00, 0.00, 0.00
69, 1237.62, 66369.34, 3672.24, 28204.59, -19128.69, -3866.18, 9028.07, -54244.26, -7931.83, 37685.29, 6454.78, -12691.16, 0.00, 0.00, 0.00, 0.00, 0.00, 0.00, 0.00
70, 1237.62, 66369.34, 3672.24, 28204.59, -19128.69, -3866.18, 9028.07, -54244.26, -7931.63, 37697.51, 6460.97, -12708.26, 0.00, 0.00, 0.00, 0.00, 0.00, 0.00, 0.00
71, 1233.19, 66349.95, 3655.16, 28180.18, -19139.37, -3884.44, 9007.06, -54261.68, -7931.63, 37697.51, 6460.97, -12708.26, 0.00, 0.00, 0.00, 0.00, 0.00, 0.00, 0.00
72, 1233.19, 66349.95, 3655.16, 28180.18, -19139.37, -3884.44, 9007.06, -54261.68, -7937.44, 37676.08, 6446.56, -12677.24, 0.00, 0.00, 0.00, 0.00, 0.00, 0.00, 0.00
73, 1245.46, 66367.67, 3673.55, 28208.77, -19125.49, -3863.86, 9032.23, -54242.32, -7937.44, 37676.08, 6446.56, -12677.24, 0.00, 0.00, 0.00, 0.00, 0.00, 0.00, 0.00
74, 1245.46, 66367.67, 3673.55, 28208.77, -19125.49, -3863.86, 9032.23, -54242.32, -7930.09, 37707.23, 6462.60, -12703.59, 0.00, 0.00, 0.00, 0.00, 0.00, 0.00, 0.00
75, 1229.73, 66343.64, 3657.08, 28189.95, -19132.31, -3875.95, 9012.96, -54256.06, -7930.09, 37707.23, 6462.60, -12703.59, 0.00, 0.00, 0.00, 0.00, 0.13, 0.37, 0.94
76, 1229.73, 66343.64, 3657.08, 28189.95, -19132.31, -3875.95, 9012.96, -54256.06, -7923.72, 37692.66, 6442.58, -12674.47, 0.00, 0.00, 0.00, 0.00, 0.00, 0.00, 0.00
77, 1241.46, 66366.22, 3670.92, 28214.03, -19119.79, -3857.29, 9037.17, -54232.93, -7923.72, 37692.66, 6442.58, -12674.47, 0.00, 0.00, 0.00, 0.00, 0.00, 0.00, 0.00
78, 1241.46, 66366.22, 3670.92, 28214.03, -19119.79, -3857.29, 9037.17, -54232.93, -7922.51, 37723.08, 6475.41, -12679.23, 0.00, 0.00, 0.00, 0.00, 0.00, 0.00, 0.00
79, 1222.82, 66346.03, 3656.30, 28190.64, -19132.00, -3875.10, 9016.69, -54251.14, -7922.51, 37723.08, 6475.41, -12679.23, 0.00, 0.00, 0.00, 0.00, 0.00, 0.00, 0.00
80, 1222.82, 66346.03, 3656.30, 28190.64, -19132.00, -3875.10, 9016.69, -54251.14, -7934.85, 37680.26, 6437.77, -12655.62, 0.00, 0.00, 0.00, 0.00, 0.00, 0.00, 0.00
81, 1234.84, 66357.45, 3665.57, 28208.48, -19124.46, -3864.15, 9032.90, -54241.07, -7934.85, 37680.26, 6437.77, -12655.62, 0.00, 0.00, 0.00, 0.00, 0.00, 0.00, 0.00
82, 1234.84, 66357.45, 3665.57, 28208.48, -19124.46, -3864.15, 9032.90, -54241.07, -7932.25, 37712.67, 6480.64, -12712.73, 0.00, 0.00, 0.00, 0.00, 0.00, 0.00, 0.00
83, 1231.67, 66342.23, 3657.62, 28193.10, -19132.73, -3875.14, 9015.44, -54254.63, -7932.25, 37712.67, 6480.64, -12712.73, 0.00, 0.00, 0.00, 0.00, 0.00, 0.00, 0.00
84, 1231.67, 66342.23, 3657.62, 28193.10, -19132.73, -3875.14, 9015.44, -54254.63, -7929.01, 37679.25, 6444.28, -12667.07, 0.00, 0.00, 0.00, 0.00, 0.00, 0.00, 0.00
85, 1237.28, 66360.16, 3668.50, 28203.59, -19125.38, -3866.65, 9031.11, -54237.18, -7929.01, 37679.25, 6444.28, -12667.07, 0.00, 0.00, 0.00, 0.00, 0.12, 0.37, 0.94
86, 1237.28, 66360.16, 3668.50, 28203.59, -19125.38, -3866.65, 9031.11, -54237.18, -7923.38, 37723.06, 6487.77, -12695.34, 0.00, 0.00, 0.00, 0.00, 0.00, 0.00, 0.00
87, 1237.21, 66361.39, 3669.71, 28198.31, -19122.61, -3871.55, 9027.44, -54241.65, -7923.38, 37723.06, 6487.77, -12695.34, 0.00, 0.00, 0.00, 0.00, 0.00, 0.00, 0.00
88, 1237.21, 66361.39, 3669.71, 28198.31, -19122.61, -3871.55, 9027.44, -54241.65, -7932.28, 37674.31, 6446.00, -12663.00, 0.00, 0.00, 0.00, 0.00, 0.00, 0.00, 0.00
89, 1235.52, 66358.80, 3666.94, 28197.93, -19127.06, -3871.55, 9028.74, -54244.22, -7932.28, 37674.31, 6446.00, -12663.00, 0.00, 0.00, 0.00, 0.00, 0.00, 0.00, 0.00
90, 1235.52, 66358.80, 3666.94, 28197.93, -19127.06, -3871.55, 9028.74, -54244.22, -7922.13, 37722.39, 6484.46, -12693.09, 0.00, 0.00, 0.00, 0.00, 0.00, 0.00, 0.00
91, 1248.75, 66359.29, 3671.05, 28202.63, -19120.93, -3869.47, 9029.63, -54243.12, -7922.13, 37722.39, 6484.46, -12693.09, 0.00, 0.00, 0.00, 0.00, 0.00, 0.00, 0.00
92, 1248.75, 66359.29, 3671.05, 28202.63, -19120.93, -3869.47, 9029.63, -54243.12, -7927.78, 37678.02, 6454.22, -12663.80, 0.00, 0.00, 0.00, 0.00, 0.00, 0.00, 0.00
93, 1258.87, 66378.20, 3691.06, 28215.21, -19105.64, -3862.27, 9040.83, -54238.34, -7927.78, 37678.02, 6454.22, -12663.80, 0.00, 0.00, 0.00, 0.00, 0.00, 0.00, 0.00
94, 1258.87, 66378.20, 3691.06, 28215.21, -19105.64, -3862.27, 9040.83, -54238.34, -7910.01, 37726.57, 6515.06, -12719.48, 0.00, 0.00, 0.00, 0.00, 0.12, 0.37, 0.94
95, 1265.82, 66376.09, 3688.13, 28220.55, -19119.66, -3862.38, 9031.85, -54244.33, -7910.01, 37726.57, 6515.06, -12719.48, 0.00, 0.00, 0.00, 0.00, 0.00, 0.00, 0.00
96, 1265.82, 66376.09, 3688.13, 28220.55, -19119.66, -3862.38, 9031.85, -54244.33, -7941.26, 37669.39, 6424.47, -12665.48, 0.00, 0.00, 0.00, 0.00, 0.00, 0.00, 0.00
97, 1244.70, 66360.90, 3663.54, 28183.00, -19141.88, -3887.48, 9014.64, -54261.41, -7941.26, 37669.39, 6424.47, -12665.48, 0.00, 0.00, 0.00, 0.00, 0.00, 0.00, 0.00
98, 1244.70, 66360.90, 3663.54, 28183.00, -19141.88, -3887.48, 9014.64, -54261.41, -7938.94, 37704.17, 6475.99, -12693.64, 0.00, 0.00, 0.00, 0.00, 0.00, 0.00, 0.00
99, 1257.06, 66378.71, 3679.57, 28199.72, -19133.79, -3871.28, 9035.25, -54243.77, -7938.94, 37704.17, 6475.99, -12693.64, 0.00, 0.00, 0.00, 0.00, 0.00, 0.00, 0.00
100, 1257.06, 66378.71, 3679.57, 28199.72, -19133.79, -3871.28, 9035.25, -54243.77, -7947.25, 37666.87, 6434.91, -12683.88, 0.00, 0.00, 0.00, 0.00, 0.00, 0.00, 0.00
101, 1244.72, 66357.32, 3660.97, 28175.85, -19146.97, -3889.58, 9014.61, -54261.23, -7947.25, 37666.87, 6434.91, -12683.88, 0.00, 0.00, 0.00, 0.00, 0.00, 0.00, 0.00
102, 1244.72, 66357.32, 3660.97, 28175.85, -19146.97, -3889.58, 9014.61, -54261.23, -7932.10, 37708.62, 6470.43, -12704.11, 0.00, 0.00, 0.00, 0.00, 0.00, 0.00, 0.00
103, 1270.12, 66391.07, 3691.73, 28212.66, -19119.46, -3863.36, 9046.62, -54234.14, -7932.10, 37708.62, 6470.43, -12704.11, 0.00, 0.00, 0.00, 0.00, 0.00, 0.00, 0.00
104, 1270.12, 66391.07, 3691.73, 28212.66, -19119.46, -3863.36, 9046.62, -54234.14, -7937.75, 37677.04, 6460.62, -12666.29, 0.00, 0.00, 0.00, 0.00, 0.13, 0.37, 0.94
105, 1249.17, 66357.74, 3666.31, 28183.31, -19137.90, -3886.21, 9018.86, -54257.52, -7937.75, 37677.04, 6460.62, -12666.29, 0.00, 0.00, 0.00, 0.00, 0.00, 0.00, 0.00
106, 1249.17, 66357.74, 3666.31, 28183.31, -19137.90, -3886.21, 9018.86, -54257.52, -7932.72, 37700.26, 6470.63, -12706.43, 0.00, 0.00, 0.00, 0.00, 0.00, 0.00, 0.00
107, 1259.83, 66380.21, 3685.22, 28212.48, -19123.10, -3863.28, 9047.67, -54233.89, -7932.72, 37700.26, 6470.63, -12706.43, 0.00, 0.00, 0.00, 0.00, 0.00, 0.00, 0.00
108, 1259.83, 66380.21, 3685.22, 28212.48, -19123.10, -3863.28, 9047.67, -54233.89, -7937.17, 37684.88, 6455.03, -12664.14, 0.00, 0.00, 0.00, 0.00, 0.00, 0.00, 0.00
109, 1243.36, 66358.37, 3664.48, 28184.43, -19137.65, -3883.68, 9025.97, -54252.58, -7937.17, 37684.88, 6455.03, -12664.14, 0.00, 0.00, 0.00, 0.00, 0.00, 0.00, 0.00
110, 1243.36, 66358.37, 3664.48, 28184.43, -19137.65, -3883.68, 9025.97, -54252.58, -7924.27, 37704.66, 6470.02, -12685.82, 0.00, 0.00, 0.00, 0.00, 0.00, 0.00, 0.00
111, 1255.34, 66378.58, 3685.58, 28214.38, -19117.07, -3862.34, 9051.58, -54230.79, -7924.27, 37704.66, 6470.02, -12685.82, 0.00, 0.00, 0.00, 0.00, 0.00, 0.00, 0.00
112, 1255.34, 66378.58, 3685.58, 28214.38, -19117.07, -3862.34, 9051.58, -54230.79, -7934.38, 37687.34, 6460.93, -12692.39, 0.00, 0.00, 0.00, 0.00, 0.00, 0.00, 0.00
113, 1240.92, 66355.64, 3663.27, 28184.63, -19137.94, -3887.97, 9023.00, -54256.31, -7934.38, 37687.34, 6460.93, -12692.39, 0.00, 0.00, 0.00, 0.00, 0.00, 0.00, 0.00
114, 1240.92, 66355.64, 3663.27, 28184.63, -19137.94, -3887.97, 9023.00, -54256.31, -7931.72, 37694.85, 6469.04, -12687.36, 0.00, 0.00, 0.00, 0.00, 0.12, 0.36, 0.93
115, 1259.03, 66382.27, 3690.07, 28219.21, -19112.80, -3859.77, 9057.51, -54229.11, -7931.72, 37694.85, 6469.04, -12687.36, 0.00, 0.00, 0.00, 0.00, 0.00, 0.00, 0.00
116, 1259.03, 66382.27, 3690.07, 28219.21, -19112.80, -3859.77, 9057.51, -54229.11, -7931.34, 37703.48, 6474.67, -12679.65, 0.00, 0.00, 0.00, 0.00, 0.00, 0.00, 0.00
117, 1240.63, 66354.48, 3669.49, 28191.03, -19132.82, -3881.96, 9029.34, -54249.98, -7931.34, 37703.48, 6474.67, -12679.65, 0.00, 0.00, 0.00, 0.00, 0.00, 0.00, 0.00
118, 1240.63, 66354.48, 3669.49, 28191.03, -19132.82, -3881.96, 9029.34, -54249.98, -7930.42, 37691.52, 6464.28, -12680.01, 0.00, 0.00, 0.00, 0.00, 0.00, 0.00, 0.00
119, 1267.17, 66389.91, 3695.32, 28223.55, -19110.65, -3858.43, 9062.69, -54226.40, -7930.42, 37691.52, 6464.28, -12680.01, 0.00, 0.00, 0.00, 0.00, 0.00, 0.00, 0.00
120, 1267.17, 66389.91, 3695.32, 28223.55, -19110.65, -3858.43, 9062.69, -54226.40, -7925.17, 37705.11, 6485.09, -12682.87, 0.00, 0.00, 0.00, 0.00, 0.00, 0.00, 0.00
121, 1246.62, 66361.48, 3675.61, 28196.19, -19125.34, -3878.12, 9037.93, -54246.30, -7925.17, 37705.11, 6485.09, -12682.87, 0.00, 0.00, 0.00, 0.00, 0.00, 0.00, 0.00
122, 1246.62, 66361.48, 3675.61, 28196.19, -19125.34, -3878.12, 9037.93, -54246.30, -7926.96, 37685.46, 6462.83, -12668.95, 0.00, 0.00, 0.00, 0.00, 0.00, 0.00, 0.00
123, 1265.42, 66387.54, 3695.19, 28223.10, -19112.10, -3857.91, 9066.74, -54227.81, -7926.96, 37685.46, 6462.83, -12668.95, 0.00, 0.00, 0.00, 0.00, 0.00, 0.00, 0.00
124, 1265.42, 66387.54, 3695.19, 28223.10, -19112.10, -3857.91, 9066.74, -54227.81, -7921.03, 37714.93, 6487.17, -12680.66, 0.00, 0.00, 0.00, 0.00, 0.11, 0.37, 0.94
125, 1249.04, 66378.63, 3681.58, 28199.32, -19120.62, -3873.13, 9046.62, -54238.88, -7921.03, 37714.93, 6487.17, -12680.66, 0.00, 0.00, 0.00, 0.00, 0.00, 0.00, 0.00
126, 1249.04, 66378.63, 3681.58, 28199.32, -19120.62, -3873.13, 9046.62, -54238.88, -7924.83, 37689.04, 6460.95, -12662.42, 0.00, 0.00, 0.00, 0.00, 0.00, 0.00, 0.00
127, 1260.59, 66384.79, 3691.64, 28219.03, -19111.63, -3860.08, 9066.09, -54226.16, -7924.83, 37689.04, 6460.95, -12662.42, 0.00, 0.00, 0.00, 0.00, 0.00, 0.00, 0.00
128, 1260.59, 66384.79, 3691.64, 28219.03, -19111.63, -3860.08, 9066.09, -54226.16, -7922.02, 37715.35, 6493.16, -12691.32, 0.00, 0.00, 0.00, 0.00, 0.00, 0.00, 0.00
129, 1250.47, 66370.51, 3681.20, 28202.36, -19119.17, -3873.94, 9047.81, -54241.51, -7922.02, 37715.35, 6493.16, -12691.32, 0.00, 0.00, 0.00, 0.00, 0.00, 0.00, 0.00
130, 1250.47, 66370.51, 3681.20, 28202.36, -19119.17, -3873.94, 9047.81, -54241.51, -7921.23, 37683.95, 6458.96, -12665.17, 0.00, 0.00, 0.00, 0.00, 0.00, 0.00, 0.00
131, 1264.28, 66391.09, 3693.27, 28215.86, -19111.59, -3863.14, 9066.85, -54225.78, -7921.23, 37683.95, 6458.96, -12665.17, 0.00, 0.00, 0.00, 0.00, 0.00, 0.00, 0.00
132, 1264.28, 66391.09, 3693.27, 28215.86, -19111.59, -3863.14, 9066.85, -54225.78, -7913.68, 37731.11, 6501.21, -12683.43, 0.00, 0.00, 0.00, 0.00, 0.00, 0.00, 0.00
133, 1260.79, 66382.65, 3686.96, 28207.90, -19115.19, -3867.77, 9057.42, -54232.44, -7913.68, 37731.11, 6501.21, -12683.43, 0.00, 0.00, 0.00, 0.00, 0.12, 0.38, 0.94
134, 1260.79, 66382.65, 3686.96, 28207.90, -19115.19, -3867.77, 9057.42, -54232.44, -7924.81, 37681.24, 6452.41, -12655.54, 0.00, 0.00, 0.00, 0.00, 0.00, 0.00, 0.00
135, 1262.67, 66390.31, 3691.64, 28215.46, -19116.84, -3863.30, 9066.81, -54227.21, -7924.81, 37681.24, 6452.41, -12655.54, 0.00, 0.00, 0.00, 0.00, 0.00, 0.00, 0.00
136, 1262.67, 66390.31, 3691.64, 28215.46, -19116.84, -3863.30, 9066.81, -54227.21, -7915.42, 37725.18, 6496.82, -12679.61, 0.00, 0.00, 0.00, 0.00, 0.00, 0.00, 0.00
137, 1261.11, 66387.34, 3691.32, 28213.04, -19112.26, -3864.97, 9065.60, -54225.98, -7915.42, 37725.18, 6496.82, -12679.61, 0.00, 0.00, 0.00, 0.00, 0.00, 0.00, 0.00
138, 1261.11, 66387.34, 3691.32, 28213.04, -19112.26, -3864.97, 9065.60, -54225.98, -7921.15, 37682.40, 6458.04, -12655.09, 0.00, 0.00, 0.00, 0.00, 0.00, 0.00, 0.00
139, 1255.65, 66387.14, 3690.88, 28211.48, -19115.30, -3867.61, 9063.83, -54232.13, -7921.15, 37682.40, 6458.04, -12655.09, 0.00, 0.00, 0.00, 0.00, 0.00, 0.00, 0.00
140, 1255.65, 66387.14, 3690.88, 28211.48, -19115.30, -3867.61, 9063.83, -54232.13, -7919.02, 37720.18, 6490.30, -12685.51, 0.00, 0.00, 0.00, 0.00, 0.00, 0.00, 0.00
141, 1260.17, 66379.60, 3688.15, 28212.24, -19114.56, -3865.82, 9062.74, -54230.83, -7919.02, 37720.18, 6490.30, -12685.51, 0.00, 0.00, 0.00, 0.00, 0.00, 0.00, 0.00
142, 1260.17, 66379.60, 3688.15, 28212.24, -19114.56, -3865.82, 9062.74, -54230.83, -7920.97, 37684.19, 6448.70, -12682.27, 0.00, 0.00, 0.00, 0.00, 0.00, 0.00, 0.00
143, 1252.82, 66373.59, 3680.48, 28205.29, -19122.92, -3872.82, 9056.03, -54234.32, -7920.97, 37684.19, 6448.70, -12682.27, 0.00, 0.00, 0.00, 0.00, 0.12, 0.37, 0.93
144, 1252.82, 66373.59, 3680.48, 28205.29, -19122.92, -3872.82, 9056.03, -54234.32, -7924.63, 37717.02, 6482.99, -12676.93, 0.00, 0.00, 0.00, 0.00, 0.00, 0.00, 0.00
145, 1254.92, 66384.19, 3689.00, 28218.45, -19114.63, -3862.52, 9069.87, -54228.14, -7924.63, 37717.02, 6482.99, -12676.93, 0.00, 0.00, 0.00, 0.00, 0.00, 0.00, 0.00
146, 1254.92, 66384.19, 3689.00, 28218.45, -19114.63, -3862.52, 9069.87, -54228.14, -7938.18, 37673.20, 6444.61, -12668.97, 0.00, 0.00, 0.00, 0.00, 0.00, 0.00, 0.00
147, 1248.14, 66371.73, 3679.41, 28202.16, -19126.72, -3875.37, 9054.67, -54243.39, -7938.18, 37673.20, 6444.61, -12668.97, 0.00, 0.00, 0.00, 0.00, 0.00, 0.00, 0.00
148, 1248.14, 66371.73, 3679.41, 28202.16, -19126.72, -3875.37, 9054.67, -54243.39, -7928.77, 37709.27, 6482.32, -12707.03, 0.00, 0.00, 0.00, 0.00, 0.00, 0.00, 0.00
149, 1260.62, 66384.23, 3694.09, 28220.04, -19112.26, -3863.07, 9072.95, -54227.30, -7928.77, 37709.27, 6482.32, -12707.03, 0.00, 0.00, 0.00, 0.00, 0.00, 0.00, 0.00
150, 1260.62, 66384.23, 3694.09, 28220.04, -19112.26, -3863.07, 9072.95, -54227.30, -7930.24, 37680.68, 6455.76, -12650.51, 0.00, 0.00, 0.00, 0.00, 0.00, 0.00, 0.00
151, 1247.61, 66368.67, 3679.88, 28199.88, -19124.31, -3877.20, 9053.91, -54242.59, -7930.24, 37680.68, 6455.76, -12650.51, 0.00, 0.00, 0.00, 0.00, 0.00, 0.00, 0.00
152, 1247.61, 66368.67, 3679.88, 28199.88, -19124.31, -3877.20, 9053.91, -54242.59, -7928.25, 37710.88, 6479.48, -12679.45, 0.00, 0.00, 0.00, 0.00, 0.00, 0.00, 0.00
153, 1256.79, 66391.67, 3696.40, 28221.42, -19110.23, -3859.41, 9078.56, -54222.34, -7928.25, 37710.88, 6479.48, -12679.45, 0.00, 0.00, 0.00, 0.00, 0.11, 0.37, 0.94
154, 1256.79, 66391.67, 3696.40, 28221.42, -19110.23, -3859.41, 9078.56, -54222.34, -7931.20, 37689.04, 6459.94, -12669.13, 0.00, 0.00, 0.00, 0.00, 0.00, 0.00, 0.00
155, 1247.20, 66370.98, 3679.01, 28196.34, -19124.20, -3879.37, 9052.86, -54244.08, -7931.20, 37689.04, 6459.94, -12669.13, 0.00, 0.00, 0.00, 0.00, 0.00, 0.00, 0.00
156, 1247.20, 66370.98, 3679.01, 28196.34, -19124.20, -3879.37, 9052.86, -54244.08, -7922.98, 37707.32, 6480.78, -12694.83, 0.00, 0.00, 0.00, 0.00, 0.00, 0.00, 0.00
157, 1265.96, 66399.70, 3702.75, 28222.92, -19102.38, -3858.47, 9084.75, -54216.37, -7922.98, 37707.32, 6480.78, -12694.83, 0.00, 0.00, 0.00, 0.00, 0.00, 0.00, 0.00
158, 1265.96, 66399.70, 3702.75, 28222.92, -19102.38, -3858.47, 9084.75, -54216.37, -7921.32, 37699.97, 6469.15, -12669.04, 0.00, 0.00, 0.00, 0.00, 0.00, 0.00, 0.00
159, 1243.90, 66368.41, 3675.63, 28194.47, -19127.50, -3880.55, 9053.24, -54242.27, -7921.32, 37699.97, 6469.15, -12669.04, 0.00, 0.00, 0.00, 0.00, 0.00, 0.00, 0.00
160, 1243.90, 66368.41, 3675.63, 28194.47, -19127.50, -3880.55, 9053.24, -54242.27, -7937.13, 37697.13, 6470.58, -12681.46, 0.00, 0.00, 0.00, 0.00, 0.00, 0.00, 0.00
161, 1262.65, 66396.08, 3697.96, 28222.29, -19110.72, -3857.17, 9084.93, -54220.91, -7937.13, 37697.13, 6470.58, -12681.46, 0.00, 0.00, 0.00, 0.00, 0.00, 0.00, 0.00
162, 1262.65, 66396.08, 3697.96, 28222.29, -19110.72, -3857.17, 9084.93, -54220.91, -7937.06, 37694.52, 6473.13, -12676.79, 0.00, 0.00, 0.00, 0.00, 0.00, 0.00, 0.00
163, 1246.80, 66374.71, 3680.30, 28192.93, -19123.62, -3882.32, 9058.13, -54243.14, -7937.06, 37694.52, 6473.13, -12676.79, 0.00, 0.00, 0.00, 0.00, 0.12, 0.38, 0.94
164, 1246.80, 66374.71, 3680.30, 28192.93, -19123.62, -3882.32, 9058.13, -54243.14, -7930.78, 37693.49, 6468.86, -12687.57, 0.00, 0.00, 0.00, 0.00, 0.00, 0.00, 0.00
165, 1264.01, 66399.61, 3702.41, 28223.72, -19108.28, -3858.63, 9085.67, -54220.30, -7930.78, 37693.49, 6468.86, -12687.57, 0.00, 0.00, 0.00, 0.00, 0.00, 0.00, 0.00
166, 1264.01, 66399.61, 3702.41, 28223.72, -19108.28, -3858.63, 9085.67, -54220.30, -7929.75, 37705.00, 6481.00, -12673.82, 0.00, 0.00, 0.00, 0.00, 0.00, 0.00, 0.00
167, 1239.23, 66369.79, 3679.01, 28192.12, -19125.29, -3879.97, 9057.51, -54240.53, -7929.75, 37705.00, 6481.00, -12673.82, 0.00, 0.00, 0.00, 0.00, 0.00, 0.00, 0.00
168, 1239.23, 66369.79, 3679.01, 28192.12, -19125.29, -3879.97, 9057.51, -54240.53, -7930.94, 37697.54, 6466.25, -12665.19, 0.00, 0.00, 0.00, 0.00, 0.00, 0.00, 0.00
169, 1263.32, 66397.40, 3702.48, 28221.69, -19106.20, -3858.43, 9090.59, -54213.04, -7930.94, 37697.54, 6466.25, -12665.19, 0.00, 0.00, 0.00, 0.00, 0.00, 0.00, 0.00
170, 1263.32, 66397.40, 3702.48, 28221.69, -19106.20, -3858.43, 9090.59, -54213.04, -7925.70, 37717.50, 6492.11, -12686.31, 0.00, 0.00, 0.00, 0.00, 0.00, 0.00, 0.00
171, 1252.59, 66383.29, 3690.43, 28203.27, -19114.25, -3872.24, 9069.67, -54229.49, -7925.70, 37717.50, 6492.11, -12686.31, 0.00, 0.00, 0.00, 0.00, 0.00, 0.00, 0.00
172, 1252.59, 66383.29, 3690.43, 28203.27, -19114.25, -3872.24, 9069.67, -54229.49, -7926.58, 37689.40, 6470.07, -12667.43, 0.00, 0.00, 0.00, 0.00, 0.12, 0.37, 0.93
173, 1260.71, 66396.41, 3698.79, 28217.60, -19111.19, -3862.27, 9085.09, -54218.02, -7926.58, 37689.40, 6470.07, -12667.43, 0.00, 0.00, 0.00, 0.00, 0.00, 0.00, 0.00
174, 1260.71, 66396.41, 3698.79, 28217.60, -19111.19, -3862.27, 9085.09, -54218.02, -7927.87, 37717.76, 6493.07, -12683.99, 0.00, 0.00, 0.00, 0.00, 0.00, 0.00, 0.00
175, 1247.58, 66375.60, 3684.64, 28198.49, -19120.20, -3876.55, 9072.30, -54227.03, -7927.87, 37717.76, 6493.07, -12683.99, 0.00, 0.00, 0.00, 0.00, 0.00, 0.00, 0.00
176, 1247.58, 66375.60, 3684.64, 28198.49, -19120.20, -3876.55, 9072.30, -54227.03, -7921.90, 37692.59, 6470.70, -12652.29, 0.00, 0.00, 0.00, 0.00, 0.00, 0.00, 0.00
177, 1257.29, 66396.05, 3703.44, 28222.07, -19102.18, -3857.67, 9096.31, -54206.11, -7921.90, 37692.59, 6470.70, -12652.29, 0.00, 0.00, 0.00, 0.00, 0.00, 0.00, 0.00
178, 1257.29, 66396.05, 3703.44, 28222.07, -19102.18, -3857.67, 9096.31, -54206.11, -7913.99, 37731.04, 6507.38, -12695.54, 0.00, 0.00, 0.00, 0.00, 0.00, 0.00, 0.00
179, 1248.99, 66378.94, 3688.46, 28200.46, -19114.27, -3872.42, 9075.68, -54219.43, -7913.99, 37731.04, 6507.38, -12695.54, 0.00, 0.00, 0.00, 0.00, 0.00, 0.00, 0.00
180, 1248.99, 66378.94, 3688.46, 28200.46, -19114.27, -3872.42, 9075.68, -54219.43, -7921.99, 37691.57, 6468.53, -12650.08, 0.00, 0.00, 0.00, 0.00, 0.00, 0.00, 0.00
181, 1252.48, 66390.00, 3695.50, 28215.34, -19111.14, -3864.01, 9089.83, -54213.68, -7921.99, 37691.57, 6468.53, -12650.08, 0.00, 0.00, 0.00, 0.00, 0.00, 0.00, 0.00
182, 1252.48, 66390.00, 3695.50, 28215.34, -19111.14, -3864.01, 9089.83, -54213.68, -7919.02, 37723.80, 6502.01, -12682.92, 0.00, 0.00, 0.00, 0.00, 0.12, 0.37, 0.94
183, 1244.75, 66380.77, 3687.05, 28202.80, -19117.09, -3873.02, 9078.72, -54220.03, -7919.02, 37723.80, 6502.01, -12682.92, 0.00, 0.00, 0.00, 0.00, 0.00, 0.00, 0.00
184, 1244.75, 66380.77, 3687.05, 28202.80, -19117.09, -3873.02, 9078.72, -54220.03, -7920.54, 37687.32, 6463.12, -12668.52, 0.00, 0.00, 0.00, 0.00, 0.00, 0.00, 0.00
185, 1244.84, 66379.27, 3689.45, 28211.88, -19111.63, -3866.58, 9088.15, -54213.53, -7920.54, 37687.32, 6463.12, -12668.52, 0.00, 0.00, 0.00, 0.00, 0.00, 0.00, 0.00
186, 1244.84, 66379.27, 3689.45, 28211.88, -19111.63, -3866.58, 9088.15, -54213.53, -7916.74, 37730.91, 6500.33, -12690.74, 0.00, 0.00, 0.00, 0.00, 0.00, 0.00, 0.00
187, 1250.33, 66389.84, 3691.37, 28206.85, -19113.98, -3867.05, 9085.13, -54213.59, -7916.74, 37730.91, 6500.33, -12690.74, 0.00, 0.00, 0.00, 0.00, 0.00, 0.00, 0.00
188, 1250.33, 66389.84, 3691.37, 28206.85, -19113.98, -3867.05, 9085.13, -54213.59, -7923.78, 37686.49, 6463.25, -12659.58, 0.00, 0.00, 0.00, 0.00, 0.00, 0.00, 0.00
189, 1251.05, 66380.86, 3689.92, 28207.81, -19115.72, -3868.89, 9088.13, -54215.52, -7923.78, 37686.49, 6463.25, -12659.58, 0.00, 0.00, 0.00, 0.00, 0.00, 0.00, 0.00
190, 1251.05, 66380.86, 3689.92, 28207.81, -19115.72, -3868.89, 9088.13, -54215.52, -7916.25, 37735.09, 6500.60, -12687.50, 0.00, 0.00, 0.00, 0.00, 0.00, 0.00, 0.00
191, 1258.54, 66389.41, 3698.92, 28219.05, -19109.40, -3861.33, 9093.74, -54209.62, -7916.25, 37735.09, 6500.60, -12687.50, 0.00, 0.00, 0.00, 0.00, 0.00, 0.00, 0.00
192, 1258.54, 66389.41, 3698.92, 28219.05, -19109.40, -3861.33, 9093.74, -54209.62, -7927.56, 37686.02, 6463.68, -12648.11, 0.00, 0.00, 0.00, 0.00, 0.12, 0.38, 0.94
193, 1251.25, 66381.39, 3690.68, 28206.34, -19117.76, -3871.08, 9083.32, -54221.73, -7927.56, 37686.02, 6463.68, -12648.11, 0.00, 0.00, 0.00, 0.00, 0.00, 0.00, 0.00
194, 1251.25, 66381.39, 3690.68, 28206.34, -19117.76, -3871.08, 9083.32, -54221.73, -7920.99, 37724.45, 6493.49, -12691.77, 0.00, 0.00, 0.00, 0.00, 0.00, 0.00, 0.00
195, 1260.50, 66394.65, 3698.68, 28215.30, -19106.83, -3862.54, 9097.38, -54205.97, -7920.99, 37724.45, 6493.49, -12691.77, 0.00, 0.00, 0.00, 0.00, 0.00, 0.00, 0.00
196, 1260.50, 66394.65, 3698.68, 28215.30, -19106.83, -3862.54, 9097.38, -54205.97, -7919.83, 37694.92, 6470.32, -12665.03, 0.00, 0.00, 0.00, 0.00, 0.00, 0.00, 0.00
197, 1252.06, 66382.60, 3691.19, 28205.33, -19117.47, -3871.81, 9086.16, -54214.47, -7919.83, 37694.92, 6470.32, -12665.03, 0.00, 0.00, 0.00, 0.00, 0.00, 0.00, 0.00
198, 1252.06, 66382.60, 3691.19, 28205.33, -19117.47, -3871.81, 9086.16, -54214.47, -7914.89, 37727.20, 6495.35, -12684.15, 0.00, 0.00, 0.00, 0.00, 0.00, 0.00, 0.00
199, 1262.63, 66403.37, 3706.28, 28224.82, -19104.68, -3856.55, 9105.43, -54201.64, -7914.89, 37727.20, 6495.35, -12684.15, 0.00, 0.00, 0.00, 0.00, 0.00, 0.00, 0.00
200, 1262.63, 66403.37, 3706.28, 28224.82, -19104.68, -3856.55, 9105.43, -54201.64, -7922.67, 37694.16, 6476.44, -12667.25, 0.00, 0.00, 0.00, 0.00, 0.00, 0.00, 0.00
201, 1247.85, 66381.75, 3685.76, 28203.32, -19121.43, -3875.73, 9082.83, -54221.69, -7922.67, 37694.16, 6476.44, -12667.25, 0.00, 0.00, 0.00, 0.00, 0.00, 0.00, 0.00
202, 1247.85, 66381.75, 3685.76, 28203.32, -19121.43, -3875.73, 9082.83, -54221.69, -7915.71, 37717.94, 6489.47, -12680.77, 0.00, 0.00, 0.00, 0.00, 0.11, 0.37, 0.94
203, 1262.78, 66404.08, 3704.65, 28225.54, -19101.42, -3855.94, 9106.95, -54199.00, -7915.71, 37717.94, 6489.47, -12680.77, 0.00, 0.00, 0.00, 0.00, 0.00, 0.00, 0.00
204, 1262.78, 66404.08, 3704.65, 28225.54, -19101.42, -3855.94, 9106.95, -54199.00, -7918.57, 37701.11, 6478.38, -12653.25, 0.00, 0.00, 0.00, 0.00, 0.00, 0.00, 0.00
205, 1243.72, 66374.76, 3683.97, 28203.07, -19123.06, -3875.37, 9082.45, -54221.89, -7918.57, 37701.11, 6478.38, -12653.25, 0.00, 0.00, 0.00, 0.00, 0.00, 0.00, 0.00
206, 1243.72, 66374.76, 3683.97, 28203.07, -19123.06, -3875.37, 9082.45, -54221.89, -7917.21, 37716.98, 6486.52, -12677.06, 0.00, 0.00, 0.00, 0.00, 0.00, 0.00, 0.00
207, 1257.98, 66399.30, 3704.71, 28229.63, -19102.56, -3854.09, 9111.67, -54197.61, -7917.21, 37716.98, 6486.52, -12677.06, 0.00, 0.00, 0.00, 0.00, 0.00, 0.00, 0.00
208, 1257.98, 66399.30, 3704.71, 28229.63, -19102.56, -3854.09, 9111.67, -54197.61, -7923.45, 37703.23, 6478.23, -12668.75, 0.00, 0.00, 0.00, 0.00, 0.00, 0.00, 0.00
209, 1246.31, 66381.21, 3686.16, 28206.22, -19118.50, -3874.05, 9083.93, -54222.67, -7923.45, 37703.23, 6478.23, -12668.75, 0.00, 0.00, 0.00, 0.00, 0.00, 0.00, 0.00
210, 1246.31, 66381.21, 3686.16, 28206.22, -19118.50, -3874.05, 9083.93, -54222.67, -7918.71, 37710.66, 6484.84, -12661.97, 0.00, 0.00, 0.00, 0.00, 0.00, 0.00, 0.00
211, 1263.95, 66402.38, 3706.66, 28234.59, -19103.34, -3852.03, 9111.82, -54201.04, -7918.71, 37710.66, 6484.84, -12661.97, 0.00, 0.00, 0.00, 0.00, 0.12, 0.37, 0.94
212, 1263.95, 66402.38, 3706.66, 28234.59, -19103.34, -3852.03, 9111.82, -54201.04, -7921.84, 37709.94, 6481.92, -12668.52, 0.00, 0.00, 0.00, 0.00, 0.00, 0.00, 0.00
213, 1242.15, 66376.27, 3685.85, 28207.10, -19121.11, -3873.38, 9086.34, -54219.94, -7921.84, 37709.94, 6481.92, -12668.52, 0.00, 0.00, 0.00, 0.00, 0.00, 0.00, 0.00
214, 1242.15, 66376.27, 3685.85, 28207.10, -19121.11, -3873.38, 9086.34, -54219.94, -7915.76, 37706.97, 6481.78, -12660.99, 0.00, 0.00, 0.00, 0.00, 0.00, 0.00, 0.00
215, 1270.14, 66411.99, 3712.60, 28242.57, -19096.86, -3846.96, 9120.83, -54193.77, -7915.76, 37706.97, 6481.78, -12660.99, 0.00, 0.00, 0.00, 0.00, 0.00, 0.00, 0.00
216, 1270.14, 66411.99, 3712.60, 28242.57, -19096.86, -3846.96, 9120.83, -54193.77, -7916.97, 37720.02, 6494.05, -12680.10, 0.00, 0.00, 0.00, 0.00, 0.00, 0.00, 0.00
217, 1247.94, 66374.17, 3684.24, 28208.24, -19119.23, -3873.11, 9085.22, -54220.84, -7916.97, 37720.02, 6494.05, -12680.10, 0.00, 0.00, 0.00, 0.00, 0.00, 0.00, 0.00
218, 1247.94, 66374.17, 3684.24, 28208.24, -19119.23, -3873.11, 9085.22, -54220.84, -7923.51, 37695.79, 6467.12, -12661.46, 0.00, 0.00, 0.00, 0.00, 0.00, 0.00, 0.00
219, 1261.85, 66393.77, 3701.09, 28233.58, -19108.01, -3855.65, 9108.67, -54203.63, -7923.51, 37695.79, 6467.12, -12661.46, 0.00, 0.00, 0.00, 0.00, 0.00, 0.00, 0.00
220, 1261.85, 66393.77, 3701.09, 28233.58, -19108.01, -3855.65, 9108.67, -54203.63, -7924.65, 37714.66, 6484.80, -12673.26, 0.00, 0.00, 0.00, 0.00, 0.00, 0.00, 0.00
221, 1245.95, 66376.37, 3684.84, 28209.98, -19122.92, -3873.62, 9087.62, -54219.81, -7924.65, 37714.66, 6484.80, -12673.26, 0.00, 0.00, 0.00, 0.00, 0.12, 0.37, 0.94
222, 1245.95, 66376.37, 3684.84, 28209.98, -19122.92, -3873.62, 9087.62, -54219.81, -7923.16, 37693.94, 6463.50, -12653.72, 0.00, 0.00, 0.00, 0.00, 0.00, 0.00, 0.00
223, 1263.68, 66402.02, 3705.87, 28239.04, -19104.08, -3852.23, 9120.05, -54196.09, -7923.16, 37693.94, 6463.50, -12653.72, 0.00, 0.00, 0.00, 0.00, 0.00, 0.00, 0.00
224, 1263.68, 66402.02, 3705.87, 28239.04, -19104.08, -3852.23, 9120.05, -54196.09, -7917.90, 37726.39, 6492.33, -12680.64, 0.00, 0.00, 0.00, 0.00, 0.00, 0.00, 0.00
225, 1249.08, 66380.56, 3686.85, 28213.71, -19116.02, -3869.85, 9096.18, -54210.91, -7917.90, 37726.39, 6492.33, -12680.64, 0.00, 0.00, 0.00, 0.00, 0.00, 0.00, 0.00
226, 1249.08, 66380.56, 3686.85, 28213.71, -19116.02, -3869.85, 9096.18, -54210.91, -7918.87, 37695.97, 6457.20, -12665.95, 0.00, 0.00, 0.00, 0.00, 0.00, 0.00, 0.00
227, 1258.02, 66395.99, 3701.36, 28234.46, -19105.06, -3855.27, 9114.39, -54201.28, -7918.87, 37695.97, 6457.20, -12665.95, 0.00, 0.00, 0.00, 0.00, 0.00, 0.00, 0.00
228, 1258.02, 66395.99, 3701.36, 28234.46, -19105.06, -3855.27, 9114.39, -54201.28, -7921.95, 37720.73, 6492.65, -12683.56, 0.00, 0.00, 0.00, 0.00, 0.00, 0.00, 0.00
229, 1237.71, 66374.33, 3684.46, 28214.40, -19118.97, -3870.49, 9095.97, -54215.05, -7921.95, 37720.73, 6492.65, -12683.56, 0.00, 0.00, 0.00, 0.00, 0.00, 0.00, 0.00
230, 1237.71, 66374.33, 3684.46, 28214.40, -19118.97, -3870.49, 9095.97, -54215.05, -7924.86, 37687.12, 6456.84, -12643.96, 0.00, 0.00, 0.00, 0.00, 0.00, 0.00, 0.00
231, 1243.61, 66385.04, 3693.00, 28225.78, -19107.32, -3858.98, 9114.64, -54202.04, -7924.86, 37687.12, 6456.84, -12643.96, 0.00, 0.00, 0.00, 0.00, 0.11, 0.38, 0.94
232, 1243.61, 66385.04, 3693.00, 28225.78, -19107.32, -3858.98, 9114.64, -54202.04, -7910.13, 37734.26, 6497.27, -12683.32, 0.00, 0.00, 0.00, 0.00, 0.00, 0.00, 0.00
233, 1240.48, 66380.23, 3690.09, 28223.05, -19110.38, -3863.36, 9106.88, -54207.18, -7910.13, 37734.26, 6497.27, -12683.32, 0.00, 0.00, 0.00, 0.00, 0.00, 0.00, 0.00
234, 1240.48, 66380.23, 3690.09, 28223.05, -19110.38, -3863.36, 9106.88, -54207.18, -7914.62, 37692.41, 6456.32, -12657.21, 0.00, 0.00, 0.00, 0.00, 0.00, 0.00, 0.00
235, 1239.11, 66383.38, 3687.97, 28219.97, -19112.30, -3864.37, 9110.86, -54203.20, -7914.62, 37692.41, 6456.32, -12657.21, 0.00, 0.00, 0.00, 0.00, 0.00, 0.00, 0.00
236, 1239.11, 66383.38, 3687.97, 28219.97, -19112.30, -3864.37, 9110.86, -54203.20, -7911.31, 37733.81, 6496.65, -12680.81, 0.00, 0.00, 0.00, 0.00, 0.00, 0.00, 0.00
237, 1242.09, 66382.40, 3692.17, 28224.80, -19108.48, -3863.52, 9111.22, -54201.41, -7911.31, 37733.81, 6496.65, -12680.81, 0.00, 0.00, 0.00, 0.00, 0.00, 0.00, 0.00
238, 1242.09, 66382.40, 3692.17, 28224.80, -19108.48, -3863.52, 9111.22, -54201.41, -7917.39, 37688.62, 6463.79, -12636.31, 0.00, 0.00, 0.00, 0.00, 0.00, 0.00, 0.00
239, 1240.16, 66378.87, 3689.20, 28222.03, -19111.14, -3863.41, 9111.78, -54204.23, -7917.39, 37688.62, 6463.79, -12636.31, 0.00, 0.00, 0.00, 0.00, 0.00, 0.00, 0.00
240, 1240.16, 66378.87, 3689.20, 28222.03, -19111.14, -3863.41, 9111.78, -54204.23, -7898.32, 37741.50, 6507.89, -12681.53, 0.00, 0.00, 0.00, 0.00, 0.00, 0.00, 0.00
241, 1258.67, 66399.92, 3704.78, 28235.51, -19096.01, -3849.86, 9126.02, -54189.86, -7898.32, 37741.50, 6507.89, -12681.53, 0.00, 0.00, 0.00, 0.00, 0.11, 0.38, 0.94
242, 1258.67, 66399.92, 3704.78, 28235.51, -19096.01, -3849.86, 9126.02, -54189.86, -7906.80, 37703.37, 6475.30, -12632.74, 0.00, 0.00, 0.00, 0.00, 0.00, 0.00, 0.00
243, 1248.68, 66389.51, 3696.42, 28225.94, -19102.22, -3858.54, 9119.04, -54198.04, -7906.80, 37703.37, 6475.30, -12632.74, 0.00, 0.00, 0.00, 0.00, 0.00, 0.00, 0.00
244, 1248.68, 66389.51, 3696.42, 28225.94, -19102.22, -3858.54, 9119.04, -54198.04, -7900.27, 37746.60, 6508.56, -12650.28, 0.00, 0.00, 0.00, 0.00, 0.00, 0.00, 0.00
245, 1257.35, 66404.39, 3709.81, 28243.39, -19091.47, -3844.84, 9135.22, -54183.58, -7900.27, 37746.60, 6508.56, -12650.28, 0.00, 0.00, 0.00, 0.00, 0.00, 0.00, 0.00
246, 1257.35, 66404.39, 3709.81, 28243.39, -19091.47, -3844.84, 9135.22, -54183.58, -7907.31, 37708.00, 6480.82, -12641.36, 0.00, 0.00, 0.00, 0.00, 0.00, 0.00, 0.00
247, 1242.69, 66385.35, 3695.21, 28219.52, -19108.06, -3866.94, 9110.79, -54207.20, -7907.31, 37708.00, 6480.82, -12641.36, 0.00, 0.00, 0.00, 0.00, 0.00, 0.00, 0.00
248, 1242.69, 66385.35, 3695.21, 28219.52, -19108.06, -3866.94, 9110.79, -54207.20, -7910.48, 37727.75, 6500.11, -12687.36, 0.00, 0.00, 0.00, 0.00, 0.00, 0.00, 0.00
249, 1256.88, 66404.82, 3710.95, 28243.33, -19091.61, -3848.14, 9136.14, -54187.94, -7910.48, 37727.75, 6500.11, -12687.36, 0.00, 0.00, 0.00, 0.00, 0.00, 0.00, 0.00
250, 1256.88, 66404.82, 3710.95, 28243.33, -19091.61, -3848.14, 9136.14, -54187.94, -7908.94, 37706.65, 6483.32, -12644.38, 0.00, 0.00, 0.00, 0.00, 0.11, 0.37, 0.94
251, 1234.31, 66377.86, 3691.21, 28218.74, -19112.04, -3868.24, 9112.00, -54210.49, -7908.94, 37706.65, 6483.32, -12644.38, 0.00, 0.00, 0.00, 0.00, 0.00, 0.00, 0.00
252, 1234.31, 66377.86, 3691.21, 28218.74, -19112.04, -3868.24, 9112.00, -54210.49, -7906.93, 37721.81, 6495.13, -12659.36, 0.00, 0.00, 0.00, 0.00, 0.00, 0.00, 0.00
253, 1250.98, 66402.54, 3711.40, 28245.92, -19091.12, -3845.01, 9141.59, -54186.73, -7906.93, 37721.81, 6495.13, -12659.36, 0.00, 0.00, 0.00, 0.00, 0.00, 0.00, 0.00
254, 1250.98, 66402.54, 3711.40, 28245.92, -19091.12, -3845.01, 9141.59, -54186.73, -7906.21, 37715.91, 6485.76, -12646.75, 0.00, 0.00, 0.00, 0.00, 0.00, 0.00, 0.00
255, 1229.26, 66374.45, 3689.09, 28216.13, -19110.18, -3869.74, 9114.39, -54208.30, -7906.21, 37715.91, 6485.76, -12646.75, 0.00, 0.00, 0.00, 0.00, 0.00, 0.00, 0.00
0, 1229.26, 66374.45, 3689.09, 28216.13, -19110.18, -3869.74, 9114.39, -54208.30, -7908.11, 37717.29, 6492.53, -12664.92, 0.00, 0.00, 0.00, 0.00, 0.00, 0.00, 0.00
1, 1247.90, 66400.34, 3707.55, 28240.82, -19092.93, -3849.75, 9141.19, -54189.66, -7908.11, 37717.29, 6492.53, -12664.92, 0.00, 0.00, 0.00, 0.00, 0.00, 0.00, 0.00
2, 1247.90, 66400.34, 3707.55, 28240.82, -19092.93, -3849.75, 9141.19, -54189.66, -7906.77, 37718.72, 6491.77, -12645.90, 0.00, 0.00, 0.00, 0.00, 0.00, 0.00, 0.00
3, 1223.53, 66372.25, 3684.15, 28213.02, -19114.14, -3871.05, 9114.93, -54207.38, -7906.77, 37718.72, 6491.77, -12645.90, 0.00, 0.00, 0.00, 0.00, 0.00, 0.00, 0.00
4, 1223.53, 66372.25, 3684.15, 28213.02, -19114.14, -3871.05, 9114.93, -54207.38, -7901.16, 37723.42, 6490.66, -12662.02, 0.00, 0.00, 0.00, 0.00, 0.11, 0.38, 0.94
5, 1251.03, 66408.20, 3712.36, 28244.11, -19089.84, -3845.17, 9150.47, -54181.45, -7901.16, 37723.42, 6490.66, -12662.02, 0.00, 0.00, 0.00, 0.00, 0.00, 0.00, 0.00
6, 1251.03, 66408.20, 3712.36, 28244.11, -19089.84, -3845.17, 9150.47, -54181.45, -7902.32, 37724.11, 6499.24, -12657.86, 0.00, 0.00, 0.00, 0.00, 0.00, 0.00, 0.00
7, 1232.86, 66382.17, 3688.91, 28216.51, -19107.68, -3867.68, 9120.61, -54206.22, -7902.32, 37724.11, 6499.24, -12657.86, 0.00, 0.00, 0.00, 0.00, 0.00, 0.00, 0.00
8, 1232.86, 66382.17, 3688.91, 28216.51, -19107.68, -3867.68, 9120.61, -54206.22, -7900.49, 37714.19, 6487.37, -12644.38, 0.00, 0.00, 0.00, 0.00, 0.00, 0.00, 0.00
9, 1254.42, 66407.34, 3711.82, 28244.42, -19091.50, -3846.13, 9151.07, -54181.68, -7900.49, 37714.19, 6487.37, -12644.38, 0.00, 0.00, 0.00, 0.00, 0.00, 0.00, 0.00
10, 1254.42, 66407.34, 3711.82, 28244.42, -19091.50, -3846.13, 9151.07, -54181.68, -7906.28, 37729.70, 6504.11, -12661.79, 0.00, 0.00, 0.00, 0.00, 0.00, 0.00, 0.00
11, 1231.85, 66375.13, 3689.04, 28215.52, -19109.27, -3867.81, 9121.25, -54207.65, -7906.28, 37729.70, 6504.11, -12661.79, 0.00, 0.00, 0.00, 0.00, 0.00, 0.00, 0.00
12, 1231.85, 66375.13, 3689.04, 28215.52, -19109.27, -3867.81, 9121.25, -54207.65, -7910.28, 37708.15, 6479.17, -12662.13, 0.00, 0.00, 0.00, 0.00, 0.00, 0.00, 0.00
13, 1245.24, 66396.88, 3706.21, 28239.37, -19100.95, -3851.34, 9149.08, -54188.67, -7910.28, 37708.15, 6479.17, -12662.13, 0.00, 0.00, 0.00, 0.00, 0.00, 0.00, 0.00
14, 1245.24, 66396.88, 3706.21, 28239.37, -19100.95, -3851.34, 9149.08, -54188.67, -7912.50, 37729.00, 6498.12, -12677.51, 0.00, 0.00, 0.00, 0.00, 0.12, 0.37, 0.94
15, 1236.61, 66374.20, 3688.57, 28217.11, -19109.51, -3868.10, 9127.92, -54207.20, -7912.50, 37729.00, 6498.12, -12677.51, 0.00, 0.00, 0.00, 0.00, 0.00, 0.00, 0.00
16, 1236.61, 66374.20, 3688.57, 28217.11, -19109.51, -3868.10, 9127.92, -54207.20, -7910.66, 37698.12, 6465.26, -12643.91, 0.00, 0.00, 0.00, 0.00, 0.00, 0.00, 0.00
17, 1243.87, 66395.43, 3703.39, 28236.22, -19103.07, -3851.32, 9152.03, -54188.27, -7910.66, 37698.12, 6465.26, -12643.91, 0.00, 0.00, 0.00, 0.00, 0.00, 0.00, 0.00
18, 1243.87, 66395.43, 3703.39, 28236.22, -19103.07, -3851.32, 9152.03, -54188.27, -7906.24, 37735.98, 6501.81, -12657.50, 0.00, 0.00, 0.00, 0.00, 0.00, 0.00, 0.00
19, 1227.13, 66377.84, 3691.17, 28222.07, -19106.94, -3864.39, 9138.02, -54200.83, -7906.24, 37735.98, 6501.81, -12657.50, 0.00, 0.00, 0.00, 0.00, 0.00, 0.00, 0.00
20, 1227.13, 66377.84, 3691.17, 28222.07, -19106.94, -3864.39, 9138.02, -54200.83, -7913.86, 37697.18, 6464.73, -12641.68, 0.00, 0.00, 0.00, 0.00, 0.00, 0.00, 0.00
21, 1229.37, 66384.14, 3694.23, 28228.26, -19104.08, -3858.83, 9151.23, -54194.29, -7913.86, 37697.18, 6464.73, -12641.68, 0.00, 0.00, 0.00, 0.00, 0.00, 0.00, 0.00
22, 1229.37, 66384.14, 3694.23, 28228.26, -19104.08, -3858.83, 9151.23, -54194.29, -7907.91, 37737.25, 6498.12, -12680.41, 0.00, 0.00, 0.00, 0.00, 0.00, 0.00, 0.00
23, 1223.02, 66369.91, 3682.32, 28217.22, -19111.30, -3865.24, 9141.42, -54202.80, -7907.91, 37737.25, 6498.12, -12680.41, 0.00, 0.00, 0.00, 0.00, 0.00, 0.00, 0.00
24, 1223.02, 66369.91, 3682.32, 28217.22, -19111.30, -3865.24, 9141.42, -54202.80, -7916.45, 37693.46, 6454.85, -12643.29, 0.00, 0.00, 0.00, 0.00, 0.12, 0.37, 0.94
25, 1225.77, 66378.69, 3688.15, 28225.85, -19113.76, -3861.62, 9149.26, -54201.08, -7916.45, 37693.46, 6454.85, -12643.29, 0.00, 0.00, 0.00, 0.00, 0.00, 0.00, 0.00
26, 1225.77, 66378.69, 3688.15, 28225.85, -19113.76, -3861.62, 9149.26, -54201.08, -7908.20, 37735.51, 6500.69, -12671.92, 0.00, 0.00, 0.00, 0.00, 0.00, 0.00, 0.00
27, 1226.95, 66381.33, 3691.52, 28223.21, -19107.10, -3861.35, 9152.53, -54198.17, -7908.20, 37735.51, 6500.69, -12671.92, 0.00, 0.00, 0.00, 0.00, 0.00, 0.00, 0.00
28, 1226.95, 66381.33, 3691.52, 28223.21, -19107.10, -3861.35, 9152.53, -54198.17, -7913.19, 37693.27, 6455.81, -12629.92, 0.00, 0.00, 0.00, 0.00, 0.00, 0.00, 0.00
29, 1229.10, 66379.43, 3687.48, 28222.76, -19113.56, -3865.22, 9155.52, -54199.00, -7913.19, 37693.27, 6455.81, -12629.92, 0.00, 0.00, 0.00, 0.00, 0.00, 0.00, 0.00
30, 1229.10, 66379.43, 3687.48, 28222.76, -19113.56, -3865.22, 9155.52, -54199.00, -7907.31, 37734.50, 6497.32, -12681.19, 0.00, 0.00, 0.00, 0.00, 0.00, 0.00, 0.00
31, 1237.19, 66384.81, 3693.09, 28229.38, -19107.37, -3857.71, 9165.27, -54192.96, -7907.31, 37734.50, 6497.32, -12681.19, 0.00, 0.00, 0.00, 0.00, 0.00, 0.00, 0.00
32, 1237.19, 66384.81, 3693.09, 28229.38, -19107.37, -3857.71, 9165.27, -54192.96, -7912.88, 37698.29, 6464.08, -12661.06, 0.00, 0.00, 0.00, 0.00, 0.00, 0.00, 0.00
33, 1229.12, 66375.41, 3689.00, 28225.09, -19110.90, -3860.59, 9161.44, -54198.82, -7912.88, 37698.29, 6464.08, -12661.06, 0.00, 0.00, 0.00, 0.00, 0.12, 0.37, 0.94
34, 1229.12, 66375.41, 3689.00, 28225.09, -19110.90, -3860.59, 9161.44, -54198.82, -7911.09, 37734.41, 6494.54, -12662.91, 0.00, 0.00, 0.00, 0.00, 0.00, 0.00, 0.00
35, 1236.61, 66384.26, 3695.91, 28236.29, -19104.37, -3853.75, 9174.43, -54193.16, -7911.09, 37734.41, 6494.54, -12662.91, 0.00, 0.00, 0.00, 0.00, 0.00, 0.00, 0.00
36, 1236.61, 66384.26, 3695.91, 28236.29, -19104.37, -3853.75, 9174.43, -54193.16, -7914.62, 37698.14, 6463.99, -12629.74, 0.00, 0.00, 0.00, 0.00, 0.00, 0.00, 0.00
37, 1223.42, 66375.23, 3687.26, 28221.65, -19114.27, -3864.01, 9165.73, -54200.96, -7914.62, 37698.14, 6463.99, -12629.74, 0.00, 0.00, 0.00, 0.00, 0.00, 0.00, 0.00
38, 1223.42, 66375.23, 3687.26, 28221.65, -19114.27, -3864.01, 9165.73, -54200.96, -7901.34, 37735.58, 6496.82, -12665.73, 0.00, 0.00, 0.00, 0.00, 0.00, 0.00, 0.00
39, 1250.80, 66398.34, 3708.82, 28249.30, -19094.07, -3844.14, 9194.43, -54182.01, -7901.34, 37735.58, 6496.82, -12665.73, 0.00, 0.00, 0.00, 0.00, 0.00, 0.00, 0.00
40, 1250.80, 66398.34, 3708.82, 28249.30, -19094.07, -3844.14, 9194.43, -54182.01, -7906.04, 37705.40, 6473.85, -12655.33, 0.00, 0.00, 0.00, 0.00, 0.00, 0.00, 0.00
41, 1229.41, 66377.44, 3690.52, 28226.27, -19109.91, -3862.18, 9175.75, -54199.47, -7906.04, 37705.40, 6473.85, -12655.33, 0.00, 0.00, 0.00, 0.00, 0.00, 0.00, 0.00
42, 1229.41, 66377.44, 3690.52, 28226.27, -19109.91, -3862.18, 9175.75, -54199.47, -7903.17, 37729.54, 6492.44, -12659.22, 0.00, 0.00, 0.00, 0.00, 0.00, 0.00, 0.00
43, 1240.28, 66388.91, 3705.36, 28248.02, -19093.64, -3844.16, 9203.42, -54182.62, -7903.17, 37729.54, 6492.44, -12659.22, 0.00, 0.00, 0.00, 0.00, 0.12, 0.37, 0.94
44, 1240.28, 66388.91, 3705.36, 28248.02, -19093.64, -3844.16, 9203.42, -54182.62, -7909.59, 37706.83, 6474.85, -12636.27, 0.00, 0.00, 0.00, 0.00, 0.00, 0.00, 0.00
45, 1218.19, 66364.70, 3684.75, 28223.14, -19112.91, -3867.01, 9178.92, -54205.59, -7909.59, 37706.83, 6474.85, -12636.27, 0.00, 0.00, 0.00, 0.00, 0.00, 0.00, 0.00
46, 1218.19, 66364.70, 3684.75, 28223.14, -19112.91, -3867.01, 9178.92, -54205.59, -7903.15, 37728.27, 6482.74, -12658.15, 0.00, 0.00, 0.00, 0.00, 0.00, 0.00, 0.00
47, 1236.34, 66390.06, 3705.07, 28252.58, -19093.22, -3843.76, 9213.17, -54179.13, -7903.15, 37728.27, 6482.74, -12658.15, 0.00, 0.00, 0.00, 0.00, 0.00, 0.00, 0.00
48, 1236.34, 66390.06, 3705.07, 28252.58, -19093.22, -3843.76, 9213.17, -54179.13, -7901.83, 37719.19, 6484.04, -12647.22, 0.00, 0.00, 0.00, 0.00, 0.00, 0.00, 0.00
49, 1217.52, 66365.57, 3685.02, 28223.37, -19111.97, -3863.68, 9192.83, -54203.05, -7901.83, 37719.19, 6484.04, -12647.22, 0.00, 0.00, 0.00, 0.00, 0.00, 0.00, 0.00
50, 1217.52, 66365.57, 3685.02, 28223.37, -19111.97, -3863.68, 9192.83, -54203.05, -7903.31, 37716.27, 6479.52, -12655.76, 0.00, 0.00, 0.00, 0.00, 0.00, 0.00, 0.00
51, 1242.58, 66398.94, 3709.88, 28253.61, -19092.70, -3842.18, 9227.36, -54177.83, -7903.31, 37716.27, 6479.52, -12655.76, 0.00, 0.00, 0.00, 0.00, 0.00, 0.00, 0.00
52, 1242.58, 66398.94, 3709.88, 28253.61, -19092.70, -3842.18, 9227.36, -54177.83, -7899.93, 37725.56, 6492.33, -12646.77, 0.00, 0.00, 0.00, 0.00, 0.00, 0.00, 0.00
53, 1218.86, 66373.13, 3690.63, 28224.33, -19106.72, -3862.74, 9203.82, -54199.69, -7899.93, 37725.56, 6492.33, -12646.77, 0.00, 0.00, 0.00, 0.00, 0.11, 0.37, 0.94
54, 1218.86, 66373.13, 3690.63, 28224.33, -19106.72, -3862.74, 9203.82, -54199.69, -7900.42, 37717.92, 6485.67, -12641.90, 0.00, 0.00, 0.00, 0.00, 0.00, 0.00, 0.00
55, 1236.50, 66392.95, 3705.07, 28252.65, -19091.96, -3842.15, 9235.79, -54176.34, -7900.42, 37717.92, 6485.67, -12641.90, 0.00, 0.00, 0.00, 0.00, 0.00, 0.00, 0.00
56, 1236.50, 66392.95, 3705.07, 28252.65, -19091.96, -3842.15, 9235.79, -54176.34, -7901.81, 37726.82, 6488.69, -12669.44, 0.00, 0.00, 0.00, 0.00, 0.00, 0.00, 0.00
57, 1210.62, 66355.27, 3674.67, 28215.01, -19115.70, -3868.48, 9204.90, -54205.21, -7901.81, 37726.82, 6488.69, -12669.44, 0.00, 0.00, 0.00, 0.00, 0.00, 0.00, 0.00
58, 1210.62, 66355.27, 3674.67, 28215.01, -19115.70, -3868.48, 9204.90, -54205.21, -7900.51, 37709.54, 6473.78, -12637.97, 0.00, 0.00, 0.00, 0.00, 0.00, 0.00, 0.00
59, 1224.34, 66383.20, 3695.82, 28242.88, -19098.92, -3848.01, 9237.71, -54182.82, -7900.51, 37709.54, 6473.78, -12637.97, 0.00, 0.00, 0.00, 0.00, 0.00, 0.00, 0.00
60, 1224.34, 66383.20, 3695.82, 28242.88, -19098.92, -3848.01, 9237.71, -54182.82, -7900.36, 37731.73, 6498.41, -12655.31, 0.00, 0.00, 0.00, 0.00, 0.00, 0.00, 0.00
61, 1216.56, 66367.49, 3684.33, 28218.56, -19109.82, -3866.83, 9217.88, -54200.21, -7900.36, 37731.73, 6498.41, -12655.31, 0.00, 0.00, 0.00, 0.00, 0.00, 0.00, 0.00
62, 1216.56, 66367.49, 3684.33, 28218.56, -19109.82, -3866.83, 9217.88, -54200.21, -7898.88, 37714.10, 6478.81, -12637.34, 0.00, 0.00, 0.00, 0.00, 0.00, 0.00, 0.00
63, 1229.77, 66397.27, 3704.22, 28246.66, -19096.86, -3845.48, 9250.85, -54177.45, -7898.88, 37714.10, 6478.81, -12637.34, 0.00, 0.00, 0.00, 0.00, 0.12, 0.37, 0.94
64, 1229.77, 66397.27, 3704.22, 28246.66, -19096.86, -3845.48, 9250.85, -54177.45, -7902.30, 37736.05, 6501.34, -12678.04, 0.00, 0.00, 0.00, 0.00, 0.00, 0.00, 0.00
65, 1216.09, 66374.20, 3684.95, 28220.48, -19111.97, -3865.85, 9228.34, -54202.40, -7902.30, 37736.05, 6501.34, -12678.04, 0.00, 0.00, 0.00, 0.00, 0.00, 0.00, 0.00
66, 1216.09, 66374.20, 3684.95, 28220.48, -19111.97, -3865.85, 9228.34, -54202.40, -7906.24, 37697.42, 6473.22, -12628.15, 0.00, 0.00, 0.00, 0.00, 0.00, 0.00, 0.00
67, 1227.11, 66383.52, 3696.31, 28238.12, -19102.94, -3853.89, 9251.97, -54189.81, -7906.24, 37697.42, 6473.22, -12628.15, 0.00, 0.00, 0.00, 0.00, 0.00, 0.00, 0.00
68, 1227.11, 66383.52, 3696.31, 28238.12, -19102.94, -3853.89, 9251.97, -54189.81, -7904.52, 37732.52, 6502.57, -12662.89, 0.00, 0.00, 0.00, 0.00, 0.00, 0.00, 0.00
69, 1219.24, 66371.40, 3689.09, 28225.11, -19108.04, -3862.69, 9245.53, -54196.05, -7904.52, 37732.52, 6502.57, -12662.89, 0.00, 0.00, 0.00, 0.00, 0.00, 0.00, 0.00
70, 1219.24, 66371.40, 3689.09, 28225.11, -19108.04, -3862.69, 9245.53, -54196.05, -7904.22, 37700.82, 6461.29, -12638.57, 0.00, 0.00, 0.00, 0.00, 0.00, 0.00, 0.00
71, 1221.63, 66385.39, 3695.17, 28235.30, -19107.77, -3853.89, 9259.68, -54191.67, -7904.22, 37700.82, 6461.29, -12638.57, 0.00, 0.00, 0.00, 0.00, 0.00, 0.00, 0.00
72, 1221.63, 66385.39, 3695.17, 28235.30, -19107.77, -3853.89, 9259.68, -54191.67, -7902.53, 37733.88, 6497.85, -12692.01, 0.00, 0.00, 0.00, 0.00, 0.00, 0.00, 0.00
73, 1224.52, 66383.34, 3695.68, 28230.90, -19105.58, -3858.38, 9259.21, -54195.29, -7902.53, 37733.88, 6497.85, -12692.01, 0.00, 0.00, 0.00, 0.00, 0.12, 0.37, 0.94
74, 1224.52, 66383.34, 3695.68, 28230.90, -19105.58, -3858.38, 9259.21, -54195.29, -7907.31, 37694.94, 6466.27, -12622.66, 0.00, 0.00, 0.00, 0.00, 0.00, 0.00, 0.00
75, 1234.15, 66389.69, 3702.07, 28238.39, -19098.76, -3852.93, 9270.21, -54190.64, -7907.31, 37694.94, 6466.27, -12622.66, 0.00, 0.00, 0.00, 0.00, 0.00, 0.00, 0.00
76, 1234.15, 66389.69, 3702.07, 28238.39, -19098.76, -3852.93, 9270.21, -54190.64, -7893.52, 37747.51, 6515.33, -12656.72, 0.00, 0.00, 0.00, 0.00, 0.00, 0.00, 0.00
77, 1236.70, 66398.58, 3709.76, 28242.61, -19091.99, -3848.23, 9280.24, -54181.52, -7893.52, 37747.51, 6515.33, -12656.72, 0.00, 0.00, 0.00, 0.00, 0.00, 0.00, 0.00
78, 1236.70, 66398.58, 3709.76, 28242.61, -19091.99, -3848.23, 9280.24, -54181.52, -7900.87, 37701.96, 6472.04, -12648.56, 0.00, 0.00, 0.00, 0.00, 0.00, 0.00, 0.00
79, 1227.18, 66393.48, 3702.97, 28233.92, -19101.53, -3855.12, 9280.35, -54189.16, -7900.87, 37701.96, 6472.04, -12648.56, 0.00, 0.00, 0.00, 0.00, 0.00, 0.00, 0.00
80, 1227.18, 66393.48, 3702.97, 28233.92, -19101.53, -3855.12, 9280.35, -54189.16, -7895.24, 37743.33, 6510.91, -12649.23, 0.00, 0.00, 0.00, 0.00, 0.00, 0.00, 0.00
81, 1234.11, 66396.03, 3706.46, 28243.93, -19094.16, -3846.11, 9294.12, -54178.57, -7895.24, 37743.33, 6510.91, -12649.23, 0.00, 0.00, 0.00, 0.00, 0.00, 0.00, 0.00
82, 1234.11, 66396.03, 3706.46, 28243.93, -19094.16, -3846.11, 9294.12, -54178.57, -7897.52, 37706.50, 6473.78, -12626.03, 0.00, 0.00, 0.00, 0.00, 0.12, 0.37, 0.94
83, 1222.04, 66379.00, 3692.73, 28232.29, -19105.76, -3856.91, 9286.37, -54190.68, -7897.52, 37706.50, 6473.78, -12626.03, 0.00, 0.00, 0.00, 0.00, 0.00, 0.00, 0.00
84, 1222.04, 66379.00, 3692.73, 28232.29, -19105.76, -3856.91, 9286.37, -54190.68, -7900.29, 37734.15, 6496.11, -12675.58, 0.00, 0.00, 0.00, 0.00, 0.00, 0.00, 0.00
85, 1225.52, 66391.72, 3701.23, 28244.09, -19097.15, -3847.70, 9301.12, -54184.09, -7900.29, 37734.15, 6496.11, -12675.58, 0.00, 0.00, 0.00, 0.00, 0.00, 0.00, 0.00
86, 1225.52, 66391.72, 3701.23, 28244.09, -19097.15, -3847.70, 9301.12, -54184.09, -7900.85, 37706.52, 6475.70, -12652.76, 0.00, 0.00, 0.00, 0.00, 0.00, 0.00, 0.00
87, 1223.62, 66379.63, 3691.64, 28231.50, -19108.91, -3857.69, 9293.07, -54194.80, -7900.85, 37706.52, 6475.70, -12652.76, 0.00, 0.00, 0.00, 0.00, 0.00, 0.00, 0.00
88, 1223.62, 66379.63, 3691.64, 28231.50, -19108.91, -3857.69, 9293.07, -54194.80, -7902.55, 37734.93, 6497.90, -12642.95, 0.00, 0.00, 0.00, 0.00, 0.00, 0.00, 0.00
89, 1238.11, 66399.03, 3708.96, 28252.16, -19093.24, -3841.35, 9319.89, -54175.48, -7902.55, 37734.93, 6497.90, -12642.95, 0.00, 0.00, 0.00, 0.00, 0.00, 0.00, 0.00
90, 1238.11, 66399.03, 3708.96, 28252.16, -19093.24, -3841.35, 9319.89, -54175.48, -7908.99, 37701.27, 6477.00, -12646.50, 0.00, 0.00, 0.00, 0.00, 0.00, 0.00, 0.00
91, 1216.02, 66372.14, 3686.54, 28225.60, -19112.10, -3864.84, 9296.18, -54204.59, -7908.99, 37701.27, 6477.00, -12646.50, 0.00, 0.00, 0.00, 0.00, 0.00, 0.00, 0.00
92, 1216.02, 66372.14, 3686.54, 28225.60, -19112.10, -3864.84, 9296.18, -54204.59, -7903.46, 37724.13, 6489.69, -12664.95, 0.00, 0.00, 0.00, 0.00, 0.12, 0.37, 0.95
93, 1233.57, 66399.03, 3707.84, 28254.08, -19088.81, -3841.39, 9333.26, -54173.95, -7903.46, 37724.13, 6489.69, -12664.95, 0.00, 0.00, 0.00, 0.00, 0.00, 0.00, 0.00
94, 1233.57, 66399.03, 3707.84, 28254.08, -19088.81, -3841.39, 9333.26, -54173.95, -7906.84, 37710.21, 6477.07, -12633.43, 0.00, 0.00, 0.00, 0.00, 0.00, 0.00, 0.00
95, 1211.04, 66372.81, 3684.62, 28225.18, -19111.97, -3865.80, 9305.92, -54200.70, -7906.84, 37710.21, 6477.07, -12633.43, 0.00, 0.00, 0.00, 0.00, 0.00, 0.00, 0.00
96, 1211.04, 66372.81, 3684.62, 28225.18, -19111.97, -3865.80, 9305.92, -54200.70, -7897.47, 37725.27, 6491.44, -12658.28, 0.00, 0.00, 0.00, 0.00, 0.00, 0.00, 0.00
97, 1237.41, 66404.77, 3712.00, 28256.61, -19089.60, -3838.04, 9345.29, -54171.95, -7897.47, 37725.27, 6491.44, -12658.28, 0.00, 0.00, 0.00, 0.00, 0.00, 0.00, 0.00
98, 1237.41, 66404.77, 3712.00, 28256.61, -19089.60, -3838.04, 9345.29, -54171.95, -7897.90, 37716.69, 6487.95, -12657.37, 0.00, 0.00, 0.00, 0.00, 0.00, 0.00, 0.00
99, 1215.40, 66380.43, 3691.99, 28226.36, -19103.32, -3864.59, 9319.02, -54197.39, -7897.90, 37716.69, 6487.95, -12657.37, 0.00, 0.00, 0.00, 0.00, 0.00, 0.00, 0.00
100, 1215.40, 66380.43, 3691.99, 28226.36, -19103.32, -3864.59, 9319.02, -54197.39, -7892.04, 37724.18, 6488.40, -12640.54, 0.00, 0.00, 0.00, 0.00, 0.00, 0.00, 0.00
101, 1234.62, 66405.16, 3711.26, 28253.95, -19089.30, -3841.04, 9353.85, -54173.16, -7892.04, 37724.18, 6488.40, -12640.54, 0.00, 0.00, 0.00, 0.00, 0.00, 0.00, 0.00
102, 1234.62, 66405.16, 3711.26, 28253.95, -19089.30, -3841.04, 9353.85, -54173.16, -7899.87, 37718.50, 6489.78, -12658.06, 0.00, 0.00, 0.00, 0.00, 0.12, 0.37, 0.94
103, 1211.69, 66373.28, 3684.91, 28221.98, -19113.22, -3866.85, 9323.02, -54203.00, -7899.87, 37718.50, 6489.78, -12658.06, 0.00, 0.00, 0.00, 0.00, 0.00, 0.00, 0.00
104, 1211.69, 66373.28, 3684.91, 28221.98, -19113.22, -3866.85, 9323.02, -54203.00, -7902.10, 37705.07, 6475.97, -12655.71, 0.00, 0.00, 0.00, 0.00, 0.00, 0.00, 0.00
105, 1231.36, 66407.27, 3710.64, 28250.17, -19092.37, -3844.66, 9361.80, -54173.92, -7902.10, 37705.07, 6475.97, -12655.71, 0.00, 0.00, 0.00, 0.00, 0.00, 0.00, 0.00
106, 1231.36, 66407.27, 3710.64, 28250.17, -19092.37, -3844.66, 9361.80, -54173.92, -7894.55, 37724.18, 6491.89, -12647.18, 0.00, 0.00, 0.00, 0.00, 0.00, 0.00, 0.00
107, 1214.08, 66379.36, 3688.84, 28228.08, -19108.93, -3862.16, 9339.50, -54197.37, -7894.55, 37724.18, 6491.89, -12647.18, 0.00, 0.00, 0.00, 0.00, 0.00, 0.00, 0.00
108, 1214.08, 66379.36, 3688.84, 28228.08, -19108.93, -3862.16, 9339.50, -54197.37, -7898.79, 37707.79, 6471.99, -12640.98, 0.00, 0.00, 0.00, 0.00, 0.00, 0.00, 0.00
109, 1227.87, 66396.26, 3704.58, 28250.48, -19093.33, -3842.76, 9369.29, -54176.36, -7898.79, 37707.79, 6471.99, -12640.98, 0.00, 0.00, 0.00, 0.00, 0.00, 0.00, 0.00
110, 1227.87, 66396.26, 3704.58, 28250.48, -19093.33, -3842.76, 9369.29, -54176.36, -7900.92, 37729.70, 6487.86, -12668.72, 0.00, 0.00, 0.00, 0.00, 0.00, 0.00, 0.00
111, 1209.72, 66371.98, 3687.48, 28229.22, -19112.42, -3862.49, 9346.94, -54201.05, -7900.92, 37729.70, 6487.86, -12668.72, 0.00, 0.00, 0.00, 0.00, 0.00, 0.00, 0.00
112, 1209.72, 66371.98, 3687.48, 28229.22, -19112.42, -3862.49, 9346.94, -54201.05, -7904.72, 37696.66, 6457.46, -12624.15, 0.00, 0.00, 0.00, 0.00, 0.13, 0.38, 0.94
113, 1222.86, 66389.88, 3699.91, 28248.47, -19102.94, -3846.91, 9374.50, -54182.86, -7904.72, 37696.66, 6457.46, -12624.15, 0.00, 0.00, 0.00, 0.00, 0.00, 0.00, 0.00
114, 1222.86, 66389.88, 3699.91, 28248.47, -19102.94, -3846.91, 9374.50, -54182.86, -7900.49, 37730.23, 6489.99, -12674.15, 0.00, 0.00, 0.00, 0.00, 0.00, 0.00, 0.00
115, 1212.94, 66376.32, 3689.42, 28235.30, -19104.37, -3857.49, 9362.88, -54192.99, -7900.49, 37730.23, 6489.99, -12674.15, 0.00, 0.00, 0.00, 0.00, 0.00, 0.00, 0.00
116, 1212.94, 66376.32, 3689.42, 28235.30, -19104.37, -3857.49, 9362.88, -54192.99, -7899.49, 37695.34, 6456.01, -12639.22, 0.00, 0.00, 0.00, 0.00, 0.00, 0.00, 0.00
117, 1215.71, 66381.82, 3693.98, 28247.31, -19100.82, -3847.96, 9382.12, -54183.78, -7899.49, 37695.34, 6456.01, -12639.22, 0.00, 0.00, 0.00, 0.00, 0.00, 0.00, 0.00
118, 1215.71, 66381.82, 3693.98, 28247.31, -19100.82, -3847.96, 9382.12, -54183.78, -7899.87, 37728.78, 6488.44, -12664.88, 0.00, 0.00, 0.00, 0.00, 0.00, 0.00, 0.00
119, 1209.30, 66375.89, 3689.69, 28237.00, -19101.93, -3853.82, 9378.05, -54187.27, -7899.87, 37728.78, 6488.44, -12664.88, 0.00, 0.00, 0.00, 0.00, 0.00, 0.00, 0.00
120, 1209.30, 66375.89, 3689.69, 28237.00, -19101.93, -3853.82, 9378.05, -54187.27, -7896.98, 37701.80, 6458.20, -12619.79, 0.00, 0.00, 0.00, 0.00, 0.00, 0.00, 0.00
121, 1220.63, 66384.84, 3696.62, 28248.33, -19098.85, -3845.86, 9393.90, -54176.80, -7896.98, 37701.80, 6458.20, -12619.79, 0.00, 0.00, 0.00, 0.00, 0.12, 0.37, 0.94
122, 1220.63, 66384.84, 3696.62, 28248.33, -19098.85, -3845.86, 9393.90, -54176.80, -7893.83, 37741.75, 6494.30, -12678.22, 0.00, 0.00, 0.00, 0.00, 0.00, 0.00, 0.00
123, 1212.65, 66384.34, 3692.87, 28242.17, -19100.88, -3851.29, 9391.71, -54185.43, -7893.83, 37741.75, 6494.30, -12678.22, 0.00, 0.00, 0.00, 0.00, 0.00, 0.00, 0.00
124, 1212.65, 66384.34, 3692.87, 28242.17, -19100.88, -3851.29, 9391.71, -54185.43, -7900.89, 37693.33, 6460.68, -12628.96, 0.00, 0.00, 0.00, 0.00, 0.00, 0.00, 0.00
125, 1213.99, 66380.92, 3694.94, 28243.35, -19097.96, -3851.65, 9397.83, -54182.08, -7900.89, 37693.33, 6460.68, -12628.96, 0.00, 0.00, 0.00, 0.00, 0.00, 0.00, 0.00
126, 1213.99, 66380.92, 3694.94, 28243.35, -19097.96, -3851.65, 9397.83, -54182.08, -7894.93, 37737.84, 6495.89, -12647.24, 0.00, 0.00, 0.00, 0.00, 0.00, 0.00, 0.00
127, 1211.38, 66382.31, 3696.29, 28244.94, -19097.08, -3849.73, 9402.62, -54181.16, -7894.93, 37737.84, 6495.89, -12647.24, 0.00, 0.00, 0.00, 0.00, 0.00, 0.00, 0.00
128, 1211.38, 66382.31, 3696.29, 28244.94, -19097.08, -3849.73, 9402.62, -54181.16, -7905.59, 37692.93, 6457.22, -12651.27, 0.00, 0.00, 0.00, 0.00, 0.00, 0.00, 0.00
129, 1207.91, 66372.66, 3685.98, 28236.69, -19110.23, -3857.20, 9398.42, -54193.23, -7905.59, 37692.93, 6457.22, -12651.27, 0.00, 0.00, 0.00, 0.00, 0.00, 0.00, 0.00
130, 1207.91, 66372.66, 3685.98, 28236.69, -19110.23, -3857.20, 9398.42, -54193.23, -7904.58, 37725.21, 6484.35, -12667.11, 0.00, 0.00, 0.00, 0.00, 0.00, 0.00, 0.00
131, 1217.10, 66388.75, 3699.06, 28251.08, -19099.59, -3846.76, 9417.44, -54181.39, -7904.58, 37725.21, 6484.35, -12667.11, 0.00, 0.00, 0.00, 0.00, 0.12, 0.37, 0.93
132, 1217.10, 66388.75, 3699.06, 28251.08, -19099.59, -3846.76, 9417.44, -54181.39, -7899.13, 37694.32, 6463.27, -12632.65, 0.00, 0.00, 0.00, 0.00, 0.00, 0.00, 0.00
133, 1208.80, 66375.63, 3689.74, 28237.11, -19103.95, -3855.50, 9410.62, -54189.05, -7899.13, 37694.32, 6463.27, -12632.65, 0.00, 0.00, 0.00, 0.00, 0.00, 0.00, 0.00
134, 1208.80, 66375.63, 3689.74, 28237.11, -19103.95, -3855.50, 9410.62, -54189.05, -7887.42, 37737.68, 6499.26, -12650.30, 0.00, 0.00, 0.00, 0.00, 0.00, 0.00, 0.00
135, 1219.65, 66397.28, 3708.22, 28257.39, -19088.86, -3840.14, 9434.80, -54170.43, -7887.42, 37737.68, 6499.26, -12650.30, 0.00, 0.00, 0.00, 0.00, 0.00, 0.00, 0.00
136, 1219.65, 66397.28, 3708.22, 28257.39, -19088.86, -3840.14, 9434.80, -54170.43, -7901.74, 37702.36, 6467.43, -12645.97, 0.00, 0.00, 0.00, 0.00, 0.00, 0.00, 0.00
137, 1209.61, 66375.56, 3690.47, 28239.10, -19108.55, -3857.51, 9415.18, -54193.79, -7901.74, 37702.36, 6467.43, -12645.97, 0.00, 0.00, 0.00, 0.00, 0.00, 0.00, 0.00
138, 1209.61, 66375.56, 3690.47, 28239.10, -19108.55, -3857.51, 9415.18, -54193.79, -7896.76, 37725.61, 6495.01, -12677.53, 0.00, 0.00, 0.00, 0.00, 0.00, 0.00, 0.00
139, 1228.65, 66397.48, 3707.95, 28261.68, -19093.40, -3839.87, 9441.49, -54174.03, -7896.76, 37725.61, 6495.01, -12677.53, 0.00, 0.00, 0.00, 0.00, 0.00, 0.00, 0.00
140, 1228.65, 66397.48, 3707.95, 28261.68, -19093.40, -3839.87, 9441.49, -54174.03, -7900.25, 37703.32, 6467.63, -12622.86, 0.00, 0.00, 0.00, 0.00, 0.00, 0.00, 0.00
141, 1202.79, 66368.54, 3684.84, 28233.22, -19112.78, -3861.06, 9421.64, -54193.90, -7900.25, 37703.32, 6467.63, -12622.86, 0.00, 0.00, 0.00, 0.00, 0.11, 0.37, 0.94
142, 1202.79, 66368.54, 3684.84, 28233.22, -19112.78, -3861.06, 9421.64, -54193.90, -7894.12, 37721.32, 6481.27, -12651.04, 0.00, 0.00, 0.00, 0.00, 0.00, 0.00, 0.00
143, 1217.81, 66396.34, 3703.30, 28259.38, -19096.21, -3841.62, 9448.91, -54177.18, -7894.12, 37721.32, 6481.27, -12651.04, 0.00, 0.00, 0.00, 0.00, 0.00, 0.00, 0.00
144, 1217.81, 66396.34, 3703.30, 28259.38, -19096.21, -3841.62, 9448.91, -54177.18, -7901.77, 37705.78, 6471.43, -12661.88, 0.00, 0.00, 0.00, 0.00, 0.00, 0.00, 0.00
145, 1207.33, 66370.35, 3683.01, 28233.29, -19112.57, -3863.92, 9425.55, -54199.29, -7901.77, 37705.78, 6471.43, -12661.88, 0.00, 0.00, 0.00, 0.00, 0.00, 0.00, 0.00
146, 1207.33, 66370.35, 3683.01, 28233.29, -19112.57, -3863.92, 9425.55, -54199.29, -7896.51, 37716.87, 6468.66, -12634.17, 0.00, 0.00, 0.00, 0.00, 0.00, 0.00, 0.00
147, 1219.24, 66387.61, 3699.57, 28257.52, -19097.31, -3842.71, 9454.47, -54175.78, -7896.51, 37716.87, 6468.66, -12634.17, 0.00, 0.00, 0.00, 0.00, 0.00, 0.00, 0.00
148, 1219.24, 66387.61, 3699.57, 28257.52, -19097.31, -3842.71, 9454.47, -54175.78, -7898.52, 37713.02, 6475.17, -12655.49, 0.00, 0.00, 0.00, 0.00, 0.00, 0.00, 0.00
149, 1203.51, 66366.20, 3683.30, 28232.69, -19113.29, -3862.02, 9437.42, -54193.99, -7898.52, 37713.02, 6475.17, -12655.49, 0.00, 0.00, 0.00, 0.00, 0.00, 0.00, 0.00
150, 1203.51, 66366.20, 3683.30, 28232.69, -19113.29, -3862.02, 9437.42, -54193.99, -7894.14, 37710.88, 6470.79, -12648.23, 0.00, 0.00, 0.00, 0.00, 0.00, 0.00, 0.00
151, 1224.29, 66401.04, 3711.22, 28267.83, -19088.34, -3832.68, 9477.36, -54162.68, -7894.14, 37710.88, 6470.79, -12648.23, 0.00, 0.00, 0.00, 0.00, 0.12, 0.38, 0.94
152, 1224.29, 66401.04, 3711.22, 28267.83, -19088.34, -3832.68, 9477.36, -54162.68, -7894.57, 37727.02, 6482.68, -12648.25, 0.00, 0.00, 0.00, 0.00, 0.00, 0.00, 0.00
153, 1201.54, 66370.42, 3683.05, 28231.91, -19111.43, -3858.72, 9445.60, -54190.44, -7894.57, 37727.02, 6482.68, -12648.25, 0.00, 0.00, 0.00, 0.00, 0.00, 0.00, 0.00
154, 1201.54, 66370.42, 3683.05, 28231.91, -19111.43, -3858.72, 9445.60, -54190.44, -7897.68, 37708.82, 6460.57, -12620.33, 0.00, 0.00, 0.00, 0.00, 0.00, 0.00, 0.00
155, 1221.86, 66395.27, 3702.97, 28259.40, -19098.96, -3842.51, 9472.13, -54175.48, -7897.68, 37708.82, 6460.57, -12620.33, 0.00, 0.00, 0.00, 0.00, 0.00, 0.00, 0.00
156, 1221.86, 66395.27, 3702.97, 28259.40, -19098.96, -3842.51, 9472.13, -54175.48, -7903.17, 37718.19, 6477.78, -12674.24, 0.00, 0.00, 0.00, 0.00, 0.00, 0.00, 0.00
157, 1204.02, 66368.98, 3682.14, 28232.53, -19114.63, -3863.57, 9446.20, -54200.74, -7903.17, 37718.19, 6477.78, -12674.24, 0.00, 0.00, 0.00, 0.00, 0.00, 0.00, 0.00
158, 1204.02, 66368.98, 3682.14, 28232.53, -19114.63, -3863.57, 9446.20, -54200.74, -7902.32, 37690.23, 6452.01, -12631.95, 0.00, 0.00, 0.00, 0.00, 0.00, 0.00, 0.00
159, 1221.68, 66398.05, 3705.61, 28258.84, -19096.70, -3842.18, 9477.70, -54174.43, -7902.32, 37690.23, 6452.01, -12631.95, 0.00, 0.00, 0.00, 0.00, 0.00, 0.00, 0.00
160, 1221.68, 66398.05, 3705.61, 28258.84, -19096.70, -3842.18, 9477.70, -54174.43, -7898.37, 37725.52, 6501.36, -12659.74, 0.00, 0.00, 0.00, 0.00, 0.12, 0.37, 0.94
161, 1224.20, 66387.67, 3705.70, 28258.04, -19098.63, -3849.44, 9471.10, -54185.95, -7898.37, 37725.52, 6501.36, -12659.74, 0.00, 0.00, 0.00, 0.00, 0.00, 0.00, 0.00
162, 1224.20, 66387.67, 3705.70, 28258.04, -19098.63, -3849.44, 9471.10, -54185.95, -7904.36, 37687.92, 6457.06, -12640.38, 0.00, 0.00, 0.00, 0.00, 0.00, 0.00, 0.00
163, 1215.69, 66389.98, 3696.67, 28251.35, -19107.25, -3851.23, 9477.63, -54182.77, -7904.36, 37687.92, 6457.06, -12640.38, 0.00, 0.00, 0.00, 0.00, 0.00, 0.00, 0.00
164, 1215.69, 66389.98, 3696.67, 28251.35, -19107.25, -3851.23, 9477.63, -54182.77, -7902.35, 37720.27, 6478.88, -12697.33, 0.00, 0.00, 0.00, 0.00, 0.00, 0.00, 0.00
165, 1206.95, 66372.07, 3680.39, 28223.19, -19120.08, -3865.56, 9460.89, -54197.05, -7902.35, 37720.27, 6478.88, -12697.33, 0.00, 0.00, 0.00, 0.00, 0.00, 0.00, 0.00
166, 1206.95, 66372.07, 3680.39, 28223.19, -19120.08, -3865.56, 9460.89, -54197.05, -7903.31, 37687.32, 6444.41, -12620.15, 0.00, 0.00, 0.00, 0.00, 0.00, 0.00, 0.00
167, 1210.73, 66386.47, 3692.44, 28239.04, -19109.82, -3854.87, 9482.21, -54180.34, -7903.31, 37687.32, 6444.41, -12620.15, 0.00, 0.00, 0.00, 0.00, 0.00, 0.00, 0.00
168, 1210.73, 66386.47, 3692.44, 28239.04, -19109.82, -3854.87, 9482.21, -54180.34, -7893.38, 37735.78, 6496.60, -12656.85, 0.00, 0.00, 0.00, 0.00, 0.00, 0.00, 0.00
169, 1216.99, 66384.03, 3695.21, 28239.08, -19105.91, -3855.14, 9478.21, -54186.41, -7893.38, 37735.78, 6496.60, -12656.85, 0.00, 0.00, 0.00, 0.00, 0.00, 0.00, 0.00
170, 1216.99, 66384.03, 3695.21, 28239.08, -19105.91, -3855.14, 9478.21, -54186.41, -7898.41, 37690.49, 6466.58, -12643.35, 0.00, 0.00, 0.00, 0.00, 0.12, 0.37, 0.94
171, 1223.45, 66396.15, 3702.90, 28246.90, -19102.56, -3849.95, 9492.45, -54180.18, -7898.41, 37690.49, 6466.58, -12643.35, 0.00, 0.00, 0.00, 0.00, 0.00, 0.00, 0.00
172, 1223.45, 66396.15, 3702.90, 28246.90, -19102.56, -3849.95, 9492.45, -54180.18, -7888.62, 37735.55, 6508.94, -12662.04, 0.00, 0.00, 0.00, 0.00, 0.00, 0.00, 0.00
173, 1229.70, 66398.29, 3710.01, 28250.73, -19096.39, -3847.52, 9497.08, -54179.57, -7888.62, 37735.55, 6508.94, -12662.04, 0.00, 0.00, 0.00, 0.00, 0.00, 0.00, 0.00
174, 1229.70, 66398.29, 3710.01, 28250.73, -19096.39, -3847.52, 9497.08, -54179.57, -7895.19, 37690.05, 6472.57, -12632.00, 0.00, 0.00, 0.00, 0.00, 0.00, 0.00, 0.00
175, 1223.47, 66399.50, 3704.78, 28248.87, -19099.12, -3850.27, 9500.68, -54182.62, -7895.19, 37690.05, 6472.57, -12632.00, 0.00, 0.00, 0.00, 0.00, 0.00, 0.00, 0.00
176, 1223.47, 66399.50, 3704.78, 28248.87, -19099.12, -3850.27, 9500.68, -54182.62, -7888.20, 37734.06, 6509.86, -12660.25, 0.00, 0.00, 0.00, 0.00, 0.00, 0.00, 0.00
177, 1226.17, 66399.72, 3707.39, 28253.12, -19094.07, -3845.42, 9504.63, -54171.53, -7888.20, 37734.06, 6509.86, -12660.25, 0.00, 0.00, 0.00, 0.00, 0.00, 0.00, 0.00
178, 1226.17, 66399.72, 3707.39, 28253.12, -19094.07, -3845.42, 9504.63, -54171.53, -7890.61, 37695.93, 6470.20, -12636.00, 0.00, 0.00, 0.00, 0.00, 0.00, 0.00, 0.00
179, 1215.35, 66388.14, 3696.55, 28242.70, -19107.16, -3856.10, 9493.19, -54187.11, -7890.61, 37695.93, 6470.20, -12636.00, 0.00, 0.00, 0.00, 0.00, 0.00, 0.00, 0.00
180, 1215.35, 66388.14, 3696.55, 28242.70, -19107.16, -3856.10, 9493.19, -54187.11, -7888.44, 37734.10, 6502.37, -12649.52, 0.00, 0.00, 0.00, 0.00, 0.12, 0.37, 0.94
181, 1229.50, 66403.41, 3709.20, 28256.74, -19094.80, -3841.73, 9513.57, -54170.30, -7888.44, 37734.10, 6502.37, -12649.52, 0.00, 0.00, 0.00, 0.00, 0.00, 0.00, 0.00
182, 1229.50, 66403.41, 3709.20, 28256.74, -19094.80, -3841.73, 9513.57, -54170.30, -7887.73, 37704.78, 6471.08, -12633.79, 0.00, 0.00, 0.00, 0.00, 0.00, 0.00, 0.00
183, 1216.87, 66383.25, 3690.38, 28238.63, -19109.11, -3858.07, 9495.00, -54194.80, -7887.73, 37704.78, 6471.08, -12633.79, 0.00, 0.00, 0.00, 0.00, 0.00, 0.00, 0.00
184, 1216.87, 66383.25, 3690.38, 28238.63, -19109.11, -3858.07, 9495.00, -54194.80, -7881.45, 37735.40, 6494.59, -12662.38, 0.00, 0.00, 0.00, 0.00, 0.00, 0.00, 0.00
185, 1224.96, 66398.36, 3704.35, 28256.13, -19094.63, -3841.30, 9517.46, -54174.88, -7881.45, 37735.40, 6494.59, -12662.38, 0.00, 0.00, 0.00, 0.00, 0.00, 0.00, 0.00
186, 1224.96, 66398.36, 3704.35, 28256.13, -19094.63, -3841.30, 9517.46, -54174.88, -7894.48, 37701.63, 6472.17, -12614.23, 0.00, 0.00, 0.00, 0.00, 0.00, 0.00, 0.00
187, 1208.16, 66376.45, 3686.92, 28235.01, -19112.02, -3859.81, 9500.43, -54195.60, -7894.48, 37701.63, 6472.17, -12614.23, 0.00, 0.00, 0.00, 0.00, 0.00, 0.00, 0.00
188, 1208.16, 66376.45, 3686.92, 28235.01, -19112.02, -3859.81, 9500.43, -54195.60, -7893.14, 37717.25, 6486.14, -12655.69, 0.00, 0.00, 0.00, 0.00, 0.00, 0.00, 0.00
189, 1216.94, 66397.76, 3703.08, 28257.28, -19098.51, -3843.65, 9522.45, -54177.41, -7893.14, 37717.25, 6486.14, -12655.69, 0.00, 0.00, 0.00, 0.00, 0.00, 0.00, 0.00
190, 1216.94, 66397.76, 3703.08, 28257.28, -19098.51, -3843.65, 9522.45, -54177.41, -7896.63, 37701.85, 6472.39, -12641.95, 0.00, 0.00, 0.00, 0.00, 0.12, 0.37, 0.94
191, 1204.20, 66374.69, 3682.52, 28229.56, -19116.89, -3865.38, 9499.02, -54190.02, -7896.63, 37701.85, 6472.39, -12641.95, 0.00, 0.00, 0.00, 0.00, 0.00, 0.00, 0.00
192, 1204.20, 66374.69, 3682.52, 28229.56, -19116.89, -3865.38, 9499.02, -54190.02, -7902.48, 37717.74, 6484.26, -12655.94, 0.00, 0.00, 0.00, 0.00, 0.00, 0.00, 0.00
193, 1227.47, 66403.84, 3709.09, 28261.95, -19092.75, -3838.04, 9536.86, -54157.02, -7902.48, 37717.74, 6484.26, -12655.94, 0.00, 0.00, 0.00, 0.00, 0.00, 0.00, 0.00
194, 1227.47, 66403.84, 3709.09, 28261.95, -19092.75, -3838.04, 9536.86, -54157.02, -7893.36, 37715.68, 6488.60, -12621.27, 0.00, 0.00, 0.00, 0.00, 0.00, 0.00, 0.00
195, 1208.92, 66380.07, 3690.54, 28236.67, -19106.90, -3858.34, 9512.19, -54174.73, -7893.36, 37715.68, 6488.60, -12621.27, 0.00, 0.00, 0.00, 0.00, 0.00, 0.00, 0.00
196, 1208.92, 66380.07, 3690.54, 28236.67, -19106.90, -3858.34, 9512.19, -54174.73, -7886.90, 37717.85, 6487.46, -12647.87, 0.00, 0.00, 0.00, 0.00, 0.00, 0.00, 0.00
197, 1228.25, 66409.11, 3714.88, 28265.84, -19081.44, -3835.51, 9538.27, -54166.43, -7886.90, 37717.85, 6487.46, -12647.87, 0.00, 0.00, 0.00, 0.00, 0.00, 0.00, 0.00
198, 1228.25, 66409.11, 3714.88, 28265.84, -19081.44, -3835.51, 9538.27, -54166.43, -7873.18, 37724.31, 6491.91, -12654.73, 0.00, 0.00, 0.00, 0.00, 0.00, 0.00, 0.00
199, 1212.81, 66383.31, 3690.70, 28233.34, -19106.23, -3862.18, 9499.78, -54198.46, -7873.18, 37724.31, 6491.91, -12654.73, 0.00, 0.00, 0.00, 0.00, 0.12, 0.38, 0.94
200, 1212.81, 66383.31, 3690.70, 28233.34, -19106.23, -3862.18, 9499.78, -54198.46, -7838.73, 37722.61, 6483.44, -12633.05, 0.00, 0.00, 0.00, 0.00, 0.00, 0.00, 0.00
201, 1232.70, 66412.62, 3716.54, 28266.55, -19080.16, -3836.52, 9535.08, -54182.91, -7838.73, 37722.61, 6483.44, -12633.05, 0.00, 0.00, 0.00, 0.00, 0.00, 0.00, 0.00
202, 1232.70, 66412.62, 3716.54, 28266.55, -19080.16, -3836.52, 9535.08, -54182.91, -7857.78, 37736.72, 6497.83, -12642.15, 0.00, 0.00, 0.00, 0.00, 0.00, 0.00, 0.00
203, 1206.06, 66376.92, 3686.27, 28230.28, -19104.44, -3866.83, 9496.45, -54193.34, -7857.78, 37736.72, 6497.83, -12642.15, 0.00, 0.00, 0.00, 0.00, 0.00, 0.00, 0.00
204, 1206.06, 66376.92, 3686.27, 28230.28, -19104.44, -3866.83, 9496.45, -54193.34, -7867.34, 37703.59, 6461.67, -12644.94, 0.00, 0.00, 0.00, 0.00, 0.00, 0.00, 0.00
205, 1224.50, 66399.79, 3703.17, 28261.70, -19098.67, -3835.34, 9551.93, -54165.41, -7867.34, 37703.59, 6461.67, -12644.94, 0.00, 0.00, 0.00, 0.00, 0.00, 0.00, 0.00
206, 1224.50, 66399.79, 3703.17, 28261.70, -19098.67, -3835.34, 9551.93, -54165.41, -7921.21, 37738.06, 6500.51, -12641.83, 0.00, 0.00, 0.00, 0.00, 0.00, 0.00, 0.00
207, 1215.00, 66389.28, 3696.89, 28244.07, -19094.67, -3849.64, 9545.60, -54108.92, -7921.21, 37738.06, 6500.51, -12641.83, 0.00, 0.00, 0.00, 0.00, 0.00, 0.00, 0.00
208, 1215.00, 66389.28, 3696.89, 28244.07, -19094.67, -3849.64, 9545.60, -54108.92, -7882.90, 37707.44, 6472.53, -12616.98, 0.00, 0.00, 0.00, 0.00, 0.00, 0.00, 0.00
209, 1224.43, 66412.40, 3713.00, 28266.80, -19082.87, -3833.26, 9555.01, -54159.44, -7882.90, 37707.44, 6472.53, -12616.98, 0.00, 0.00, 0.00, 0.00, 0.12, 0.37, 0.94
210, 1224.43, 66412.40, 3713.00, 28266.80, -19082.87, -3833.26, 9555.01, -54159.44, -7879.84, 37741.25, 6502.99, -12642.30, 0.00, 0.00, 0.00, 0.00, 0.00, 0.00, 0.00
211, 1218.21, 66392.88, 3698.65, 28247.31, -19089.80, -3847.00, 9537.40, -54212.14, -7879.84, 37741.25, 6502.99, -12642.30, 0.00, 0.00, 0.00, 0.00, 0.00, 0.00, 0.00
212, 1218.21, 66392.88, 3698.65, 28247.31, -19089.80, -3847.00, 9537.40, -54212.14, -7884.44, 37694.07, 6473.91, -12599.07, 0.00, 0.00, 0.00, 0.00, 0.00, 0.00, 0.00
213, 1230.11, 66411.95, 3714.75, 28264.05, -19072.81, -3837.75, 9548.13, -54256.85, -7884.44, 37694.07, 6473.91, -12599.07, 0.00, 0.00, 0.00, 0.00, 0.00, 0.00, 0.00
214, 1230.11, 66411.95, 3714.75, 28264.05, -19072.81, -3837.75, 9548.13, -54256.85, -7868.80, 37741.48, 6509.57, -12651.38, 0.00, 0.00, 0.00, 0.00, 0.00, 0.00, 0.00
215, 1223.20, 66400.57, 3705.29, 28252.80, -19088.37, -3843.65, 9541.69, -54302.22, -7868.80, 37741.48, 6509.57, -12651.38, 0.00, 0.00, 0.00, 0.00, 0.00, 0.00, 0.00
216, 1223.20, 66400.57, 3705.29, 28252.80, -19088.37, -3843.65, 9541.69, -54302.22, -7877.02, 37697.04, 6468.84, -12635.26, 0.00, 0.00, 0.00, 0.00, 0.00, 0.00, 0.00
217, 1223.49, 66408.02, 3709.29, 28261.05, -19083.47, -3839.27, 9547.68, -54375.15, -7877.02, 37697.04, 6468.84, -12635.26, 0.00, 0.00, 0.00, 0.00, 0.00, 0.00, 0.00
218, 1223.49, 66408.02, 3709.29, 28261.05, -19083.47, -3839.27, 9547.68, -54375.15, -7857.04, 37730.73, 6510.59, -12683.16, 0.00, 0.00, 0.00, 0.00, 0.00, 0.00, 0.00
219, 1229.14, 66407.09, 3711.78, 28257.43, -19071.74, -3843.25, 9536.04, -54448.04, -7857.04, 37730.73, 6510.59, -12683.16, 0.00, 0.00, 0.00, 0.00, 0.12, 0.37, 0.94
220, 1229.14, 66407.09, 3711.78, 28257.43, -19071.74, -3843.25, 9536.04, -54448.04, -7881.56, 37691.52, 6472.37, -12635.84, 0.00, 0.00, 0.00, 0.00, 0.00, 0.00, 0.00
221, 1224.90, 66400.13, 3706.52, 28262.10, -19088.57, -3835.22, 9575.91, -54442.86, -7881.56, 37691.52, 6472.37, -12635.84, 0.00, 0.00, 0.00, 0.00, 0.00, 0.00, 0.00
222, 1224.90, 66400.13, 3706.52, 28262.10, -19088.57, -3835.22, 9575.91, -54442.86, -7913.01, 37714.57, 6503.62, -12668.99, 0.00, 0.00, 0.00, 0.00, 0.00, 0.00, 0.00
223, 1223.31, 66405.66, 3709.34, 28260.88, -19077.04, -3836.10, 9560.71, -54533.20, -7913.01, 37714.57, 6503.62, -12668.99, 0.00, 0.00, 0.00, 0.00, 0.00, 0.00, 0.00
224, 1223.31, 66405.66, 3709.34, 28260.88, -19077.04, -3836.10, 9560.71, -54533.20, -7889.99, 37675.70, 6470.79, -12661.32, 0.00, 0.00, 0.00, 0.00, 0.00, 0.00, 0.00
225, 1220.65, 66398.60, 3704.06, 28255.64, -19077.59, -3844.48, 9543.05, -54601.02, -7889.99, 37675.70, 6470.79, -12661.32, 0.00, 0.00, 0.00, 0.00, 0.00, 0.00, 0.00
226, 1220.65, 66398.60, 3704.06, 28255.64, -19077.59, -3844.48, 9543.05, -54601.02, -7872.40, 37713.25, 6507.67, -12697.56, 0.00, 0.00, 0.00, 0.00, 0.00, 0.00, 0.00
227, 1222.91, 66401.98, 3707.57, 28262.71, -19077.79, -3837.08, 9549.49, -54610.96, -7872.40, 37713.25, 6507.67, -12697.56, 0.00, 0.00, 0.00, 0.00, 0.00, 0.00, 0.00
228, 1222.91, 66401.98, 3707.57, 28262.71, -19077.79, -3837.08, 9549.49, -54610.96, -7900.83, 37672.66, 6460.95, -12664.48, 0.00, 0.00, 0.00, 0.00, 0.00, 0.00, 0.00
229, 1213.97, 66387.00, 3694.05, 28250.41, -19090.58, -3848.43, 9536.37, -54663.09, -7900.83, 37672.66, 6460.95, -12664.48, 0.00, 0.00, 0.00, 0.00, 0.11, 0.37, 0.94
230, 1213.97, 66387.00, 3694.05, 28250.41, -19090.58, -3848.43, 9536.37, -54663.09, -7896.33, 37697.69, 6488.64, -12677.53, 0.00, 0.00, 0.00, 0.00, 0.00, 0.00, 0.00
231, 1229.57, 66403.27, 3709.25, 28270.02, -19082.71, -3833.37, 9549.31, -54684.84, -7896.33, 37697.69, 6488.64, -12677.53, 0.00, 0.00, 0.00, 0.00, 0.00, 0.00, 0.00
232, 1229.57, 66403.27, 3709.25, 28270.02, -19082.71, -3833.37, 9549.31, -54684.84, -7904.27, 37662.22, 6466.65, -12666.31, 0.00, 0.00, 0.00, 0.00, 0.00, 0.00, 0.00
233, 1217.97, 66391.81, 3698.54, 28250.01, -19091.59, -3850.36, 9518.76, -54741.07, -7904.27, 37662.22, 6466.65, -12666.31, 0.00, 0.00, 0.00, 0.00, 0.00, 0.00, 0.00
234, 1217.97, 66391.81, 3698.54, 28250.01, -19091.59, -3850.36, 9518.76, -54741.07, -7882.25, 37695.07, 6496.53, -12706.38, 0.00, 0.00, 0.00, 0.00, 0.00, 0.00, 0.00
235, 1232.79, 66414.97, 3716.92, 28270.44, -19075.36, -3833.84, 9534.34, -54757.73, -7882.25, 37695.07, 6496.53, -12706.38, 0.00, 0.00, 0.00, 0.00, 0.00, 0.00, 0.00
236, 1232.79, 66414.97, 3716.92, 28270.44, -19075.36, -3833.84, 9534.34, -54757.73, -7896.60, 37666.87, 6472.31, -12697.87, 0.00, 0.00, 0.00, 0.00, 0.00, 0.00, 0.00
237, 1217.21, 66392.48, 3697.20, 28248.67, -19094.78, -3852.26, 9508.68, -54803.30, -7896.60, 37666.87, 6472.31, -12697.87, 0.00, 0.00, 0.00, 0.00, 0.00, 0.00, 0.00
238, 1217.21, 66392.48, 3697.20, 28248.67, -19094.78, -3852.26, 9508.68, -54803.30, -7880.78, 37688.44, 6490.81, -12706.36, 0.00, 0.00, 0.00, 0.00, 0.11, 0.37, 0.94
239, 1235.18, 66424.17, 3724.31, 28273.19, -19061.41, -3833.64, 9523.61, -54812.09, -7880.78, 37688.44, 6490.81, -12706.36, 0.00, 0.00, 0.00, 0.00, 0.00, 0.00, 0.00
240, 1235.18, 66424.17, 3724.31, 28273.19, -19061.41, -3833.64, 9523.61, -54812.09, -7869.31, 37683.97, 6488.87, -12709.96, 0.00, 0.00, 0.00, 0.00, 0.00, 0.00, 0.00
241, 1211.78, 66392.46, 3696.53, 28242.84, -19101.60, -3856.84, 9488.94, -54837.41, -7869.31, 37683.97, 6488.87, -12709.96, 0.00, 0.00, 0.00, 0.00, 0.00, 0.00, 0.00
242, 1211.78, 66392.46, 3696.53, 28242.84, -19101.60, -3856.84, 9488.94, -54837.41, -7905.92, 37673.77, 6480.91, -12688.21, 0.00, 0.00, 0.00, 0.00, 0.00, 0.00, 0.00
243, 1228.41, 66416.44, 3716.13, 28271.92, -19082.18, -3832.65, 9516.84, -54831.00, -7905.92, 37673.77, 6480.91, -12688.21, 0.00, 0.00, 0.00, 0.00, 0.00, 0.00, 0.00
244, 1228.41, 66416.44, 3716.13, 28271.92, -19082.18, -3832.65, 9516.84, -54831.00, -7892.18, 37669.44, 6480.22, -12698.58, 0.00, 0.00, 0.00, 0.00, 0.00, 0.00, 0.00
245, 1203.28, 66388.99, 3692.64, 28241.56, -19097.26, -3857.13, 9478.68, -54856.21, -7892.18, 37669.44, 6480.22, -12698.58, 0.00, 0.00, 0.00, 0.00, 0.00, 0.00, 0.00
246, 1203.28, 66388.99, 3692.64, 28241.56, -19097.26, -3857.13, 9478.68, -54856.21, -7893.38, 37674.71, 6482.85, -12697.91, 0.00, 0.00, 0.00, 0.00, 0.00, 0.00, 0.00
247, 1233.24, 66423.05, 3722.50, 28278.80, -19067.67, -3829.19, 9505.06, -54828.00, -7893.38, 37674.71, 6482.85, -12697.91, 0.00, 0.00, 0.00, 0.00, 0.00, 0.00, 0.00
248, 1233.24, 66423.05, 3722.50, 28278.80, -19067.67, -3829.19, 9505.06, -54828.00, -7884.91, 37681.78, 6492.15, -12715.37, 0.00, 0.00, 0.00, 0.00, 0.11, 0.37, 0.93
249, 1214.59, 66394.78, 3697.94, 28246.41, -19091.12, -3853.62, 9462.77, -54860.21, -7884.91, 37681.78, 6492.15, -12715.37, 0.00, 0.00, 0.00, 0.00, 0.00, 0.00, 0.00
250, 1214.59, 66394.78, 3697.94, 28246.41, -19091.12, -3853.62, 9462.77, -54860.21, -7885.16, 37666.64, 6480.02, -12696.01, 0.00, 0.00, 0.00, 0.00, 0.00, 0.00, 0.00
251, 1233.01, 66424.20, 3722.37, 28280.14, -19070.60, -3828.47, 9487.31, -54837.63, -7885.16, 37666.64, 6480.02, -12696.01, 0.00, 0.00, 0.00, 0.00, 0.00, 0.00, 0.00
252, 1233.01, 66424.20, 3722.37, 28280.14, -19070.60, -3828.47, 9487.31, -54837.63, -7884.73, 37685.49, 6496.33, -12711.17, 0.00, 0.00, 0.00, 0.00, 0.00, 0.00, 0.00
253, 1211.04, 66395.85, 3698.39, 28245.38, -19090.91, -3854.20, 9448.62, -54855.58, -7884.73, 37685.49, 6496.33, -12711.17, 0.00, 0.00, 0.00, 0.00, 0.00, 0.00, 0.00
254, 1211.04, 66395.85, 3698.39, 28245.38, -19090.91, -3854.20, 9448.62, -54855.58, -7878.07, 37662.93, 6472.75, -12700.82, 0.00, 0.00, 0.00, 0.00, 0.00, 0.00, 0.00
255, 1224.65, 66414.01, 3712.85, 28271.69, -19077.15, -3834.42, 9465.34, -54831.11, -7878.07, 37662.93, 6472.75, -12700.82, 0.00, 0.00, 0.00, 0.00, 0.00, 0.00, 0.00
0, 1224.65, 66414.01, 3712.85, 28271.69, -19077.15, -3834.42, 9465.34, -54831.11, -7882.74, 37693.18, 6497.45, -12703.88, 0.00, 0.00, 0.00, 0.00, 0.00, 0.00, 0.00
1, 1208.54, 66397.11, 3696.46, 28247.13, -19085.17, -3852.28, 9435.97, -54819.26, -7882.74, 37693.18, 6497.45, -12703.88, 0.00, 0.00, 0.00, 0.00, 0.00, 0.00, 0.00
2, 1208.54, 66397.11, 3696.46, 28247.13, -19085.17, -3852.28, 9435.97, -54819.26, -7885.67, 37661.13, 6468.53, -12700.62, 0.00, 0.00, 0.00, 0.00, 0.12, 0.37, 0.94
3, 1227.09, 66414.34, 3710.59, 28266.80, -19077.57, -3838.26, 9445.49, -54791.72, -7885.67, 37661.13, 6468.53, -12700.62, 0.00, 0.00, 0.00, 0.00, 0.00, 0.00, 0.00
4, 1227.09, 66414.34, 3710.59, 28266.80, -19077.57, -3838.26, 9445.49, -54791.72, -7876.08, 37694.98, 6507.08, -12717.45, 0.00, 0.00, 0.00, 0.00, 0.00, 0.00, 0.00
5, 1226.95, 66407.55, 3710.03, 28255.93, -19077.93, -3844.30, 9424.84, -54769.30, -7876.08, 37694.98, 6507.08, -12717.45, 0.00, 0.00, 0.00, 0.00, 0.00, 0.00, 0.00
6, 1226.95, 66407.55, 3710.03, 28255.93, -19077.93, -3844.30, 9424.84, -54769.30, -7872.82, 37665.08, 6495.71, -12663.09, 0.00, 0.00, 0.00, 0.00, 0.00, 0.00, 0.00
7, 1233.86, 66427.55, 3724.87, 28272.54, -19064.76, -3833.79, 9435.19, -54719.95, -7872.82, 37665.08, 6495.71, -12663.09, 0.00, 0.00, 0.00, 0.00, 0.00, 0.00, 0.00
8, 1233.86, 66427.55, 3724.87, 28272.54, -19064.76, -3833.79, 9435.19, -54719.95, -7877.20, 37700.89, 6514.13, -12710.30, 0.00, 0.00, 0.00, 0.00, 0.00, 0.00, 0.00
9, 1222.04, 66407.45, 3702.70, 28248.78, -19090.02, -3853.33, 9402.64, -54704.26, -7877.20, 37700.89, 6514.13, -12710.30, 0.00, 0.00, 0.00, 0.00, 0.00, 0.00, 0.00
10, 1222.04, 66407.45, 3702.70, 28248.78, -19090.02, -3853.33, 9402.64, -54704.26, -7886.72, 37657.26, 6472.57, -12692.28, 0.00, 0.00, 0.00, 0.00, 0.00, 0.00, 0.00
11, 1223.87, 66409.45, 3704.02, 28246.84, -19093.73, -3851.74, 9398.21, -54668.41, -7886.72, 37657.26, 6472.57, -12692.28, 0.00, 0.00, 0.00, 0.00, 0.00, 0.00, 0.00
12, 1223.87, 66409.45, 3704.02, 28246.84, -19093.73, -3851.74, 9398.21, -54668.41, -7881.83, 37697.96, 6500.83, -12719.39, 0.00, 0.00, 0.00, 0.00, 0.12, 0.37, 0.93
13, 1227.65, 66415.52, 3711.80, 28241.16, -19085.68, -3849.62, 9391.64, -54624.69, -7881.83, 37697.96, 6500.83, -12719.39, 0.00, 0.00, 0.00, 0.00, 0.00, 0.00, 0.00
14, 1227.65, 66415.52, 3711.80, 28241.16, -19085.68, -3849.62, 9391.64, -54624.69, -7884.26, 37657.37, 6469.73, -12670.89, 0.00, 0.00, 0.00, 0.00, 0.00, 0.00, 0.00
15, 1224.85, 66409.71, 3704.47, 28240.96, -19090.83, -3853.49, 9381.79, -54588.19, -7884.26, 37657.37, 6469.73, -12670.89, 0.00, 0.00, 0.00, 0.00, 0.00, 0.00, 0.00
16, 1224.85, 66409.71, 3704.47, 28240.96, -19090.83, -3853.49, 9381.79, -54588.19, -7875.57, 37702.70, 6519.11, -12713.65, 0.00, 0.00, 0.00, 0.00, 0.00, 0.00, 0.00
17, 1237.53, 66419.30, 3716.49, 28249.92, -19081.21, -3846.85, 9379.89, -54537.36, -7875.57, 37702.70, 6519.11, -12713.65, 0.00, 0.00, 0.00, 0.00, 0.00, 0.00, 0.00
18, 1237.53, 66419.30, 3716.49, 28249.92, -19081.21, -3846.85, 9379.89, -54537.36, -7891.73, 37656.05, 6478.70, -12667.87, 0.00, 0.00, 0.00, 0.00, 0.00, 0.00, 0.00
19, 1223.29, 66407.57, 3705.85, 28239.55, -19097.93, -3857.26, 9360.80, -54511.77, -7891.73, 37656.05, 6478.70, -12667.87, 0.00, 0.00, 0.00, 0.00, 0.00, 0.00, 0.00
20, 1223.29, 66407.57, 3705.85, 28239.55, -19097.93, -3857.26, 9360.80, -54511.77, -7879.62, 37704.64, 6514.75, -12695.75, 0.00, 0.00, 0.00, 0.00, 0.00, 0.00, 0.00
21, 1233.17, 66421.13, 3720.78, 28255.31, -19082.47, -3843.07, 9368.89, -54458.41, -7879.62, 37704.64, 6514.75, -12695.75, 0.00, 0.00, 0.00, 0.00, 0.12, 0.38, 0.94
22, 1233.17, 66421.13, 3720.78, 28255.31, -19082.47, -3843.07, 9368.89, -54458.41, -7889.43, 37667.65, 6477.13, -12672.32, 0.00, 0.00, 0.00, 0.00, 0.00, 0.00, 0.00
23, 1216.58, 66400.77, 3703.62, 28235.86, -19099.25, -3858.47, 9344.15, -54446.61, -7889.43, 37667.65, 6477.13, -12672.32, 0.00, 0.00, 0.00, 0.00, 0.00, 0.00, 0.00
24, 1216.58, 66400.77, 3703.62, 28235.86, -19099.25, -3858.47, 9344.15, -54446.61, -7883.68, 37704.02, 6509.57, -12698.03, 0.00, 0.00, 0.00, 0.00, 0.00, 0.00, 0.00
25, 1234.58, 66423.62, 3722.75, 28262.53, -19080.48, -3837.19, 9363.21, -54403.61, -7883.68, 37704.02, 6509.57, -12698.03, 0.00, 0.00, 0.00, 0.00, 0.00, 0.00, 0.00
26, 1234.58, 66423.62, 3722.75, 28262.53, -19080.48, -3837.19, 9363.21, -54403.61, -7876.96, 37682.40, 6490.92, -12660.56, 0.00, 0.00, 0.00, 0.00, 0.00, 0.00, 0.00
27, 1221.41, 66404.02, 3705.52, 28237.29, -19093.33, -3857.69, 9335.43, -54400.93, -7876.96, 37682.40, 6490.92, -12660.56, 0.00, 0.00, 0.00, 0.00, 0.00, 0.00, 0.00
28, 1221.41, 66404.02, 3705.52, 28237.29, -19093.33, -3857.69, 9335.43, -54400.93, -7871.28, 37706.07, 6511.73, -12681.66, 0.00, 0.00, 0.00, 0.00, 0.00, 0.00, 0.00
29, 1236.72, 66422.41, 3719.60, 28258.91, -19080.90, -3840.48, 9351.28, -54371.73, -7871.28, 37706.07, 6511.73, -12681.66, 0.00, 0.00, 0.00, 0.00, 0.00, 0.00, 0.00
30, 1236.72, 66422.41, 3719.60, 28258.91, -19080.90, -3840.48, 9351.28, -54371.73, -7876.89, 37685.84, 6495.98, -12666.71, 0.00, 0.00, 0.00, 0.00, 0.00, 0.00, 0.00
31, 1216.43, 66396.26, 3698.05, 28232.55, -19099.19, -3862.87, 9319.54, -54381.48, -7876.89, 37685.84, 6495.98, -12666.71, 0.00, 0.00, 0.00, 0.00, 0.12, 0.37, 0.94
32, 1216.43, 66396.26, 3698.05, 28232.55, -19099.19, -3862.87, 9319.54, -54381.48, -7876.75, 37700.66, 6508.90, -12677.98, 0.00, 0.00, 0.00, 0.00, 0.00, 0.00, 0.00
33, 1230.84, 66418.01, 3714.75, 28254.08, -19087.83, -3844.95, 9338.00, -54355.30, -7876.75, 37700.66, 6508.90, -12677.98, 0.00, 0.00, 0.00, 0.00, 0.00, 0.00, 0.00
34, 1230.84, 66418.01, 3714.75, 28254.08, -19087.83, -3844.95, 9338.00, -54355.30, -7885.11, 37688.59, 6495.24, -12678.40, 0.00, 0.00, 0.00, 0.00, 0.00, 0.00, 0.00
35, 1204.27, 66386.18, 3685.24, 28222.88, -19113.04, -3870.76, 9298.33, -54378.46, -7885.11, 37688.59, 6495.24, -12678.40, 0.00, 0.00, 0.00, 0.00, 0.00, 0.00, 0.00
36, 1204.27, 66386.18, 3685.24, 28222.88, -19113.04, -3870.76, 9298.33, -54378.46, -7886.32, 37691.32, 6488.47, -12670.22, 0.00, 0.00, 0.00, 0.00, 0.00, 0.00, 0.00
37, 1225.90, 66411.81, 3709.27, 28254.64, -19094.74, -3843.27, 9328.08, -54347.04, -7886.32, 37691.32, 6488.47, -12670.22, 0.00, 0.00, 0.00, 0.00, 0.00, 0.00, 0.00
38, 1225.90, 66411.81, 3709.27, 28254.64, -19094.74, -3843.27, 9328.08, -54347.04, -7887.68, 37696.35, 6486.12, -12666.84, 0.00, 0.00, 0.00, 0.00, 0.00, 0.00, 0.00
39, 1210.97, 66380.66, 3683.54, 28224.69, -19118.61, -3870.14, 9289.16, -54368.70, -7887.68, 37696.35, 6486.12, -12666.84, 0.00, 0.00, 0.00, 0.00, 0.00, 0.00, 0.00
40, 1210.97, 66380.66, 3683.54, 28224.69, -19118.61, -3870.14, 9289.16, -54368.70, -7887.68, 37682.31, 6479.75, -12672.68, 0.00, 0.00, 0.00, 0.00, 0.00, 0.00, 0.00
41, 1230.58, 66407.99, 3708.24, 28249.72, -19099.74, -3850.31, 9313.23, -54343.01, -7887.68, 37682.31, 6479.75, -12672.68, 0.00, 0.00, 0.00, 0.00, 0.11, 0.38, 0.94
42, 1230.58, 66407.99, 3708.24, 28249.72, -19099.74, -3850.31, 9313.23, -54343.01, -7892.38, 37692.33, 6493.16, -12691.88, 0.00, 0.00, 0.00, 0.00, 0.00, 0.00, 0.00
43, 1212.58, 66381.93, 3688.37, 28225.87, -19119.66, -3872.44, 9279.86, -54364.76, -7892.38, 37692.33, 6493.16, -12691.88, 0.00, 0.00, 0.00, 0.00, 0.00, 0.00, 0.00
44, 1212.58, 66381.93, 3688.37, 28225.87, -19119.66, -3872.44, 9279.86, -54364.76, -7899.80, 37674.69, 6469.47, -12649.57, 0.00, 0.00, 0.00, 0.00, 0.00, 0.00, 0.00
45, 1233.12, 66413.63, 3713.21, 28257.16, -19103.92, -3847.11, 9307.62, -54335.28, -7899.80, 37674.69, 6469.47, -12649.57, 0.00, 0.00, 0.00, 0.00, 0.00, 0.00, 0.00
46, 1233.12, 66413.63, 3713.21, 28257.16, -19103.92, -3847.11, 9307.62, -54335.28, -7896.69, 37699.99, 6497.34, -12678.22, 0.00, 0.00, 0.00, 0.00, 0.00, 0.00, 0.00
47, 1229.57, 66396.95, 3702.03, 28236.69, -19110.76, -3861.67, 9283.98, -54346.79, -7896.69, 37699.99, 6497.34, -12678.22, 0.00, 0.00, 0.00, 0.00, 0.00, 0.00, 0.00
48, 1229.57, 66396.95, 3702.03, 28236.69, -19110.76, -3861.67, 9283.98, -54346.79, -7888.18, 37681.82, 6478.81, -12660.88, 0.00, 0.00, 0.00, 0.00, 0.00, 0.00, 0.00
49, 1246.51, 66419.26, 3721.32, 28261.63, -19092.12, -3841.46, 9311.16, -54320.93, -7888.18, 37681.82, 6478.81, -12660.88, 0.00, 0.00, 0.00, 0.00, 0.00, 0.00, 0.00
50, 1246.51, 66419.26, 3721.32, 28261.63, -19092.12, -3841.46, 9311.16, -54320.93, -7884.38, 37714.01, 6511.69, -12675.54, 0.00, 0.00, 0.00, 0.00, 0.00, 0.00, 0.00
51, 1234.04, 66403.32, 3709.05, 28241.41, -19103.63, -3856.15, 9287.13, -54332.71, -7884.38, 37714.01, 6511.69, -12675.54, 0.00, 0.00, 0.00, 0.00, 0.12, 0.38, 0.94
52, 1234.04, 66403.32, 3709.05, 28241.41, -19103.63, -3856.15, 9287.13, -54332.71, -7883.53, 37689.36, 6481.71, -12637.09, 0.00, 0.00, 0.00, 0.00, 0.00, 0.00, 0.00
53, 1235.87, 66418.19, 3720.92, 28260.07, -19091.38, -3841.33, 9306.75, -54309.04, -7883.53, 37689.36, 6481.71, -12637.09, 0.00, 0.00, 0.00, 0.00, 0.00, 0.00, 0.00
54, 1235.87, 66418.19, 3720.92, 28260.07, -19091.38, -3841.33, 9306.75, -54309.04, -7877.00, 37728.07, 6515.31, -12659.96, 0.00, 0.00, 0.00, 0.00, 0.00, 0.00, 0.00
55, 1228.59, 66402.02, 3707.30, 28242.70, -19101.96, -3853.35, 9287.13, -54317.89, -7877.00, 37728.07, 6515.31, -12659.96, 0.00, 0.00, 0.00, 0.00, 0.00, 0.00, 0.00
56, 1228.59, 66402.02, 3707.30, 28242.70, -19101.96, -3853.35, 9287.13, -54317.89, -7883.08, 37684.95, 6477.96, -12639.44, 0.00, 0.00, 0.00, 0.00, 0.00, 0.00, 0.00
57, 1227.71, 66406.38, 3709.29, 28250.39, -19098.36, -3847.74, 9292.58, -54310.65, -7883.08, 37684.95, 6477.96, -12639.44, 0.00, 0.00, 0.00, 0.00, 0.00, 0.00, 0.00
58, 1227.71, 66406.38, 3709.29, 28250.39, -19098.36, -3847.74, 9292.58, -54310.65, -7881.85, 37722.19, 6514.53, -12673.91, 0.00, 0.00, 0.00, 0.00, 0.00, 0.00, 0.00
59, 1224.50, 66400.03, 3702.10, 28240.38, -19103.72, -3856.23, 9279.57, -54316.32, -7881.85, 37722.19, 6514.53, -12673.91, 0.00, 0.00, 0.00, 0.00, 0.00, 0.00, 0.00
60, 1224.50, 66400.03, 3702.10, 28240.38, -19103.72, -3856.23, 9279.57, -54316.32, -7894.10, 37674.09, 6467.39, -12642.97, 0.00, 0.00, 0.00, 0.00, 0.11, 0.37, 0.93
61, 1219.76, 66400.46, 3700.20, 28241.47, -19107.95, -3857.15, 9278.57, -54312.08, -7894.10, 37674.09, 6467.39, -12642.97, 0.00, 0.00, 0.00, 0.00, 0.00, 0.00, 0.00
62, 1219.76, 66400.46, 3700.20, 28241.47, -19107.95, -3857.15, 9278.57, -54312.08, -7884.31, 37718.16, 6502.99, -12669.37, 0.00, 0.00, 0.00, 0.00, 0.00, 0.00, 0.00
63, 1224.81, 66400.21, 3699.68, 28243.69, -19105.33, -3852.61, 9278.61, -54306.04, -7884.31, 37718.16, 6502.99, -12669.37, 0.00, 0.00, 0.00, 0.00, 0.00, 0.00, 0.00
64, 1224.81, 66400.21, 3699.68, 28243.69, -19105.33, -3852.61, 9278.61, -54306.04, -7888.22, 37676.93, 6462.83, -12642.50, 0.00, 0.00, 0.00, 0.00, 0.00, 0.00, 0.00
65, 1224.70, 66392.81, 3697.51, 28242.01, -19106.94, -3856.06, 9272.64, -54310.40, -7888.22, 37676.93, 6462.83, -12642.50, 0.00, 0.00, 0.00, 0.00, 0.00, 0.00, 0.00
66, 1224.70, 66392.81, 3697.51, 28242.01, -19106.94, -3856.06, 9272.64, -54310.40, -7883.77, 37716.67, 6502.12, -12673.46, 0.00, 0.00, 0.00, 0.00, 0.00, 0.00, 0.00
67, 1229.79, 66396.99, 3704.87, 28252.00, -19100.68, -3848.03, 9278.70, -54300.77, -7883.77, 37716.67, 6502.12, -12673.46, 0.00, 0.00, 0.00, 0.00, 0.00, 0.00, 0.00
68, 1229.79, 66396.99, 3704.87, 28252.00, -19100.68, -3848.03, 9278.70, -54300.77, -7889.41, 37675.83, 6466.18, -12630.79, 0.00, 0.00, 0.00, 0.00, 0.00, 0.00, 0.00
69, 1215.73, 66389.48, 3695.53, 28239.51, -19109.53, -3859.48, 9265.80, -54311.34, -7889.41, 37675.83, 6466.18, -12630.79, 0.00, 0.00, 0.00, 0.00, 0.00, 0.00, 0.00
70, 1215.73, 66389.48, 3695.53, 28239.51, -19109.53, -3859.48, 9265.80, -54311.34, -7879.75, 37713.07, 6504.89, -12663.36, 0.00, 0.00, 0.00, 0.00, 0.11, 0.37, 0.93
71, 1232.14, 66406.18, 3710.55, 28256.61, -19095.05, -3844.43, 9284.80, -54289.57, -7879.75, 37713.07, 6504.89, -12663.36, 0.00, 0.00, 0.00, 0.00, 0.00, 0.00, 0.00
72, 1232.14, 66406.18, 3710.55, 28256.61, -19095.05, -3844.43, 9284.80, -54289.57, -7881.29, 37685.66, 6477.31, -12651.04, 0.00, 0.00, 0.00, 0.00, 0.00, 0.00, 0.00
73, 1214.79, 66385.93, 3692.89, 28231.82, -19109.09, -3863.32, 9262.70, -54301.64, -7881.29, 37685.66, 6477.31, -12651.04, 0.00, 0.00, 0.00, 0.00, 0.00, 0.00, 0.00
74, 1214.79, 66385.93, 3692.89, 28231.82, -19109.09, -3863.32, 9262.70, -54301.64, -7875.77, 37717.00, 6504.80, -12668.03, 0.00, 0.00, 0.00, 0.00, 0.00, 0.00, 0.00
75, 1232.52, 66413.02, 3715.69, 28254.44, -19090.11, -3844.43, 9284.27, -54282.06, -7875.77, 37717.00, 6504.80, -12668.03, 0.00, 0.00, 0.00, 0.00, 0.00, 0.00, 0.00
76, 1232.52, 66413.02, 3715.69, 28254.44, -19090.11, -3844.43, 9284.27, -54282.06, -7877.07, 37693.13, 6486.59, -12624.33, 0.00, 0.00, 0.00, 0.00, 0.00, 0.00, 0.00
77, 1213.81, 66391.05, 3697.94, 28230.95, -19103.46, -3861.62, 9262.34, -54294.11, -7877.07, 37693.13, 6486.59, -12624.33, 0.00, 0.00, 0.00, 0.00, 0.00, 0.00, 0.00
78, 1213.81, 66391.05, 3697.94, 28230.95, -19103.46, -3861.62, 9262.34, -54294.11, -7868.17, 37720.02, 6504.00, -12652.79, 0.00, 0.00, 0.00, 0.00, 0.00, 0.00, 0.00
79, 1233.21, 66412.57, 3714.61, 28255.22, -19090.49, -3844.79, 9283.24, -54273.48, -7868.17, 37720.02, 6504.00, -12652.79, 0.00, 0.00, 0.00, 0.00, 0.00, 0.00, 0.00
80, 1233.21, 66412.57, 3714.61, 28255.22, -19090.49, -3844.79, 9283.24, -54273.48, -7876.87, 37692.82, 6489.63, -12645.59, 0.00, 0.00, 0.00, 0.00, 0.11, 0.37, 0.93
81, 1218.95, 66387.61, 3692.91, 28226.90, -19110.47, -3866.94, 9254.11, -54295.07, -7876.87, 37692.82, 6489.63, -12645.59, 0.00, 0.00, 0.00, 0.00, 0.00, 0.00, 0.00
82, 1218.95, 66387.61, 3692.91, 28226.90, -19110.47, -3866.94, 9254.11, -54295.07, -7870.67, 37709.31, 6498.46, -12658.37, 0.00, 0.00, 0.00, 0.00, 0.00, 0.00, 0.00
83, 1240.19, 66410.31, 3712.74, 28256.58, -19093.24, -3842.67, 9282.08, -54268.13, -7870.67, 37709.31, 6498.46, -12658.37, 0.00, 0.00, 0.00, 0.00, 0.00, 0.00, 0.00
84, 1240.19, 66410.31, 3712.74, 28256.58, -19093.24, -3842.67, 9282.08, -54268.13, -7877.51, 37703.99, 6486.52, -12641.63, 0.00, 0.00, 0.00, 0.00, 0.00, 0.00, 0.00
85, 1218.33, 66382.53, 3690.36, 28225.25, -19113.29, -3866.90, 9249.73, -54293.01, -7877.51, 37703.99, 6486.52, -12641.63, 0.00, 0.00, 0.00, 0.00, 0.00, 0.00, 0.00
86, 1218.33, 66382.53, 3690.36, 28225.25, -19113.29, -3866.90, 9249.73, -54293.01, -7877.65, 37705.18, 6481.98, -12651.22, 0.00, 0.00, 0.00, 0.00, 0.00, 0.00, 0.00
87, 1225.57, 66403.23, 3704.73, 28250.08, -19102.83, -3848.08, 9272.87, -54273.92, -7877.65, 37705.18, 6481.98, -12651.22, 0.00, 0.00, 0.00, 0.00, 0.00, 0.00, 0.00
88, 1225.57, 66403.23, 3704.73, 28250.08, -19102.83, -3848.08, 9272.87, -54273.92, -7884.64, 37698.32, 6482.21, -12653.14, 0.00, 0.00, 0.00, 0.00, 0.00, 0.00, 0.00
89, 1210.17, 66380.68, 3683.77, 28222.25, -19117.02, -3869.31, 9244.46, -54293.91, -7884.64, 37698.32, 6482.21, -12653.14, 0.00, 0.00, 0.00, 0.00, 0.00, 0.00, 0.00
90, 1210.17, 66380.68, 3683.77, 28222.25, -19117.02, -3869.31, 9244.46, -54293.91, -7880.64, 37693.54, 6471.68, -12647.49, 0.00, 0.00, 0.00, 0.00, 0.11, 0.37, 0.94
91, 1229.70, 66401.91, 3702.68, 28248.02, -19099.90, -3848.17, 9274.45, -54269.27, -7880.64, 37693.54, 6471.68, -12647.49, 0.00, 0.00, 0.00, 0.00, 0.00, 0.00, 0.00
92, 1229.70, 66401.91, 3702.68, 28248.02, -19099.90, -3848.17, 9274.45, -54269.27, -7879.26, 37708.80, 6489.29, -12660.12, 0.00, 0.00, 0.00, 0.00, 0.00, 0.00, 0.00
93, 1208.20, 66375.00, 3681.91, 28219.66, -19117.69, -3870.25, 9243.34, -54291.13, -7879.26, 37708.80, 6489.29, -12660.12, 0.00, 0.00, 0.00, 0.00, 0.00, 0.00, 0.00
94, 1208.20, 66375.00, 3681.91, 28219.66, -19117.69, -3870.25, 9243.34, -54291.13, -7882.16, 37688.68, 6463.77, -12640.96, 0.00, 0.00, 0.00, 0.00, 0.00, 0.00, 0.00
95, 1221.25, 66397.60, 3698.95, 28242.75, -19107.54, -3851.65, 9267.01, -54269.56, -7882.16, 37688.68, 6463.77, -12640.96, 0.00, 0.00, 0.00, 0.00, 0.00, 0.00, 0.00
96, 1221.25, 66397.60, 3698.95, 28242.75, -19107.54, -3851.65, 9267.01, -54269.56, -7882.34, 37716.58, 6485.34, -12654.22, 0.00, 0.00, 0.00, 0.00, 0.00, 0.00, 0.00
97, 1207.04, 66375.80, 3682.72, 28218.38, -19121.18, -3870.18, 9240.77, -54289.41, -7882.34, 37716.58, 6485.34, -12654.22, 0.00, 0.00, 0.00, 0.00, 0.00, 0.00, 0.00
98, 1207.04, 66375.80, 3682.72, 28218.38, -19121.18, -3870.18, 9240.77, -54289.41, -7884.67, 37680.32, 6455.63, -12631.33, 0.00, 0.00, 0.00, 0.00, 0.00, 0.00, 0.00
99, 1219.60, 66399.41, 3699.30, 28241.79, -19108.57, -3853.13, 9266.03, -54268.49, -7884.67, 37680.32, 6455.63, -12631.33, 0.00, 0.00, 0.00, 0.00, 0.12, 0.37, 0.94
100, 1219.60, 66399.41, 3699.30, 28241.79, -19108.57, -3853.13, 9266.03, -54268.49, -7875.57, 37723.53, 6496.76, -12660.25, 0.00, 0.00, 0.00, 0.00, 0.00, 0.00, 0.00
101, 1214.33, 66383.36, 3687.97, 28221.42, -19111.72, -3866.40, 9251.41, -54275.44, -7875.57, 37723.53, 6496.76, -12660.25, 0.00, 0.00, 0.00, 0.00, 0.00, 0.00, 0.00
102, 1214.33, 66383.36, 3687.97, 28221.42, -19111.72, -3866.40, 9251.41, -54275.44, -7872.46, 37693.36, 6462.78, -12621.11, 0.00, 0.00, 0.00, 0.00, 0.00, 0.00, 0.00
103, 1222.15, 66396.81, 3699.28, 28239.26, -19106.00, -3851.45, 9267.79, -54261.61, -7872.46, 37693.36, 6462.78, -12621.11, 0.00, 0.00, 0.00, 0.00, 0.00, 0.00, 0.00
104, 1222.15, 66396.81, 3699.28, 28239.26, -19106.00, -3851.45, 9267.79, -54261.61, -7867.86, 37730.08, 6505.07, -12641.79, 0.00, 0.00, 0.00, 0.00, 0.00, 0.00, 0.00
105, 1219.94, 66394.11, 3698.45, 28227.26, -19105.58, -3859.41, 9257.98, -54266.43, -7867.86, 37730.08, 6505.07, -12641.79, 0.00, 0.00, 0.00, 0.00, 0.00, 0.00, 0.00
106, 1219.94, 66394.11, 3698.45, 28227.26, -19105.58, -3859.41, 9257.98, -54266.43, -7871.39, 37689.20, 6469.62, -12616.04, 0.00, 0.00, 0.00, 0.00, 0.00, 0.00, 0.00
107, 1220.90, 66406.85, 3703.73, 28235.44, -19099.65, -3853.73, 9268.31, -54255.46, -7871.39, 37689.20, 6469.62, -12616.04, 0.00, 0.00, 0.00, 0.00, 0.00, 0.00, 0.00
108, 1220.90, 66406.85, 3703.73, 28235.44, -19099.65, -3853.73, 9268.31, -54255.46, -7859.01, 37738.71, 6513.14, -12656.76, 0.00, 0.00, 0.00, 0.00, 0.00, 0.00, 0.00
109, 1226.26, 66399.77, 3701.61, 28230.14, -19098.25, -3855.34, 9266.21, -54251.97, -7859.01, 37738.71, 6513.14, -12656.76, 0.00, 0.00, 0.00, 0.00, 0.11, 0.37, 0.94
110, 1226.26, 66399.77, 3701.61, 28230.14, -19098.25, -3855.34, 9266.21, -54251.97, -7862.99, 37698.45, 6472.33, -12623.08, 0.00, 0.00, 0.00, 0.00, 0.00, 0.00, 0.00
111, 1213.86, 66394.78, 3694.12, 28223.21, -19105.44, -3860.97, 9261.38, -54255.32, -7862.99, 37698.45, 6472.33, -12623.08, 0.00, 0.00, 0.00, 0.00, 0.00, 0.00, 0.00
112, 1213.86, 66394.78, 3694.12, 28223.21, -19105.44, -3860.97, 9261.38, -54255.32, -7863.39, 37733.72, 6503.96, -12637.27, 0.00, 0.00, 0.00, 0.00, 0.00, 0.00, 0.00
113, 1218.44, 66397.51, 3696.89, 28229.00, -19104.28, -3857.35, 9260.82, -54255.48, -7863.39, 37733.72, 6503.96, -12637.27, 0.00, 0.00, 0.00, 0.00, 0.00, 0.00, 0.00
114, 1218.44, 66397.51, 3696.89, 28229.00, -19104.28, -3857.35, 9260.82, -54255.48, -7871.97, 37691.59, 6458.80, -12614.59, 0.00, 0.00, 0.00, 0.00, 0.00, 0.00, 0.00
115, 1203.48, 66383.74, 3681.47, 28215.43, -19115.21, -3867.97, 9249.02, -54262.16, -7871.97, 37691.59, 6458.80, -12614.59, 0.00, 0.00, 0.00, 0.00, 0.00, 0.00, 0.00
116, 1203.48, 66383.74, 3681.47, 28215.43, -19115.21, -3867.97, 9249.02, -54262.16, -7864.51, 37732.36, 6494.99, -12654.78, 0.00, 0.00, 0.00, 0.00, 0.00, 0.00, 0.00
117, 1234.73, 66411.37, 3716.63, 28251.69, -19076.56, -3839.47, 9281.81, -54232.75, -7864.51, 37732.36, 6494.99, -12654.78, 0.00, 0.00, 0.00, 0.00, 0.00, 0.00, 0.00
118, 1234.73, 66411.37, 3716.63, 28251.69, -19076.56, -3839.47, 9281.81, -54232.75, -7849.93, 37715.06, 6521.61, -12613.02, 0.00, 0.00, 0.00, 0.00, 0.00, 0.00, 0.00
119, 1241.46, 66408.39, 3720.63, 28263.89, -19091.88, -3845.95, 9266.74, -54250.54, -7849.93, 37715.06, 6521.61, -12613.02, 0.00, 0.00, 0.00, 0.00, 0.11, 0.37, 0.94
120, 1241.46, 66408.39, 3720.63, 28263.89, -19091.88, -3845.95, 9266.74, -54250.54, -7884.06, 37712.53, 6455.56, -12636.85, 0.00, 0.00, 0.00, 0.00, 0.00, 0.00, 0.00
121, 1225.46, 66394.63, 3690.05, 28223.50, -19125.94, -3865.29, 9244.39, -54268.58, -7884.06, 37712.53, 6455.56, -12636.85, 0.00, 0.00, 0.00, 0.00, 0.00, 0.00, 0.00
122, 1225.46, 66394.63, 3690.05, 28223.50, -19125.94, -3865.29, 9244.39, -54268.58, -7898.17, 37675.45, 6397.76, -12628.69, 0.00, 0.00, 0.00, 0.00, 0.00, 0.00, 0.00
123, 1215.02, 66374.64, 3669.15, 28195.76, -19149.61, -3888.33, 9215.51, -54291.00, -7898.17, 37675.45, 6397.76, -12628.69, 0.00, 0.00, 0.00, 0.00, 0.00, 0.00, 0.00
124, 1215.02, 66374.64, 3669.15, 28195.76, -19149.61, -3888.33, 9215.51, -54291.00, -7896.92, 37701.96, 6408.94, -12670.78, 0.00, 0.00, 0.00, 0.00, 0.00, 0.00, 0.00
125, 1253.13, 66409.22, 3695.95, 28219.12, -19141.52, -3874.50, 9230.02, -54278.75, -7896.92, 37701.96, 6408.94, -12670.78, 0.00, 0.00, 0.00, 0.00, 0.00, 0.00, 0.00
126, 1253.13, 66409.22, 3695.95, 28219.12, -19141.52, -3874.50, 9230.02, -54278.75, -7920.90, 37666.53, 6369.00, -12666.80, 0.00, 0.00, 0.00, 0.00, 0.00, 0.00, 0.00
127, 1250.78, 66399.34, 3685.69, 28200.37, -19167.22, -3900.13, 9196.31, -54309.33, -7920.90, 37666.53, 6369.00, -12666.80, 0.00, 0.00, 0.00, 0.00, 0.00, 0.00, 0.00
128, 1250.78, 66399.34, 3685.69, 28200.37, -19167.22, -3900.13, 9196.31, -54309.33, -7925.59, 37678.38, 6385.42, -12657.57, 0.00, 0.00, 0.00, 0.00, 0.00, 0.00, 0.00
129, 1278.61, 66428.82, 3713.38, 28236.09, -19151.73, -3874.59, 9219.11, -54294.04, -7925.59, 37678.38, 6385.42, -12657.57, 0.00, 0.00, 0.00, 0.00, 0.12, 0.37, 0.94
130, 1278.61, 66428.82, 3713.38, 28236.09, -19151.73, -3874.59, 9219.11, -54294.04, -7942.69, 37653.03, 6320.72, -12662.26, 0.00, 0.00, 0.00, 0.00, 0.00, 0.00, 0.00
131, 1255.07, 66394.76, 3673.96, 28193.44, -19189.87, -3916.76, 9170.36, -54331.19, -7942.69, 37653.03, 6320.72, -12662.26, 0.00, 0.00, 0.00, 0.00, 0.00, 0.00, 0.00
132, 1255.07, 66394.76, 3673.96, 28193.44, -19189.87, -3916.76, 9170.36, -54331.19, -7941.91, 37656.05, 6331.65, -12693.82, 0.00, 0.00, 0.00, 0.00, 0.00, 0.00, 0.00
133, 1306.93, 66442.48, 3720.94, 28254.37, -19156.92, -3881.69, 9206.64, -54302.71, -7941.91, 37656.05, 6331.65, -12693.82, 0.00, 0.00, 0.00, 0.00, 0.00, 0.00, 0.00
134, 1306.93, 66442.48, 3720.94, 28254.37, -19156.92, -3881.69, 9206.64, -54302.71, -7948.82, 37649.48, 6325.07, -12671.20, 0.00, 0.00, 0.00, 0.00, 0.00, 0.00, 0.00
135, 1295.35, 66417.71, 3698.72, 28223.79, -19184.66, -3908.96, 9166.34, -54333.73, -7948.82, 37649.48, 6325.07, -12671.20, 0.00, 0.00, 0.00, 0.00, 0.00, 0.00, 0.00
136, 1295.35, 66417.71, 3698.72, 28223.79, -19184.66, -3908.96, 9166.34, -54333.73, -7953.60, 37647.11, 6308.73, -12657.84, 0.00, 0.00, 0.00, 0.00, 0.00, 0.00, 0.00
137, 1318.02, 66452.20, 3726.19, 28268.14, -19163.58, -3883.75, 9195.87, -54312.84, -7953.60, 37647.11, 6308.73, -12657.84, 0.00, 0.00, 0.00, 0.00, 0.00, 0.00, 0.00
138, 1318.02, 66452.20, 3726.19, 28268.14, -19163.58, -3883.75, 9195.87, -54312.84, -7957.11, 37653.66, 6311.42, -12687.36, 0.00, 0.00, 0.00, 0.00, 0.12, 0.37, 0.93
139, 1309.70, 66424.80, 3706.97, 28241.70, -19182.96, -3906.08, 9165.87, -54336.62, -7957.11, 37653.66, 6311.42, -12687.36, 0.00, 0.00, 0.00, 0.00, 0.00, 0.00, 0.00
140, 1309.70, 66424.80, 3706.97, 28241.70, -19182.96, -3906.08, 9165.87, -54336.62, -7967.79, 37630.48, 6269.57, -12687.10, 0.00, 0.00, 0.00, 0.00, 0.00, 0.00, 0.00
141, 1324.12, 66438.95, 3711.31, 28262.21, -19180.63, -3893.20, 9181.58, -54326.05, -7967.79, 37630.48, 6269.57, -12687.10, 0.00, 0.00, 0.00, 0.00, 0.00, 0.00, 0.00
142, 1324.12, 66438.95, 3711.31, 28262.21, -19180.63, -3893.20, 9181.58, -54326.05, -7970.77, 37643.36, 6311.91, -12706.68, 0.00, 0.00, 0.00, 0.00, 0.00, 0.00, 0.00
143, 1319.45, 66423.59, 3710.59, 28258.01, -19179.90, -3901.54, 9163.68, -54340.44, -7970.77, 37643.36, 6311.91, -12706.68, 0.00, 0.00, 0.00, 0.00, 0.00, 0.00, 0.00
144, 1319.45, 66423.59, 3710.59, 28258.01, -19179.90, -3901.54, 9163.68, -54340.44, -7970.32, 37622.99, 6278.81, -12666.24, 0.00, 0.00, 0.00, 0.00, 0.00, 0.00, 0.00
145, 1328.50, 66440.98, 3722.55, 28280.57, -19169.50, -3883.73, 9187.71, -54320.19, -7970.32, 37622.99, 6278.81, -12666.24, 0.00, 0.00, 0.00, 0.00, 0.00, 0.00, 0.00
146, 1328.50, 66440.98, 3722.55, 28280.57, -19169.50, -3883.73, 9187.71, -54320.19, -7965.60, 37653.41, 6311.28, -12693.62, 0.00, 0.00, 0.00, 0.00, 0.00, 0.00, 0.00
147, 1316.45, 66425.94, 3712.74, 28264.23, -19173.93, -3898.84, 9168.89, -54333.58, -7965.60, 37653.41, 6311.28, -12693.62, 0.00, 0.00, 0.00, 0.00, 0.00, 0.00, 0.00
148, 1316.45, 66425.94, 3712.74, 28264.23, -19173.93, -3898.84, 9168.89, -54333.58, -7965.22, 37630.14, 6289.89, -12664.59, 0.00, 0.00, 0.00, 0.00, 0.11, 0.37, 0.93
149, 1333.73, 66441.12, 3725.50, 28288.43, -19163.98, -3881.54, 9189.92, -54317.11, -7965.22, 37630.14, 6289.89, -12664.59, 0.00, 0.00, 0.00, 0.00, 0.00, 0.00, 0.00
150, 1333.73, 66441.12, 3725.50, 28288.43, -19163.98, -3881.54, 9189.92, -54317.11, -7961.69, 37662.44, 6324.45, -12708.73, 0.00, 0.00, 0.00, 0.00, 0.00, 0.00, 0.00
151, 1327.40, 66431.05, 3719.84, 28276.43, -19167.83, -3891.73, 9175.77, -54326.32, -7961.69, 37662.44, 6324.45, -12708.73, 0.00, 0.00, 0.00, 0.00, 0.00, 0.00, 0.00
152, 1327.40, 66431.05, 3719.84, 28276.43, -19167.83, -3891.73, 9175.77, -54326.32, -7958.43, 37626.84, 6299.24, -12650.46, 0.00, 0.00, 0.00, 0.00, 0.00, 0.00, 0.00
153, 1336.39, 66449.52, 3735.38, 28289.69, -19155.71, -3880.20, 9193.65, -54311.81, -7958.43, 37626.84, 6299.24, -12650.46, 0.00, 0.00, 0.00, 0.00, 0.00, 0.00, 0.00
154, 1336.39, 66449.52, 3735.38, 28289.69, -19155.71, -3880.20, 9193.65, -54311.81, -7951.70, 37669.01, 6341.35, -12673.77, 0.00, 0.00, 0.00, 0.00, 0.00, 0.00, 0.00
155, 1330.82, 66444.29, 3728.87, 28283.58, -19156.43, -3886.12, 9184.06, -54318.38, -7951.70, 37669.01, 6341.35, -12673.77, 0.00, 0.00, 0.00, 0.00, 0.00, 0.00, 0.00
156, 1330.82, 66444.29, 3728.87, 28283.58, -19156.43, -3886.12, 9184.06, -54318.38, -7957.69, 37630.48, 6303.33, -12658.53, 0.00, 0.00, 0.00, 0.00, 0.00, 0.00, 0.00
157, 1329.37, 66445.81, 3732.20, 28286.67, -19156.09, -3884.29, 9189.67, -54314.11, -7957.69, 37630.48, 6303.33, -12658.53, 0.00, 0.00, 0.00, 0.00, 0.00, 0.00, 0.00
158, 1329.37, 66445.81, 3732.20, 28286.67, -19156.09, -3884.29, 9189.67, -54314.11, -7953.53, 37672.23, 6342.44, -12690.85, 0.00, 0.00, 0.00, 0.00, 0.11, 0.37, 0.94
159, 1342.20, 66451.96, 3737.75, 28288.63, -19151.18, -3882.83, 9190.95, -54310.89, -7953.53, 37672.23, 6342.44, -12690.85, 0.00, 0.00, 0.00, 0.00, 0.00, 0.00, 0.00
160, 1342.20, 66451.96, 3737.75, 28288.63, -19151.18, -3882.83, 9190.95, -54310.89, -7956.84, 37634.39, 6304.96, -12661.46, 0.00, 0.00, 0.00, 0.00, 0.00, 0.00, 0.00
161, 1333.73, 66446.13, 3730.57, 28280.68, -19158.57, -3888.53, 9186.37, -54313.91, -7956.84, 37634.39, 6304.96, -12661.46, 0.00, 0.00, 0.00, 0.00, 0.00, 0.00, 0.00
162, 1333.73, 66446.13, 3730.57, 28280.68, -19158.57, -3888.53, 9186.37, -54313.91, -7952.39, 37671.72, 6346.13, -12671.94, 0.00, 0.00, 0.00, 0.00, 0.00, 0.00, 0.00
163, 1344.08, 66458.02, 3741.79, 28290.24, -19149.74, -3881.36, 9194.28, -54307.34, -7952.39, 37671.72, 6346.13, -12671.94, 0.00, 0.00, 0.00, 0.00, 0.00, 0.00, 0.00
164, 1344.08, 66458.02, 3741.79, 28290.24, -19149.74, -3881.36, 9194.28, -54307.34, -7958.58, 37626.77, 6308.09, -12658.13, 0.00, 0.00, 0.00, 0.00, 0.00, 0.00, 0.00
165, 1335.29, 66448.60, 3732.76, 28278.62, -19155.94, -3891.22, 9184.55, -54314.29, -7958.58, 37626.77, 6308.09, -12658.13, 0.00, 0.00, 0.00, 0.00, 0.00, 0.00, 0.00
166, 1335.29, 66448.60, 3732.76, 28278.62, -19155.94, -3891.22, 9184.55, -54314.29, -7949.76, 37674.09, 6342.24, -12703.19, 0.00, 0.00, 0.00, 0.00, 0.00, 0.00, 0.00
167, 1348.99, 66460.90, 3740.79, 28292.10, -19150.50, -3880.75, 9195.78, -54305.06, -7949.76, 37674.09, 6342.24, -12703.19, 0.00, 0.00, 0.00, 0.00, 0.00, 0.00, 0.00
168, 1348.99, 66460.90, 3740.79, 28292.10, -19150.50, -3880.75, 9195.78, -54305.06, -7960.01, 37631.04, 6306.52, -12651.85, 0.00, 0.00, 0.00, 0.00, 0.12, 0.37, 0.94
169, 1330.20, 66439.38, 3723.89, 28272.41, -19167.31, -3896.62, 9177.20, -54321.27, -7960.01, 37631.04, 6306.52, -12651.85, 0.00, 0.00, 0.00, 0.00, 0.00, 0.00, 0.00
170, 1330.20, 66439.38, 3723.89, 28272.41, -19167.31, -3896.62, 9177.20, -54321.27, -7962.41, 37658.73, 6326.75, -12668.45, 0.00, 0.00, 0.00, 0.00, 0.00, 0.00, 0.00
171, 1335.74, 66451.53, 3733.59, 28292.12, -19153.50, -3882.43, 9194.03, -54307.65, -7962.41, 37658.73, 6326.75, -12668.45, 0.00, 0.00, 0.00, 0.00, 0.00, 0.00, 0.00
172, 1335.74, 66451.53, 3733.59, 28292.12, -19153.50, -3882.43, 9194.03, -54307.65, -7967.19, 37630.48, 6301.85, -12668.23, 0.00, 0.00, 0.00, 0.00, 0.00, 0.00, 0.00
173, 1320.23, 66429.20, 3718.37, 28269.48, -19168.39, -3899.62, 9173.27, -54322.65, -7967.19, 37630.48, 6301.85, -12668.23, 0.00, 0.00, 0.00, 0.00, 0.00, 0.00, 0.00
174, 1320.23, 66429.20, 3718.37, 28269.48, -19168.39, -3899.62, 9173.27, -54322.65, -7962.14, 37653.75, 6320.16, -12691.90, 0.00, 0.00, 0.00, 0.00, 0.00, 0.00, 0.00
175, 1341.55, 66451.02, 3736.09, 28294.47, -19152.25, -3879.21, 9199.15, -54303.67, -7962.14, 37653.75, 6320.16, -12691.90, 0.00, 0.00, 0.00, 0.00, 0.00, 0.00, 0.00
176, 1341.55, 66451.02, 3736.09, 28294.47, -19152.25, -3879.21, 9199.15, -54303.67, -7966.79, 37633.54, 6303.19, -12663.56, 0.00, 0.00, 0.00, 0.00, 0.00, 0.00, 0.00
177, 1321.03, 66424.24, 3712.11, 28266.48, -19173.55, -3902.35, 9169.22, -54327.34, -7966.79, 37633.54, 6303.19, -12663.56, 0.00, 0.00, 0.00, 0.00, 0.11, 0.37, 0.95
178, 1321.03, 66424.24, 3712.11, 28266.48, -19173.55, -3902.35, 9169.22, -54327.34, -7960.28, 37653.28, 6314.79, -12671.81, 0.00, 0.00, 0.00, 0.00, 0.00, 0.00, 0.00
179, 1340.61, 66455.98, 3740.74, 28299.14, -19152.23, -3875.35, 9203.24, -54298.75, -7960.28, 37653.28, 6314.79, -12671.81, 0.00, 0.00, 0.00, 0.00, 0.00, 0.00, 0.00
180, 1340.61, 66455.98, 3740.74, 28299.14, -19152.23, -3875.35, 9203.24, -54298.75, -7960.75, 37643.80, 6314.99, -12673.75, 0.00, 0.00, 0.00, 0.00, 0.00, 0.00, 0.00
181, 1328.65, 66431.82, 3721.43, 28272.90, -19167.45, -3897.74, 9174.59, -54324.82, -7960.75, 37643.80, 6314.99, -12673.75, 0.00, 0.00, 0.00, 0.00, 0.00, 0.00, 0.00
182, 1328.65, 66431.82, 3721.43, 28272.90, -19167.45, -3897.74, 9174.59, -54324.82, -7957.29, 37647.85, 6317.18, -12666.87, 0.00, 0.00, 0.00, 0.00, 0.00, 0.00, 0.00
183, 1343.97, 66457.52, 3740.32, 28299.39, -19145.30, -3876.13, 9207.44, -54294.84, -7957.29, 37647.85, 6317.18, -12666.87, 0.00, 0.00, 0.00, 0.00, 0.00, 0.00, 0.00
184, 1343.97, 66457.52, 3740.32, 28299.39, -19145.30, -3876.13, 9207.44, -54294.84, -7954.61, 37654.71, 6324.54, -12671.61, 0.00, 0.00, 0.00, 0.00, 0.00, 0.00, 0.00
185, 1330.15, 66438.84, 3726.28, 28276.41, -19158.15, -3893.74, 9182.05, -54313.62, -7954.61, 37654.71, 6324.54, -12671.61, 0.00, 0.00, 0.00, 0.00, 0.00, 0.00, 0.00
186, 1330.15, 66438.84, 3726.28, 28276.41, -19158.15, -3893.74, 9182.05, -54313.62, -7950.45, 37646.39, 6320.98, -12658.91, 0.00, 0.00, 0.00, 0.00, 0.00, 0.00, 0.00
187, 1350.43, 66464.50, 3747.11, 28304.84, -19142.41, -3871.12, 9212.32, -54290.51, -7950.45, 37646.39, 6320.98, -12658.91, 0.00, 0.00, 0.00, 0.00, 0.11, 0.37, 0.95
188, 1350.43, 66464.50, 3747.11, 28304.84, -19142.41, -3871.12, 9212.32, -54290.51, -7952.19, 37659.63, 6333.52, -12670.78, 0.00, 0.00, 0.00, 0.00, 0.00, 0.00, 0.00
189, 1324.97, 66436.02, 3725.45, 28274.15, -19162.17, -3896.11, 9181.81, -54311.90, -7952.19, 37659.63, 6333.52, -12670.78, 0.00, 0.00, 0.00, 0.00, 0.00, 0.00, 0.00
190, 1324.97, 66436.02, 3725.45, 28274.15, -19162.17, -3896.11, 9181.81, -54311.90, -7953.69, 37644.56, 6313.63, -12646.19, 0.00, 0.00, 0.00, 0.00, 0.00, 0.00, 0.00
191, 1344.90, 66458.40, 3740.25, 28296.06, -19147.53, -3878.81, 9210.28, -54292.45, -7953.69, 37644.56, 6313.63, -12646.19, 0.00, 0.00, 0.00, 0.00, 0.00, 0.00, 0.00
192, 1344.90, 66458.40, 3740.25, 28296.06, -19147.53, -3878.81, 9210.28, -54292.45, -7953.29, 37663.00, 6333.68, -12680.46, 0.00, 0.00, 0.00, 0.00, 0.00, 0.00, 0.00
193, 1326.91, 66432.66, 3720.49, 28273.35, -19162.42, -3897.74, 9182.79, -54314.63, -7953.29, 37663.00, 6333.68, -12680.46, 0.00, 0.00, 0.00, 0.00, 0.00, 0.00, 0.00
194, 1326.91, 66432.66, 3720.49, 28273.35, -19162.42, -3897.74, 9182.79, -54314.63, -7953.58, 37633.92, 6305.78, -12665.24, 0.00, 0.00, 0.00, 0.00, 0.00, 0.00, 0.00
195, 1337.06, 66450.52, 3735.60, 28291.50, -19150.79, -3881.76, 9207.51, -54297.10, -7953.58, 37633.92, 6305.78, -12665.24, 0.00, 0.00, 0.00, 0.00, 0.00, 0.00, 0.00
196, 1337.06, 66450.52, 3735.60, 28291.50, -19150.79, -3881.76, 9207.51, -54297.10, -7951.19, 37666.09, 6334.93, -12670.51, 0.00, 0.00, 0.00, 0.00, 0.00, 0.00, 0.00
197, 1320.68, 66430.77, 3717.03, 28269.37, -19165.62, -3899.22, 9184.89, -54312.59, -7951.19, 37666.09, 6334.93, -12670.51, 0.00, 0.00, 0.00, 0.00, 0.11, 0.37, 0.94
198, 1320.68, 66430.77, 3717.03, 28269.37, -19165.62, -3899.22, 9184.89, -54312.59, -7955.99, 37632.09, 6300.76, -12647.71, 0.00, 0.00, 0.00, 0.00, 0.00, 0.00, 0.00
199, 1330.35, 66445.90, 3730.68, 28286.67, -19156.90, -3885.76, 9202.06, -54299.65, -7955.99, 37632.09, 6300.76, -12647.71, 0.00, 0.00, 0.00, 0.00, 0.00, 0.00, 0.00
200, 1330.35, 66445.90, 3730.68, 28286.67, -19156.90, -3885.76, 9202.06, -54299.65, -7954.00, 37666.51, 6333.61, -12689.22, 0.00, 0.00, 0.00, 0.00, 0.00, 0.00, 0.00
201, 1330.33, 66438.26, 3722.10, 28276.32, -19161.77, -3893.00, 9191.66, -54307.18, -7954.00, 37666.51, 6333.61, -12689.22, 0.00, 0.00, 0.00, 0.00, 0.00, 0.00, 0.00
202, 1330.33, 66438.26, 3722.10, 28276.32, -19161.77, -3893.00, 9191.66, -54307.18, -7951.52, 37630.90, 6303.91, -12649.95, 0.00, 0.00, 0.00, 0.00, 0.00, 0.00, 0.00
203, 1340.28, 66451.09, 3732.36, 28288.14, -19154.93, -3885.69, 9204.83, -54299.18, -7951.52, 37630.90, 6303.91, -12649.95, 0.00, 0.00, 0.00, 0.00, 0.00, 0.00, 0.00
204, 1340.28, 66451.09, 3732.36, 28288.14, -19154.93, -3885.69, 9204.83, -54299.18, -7950.27, 37668.32, 6342.84, -12678.54, 0.00, 0.00, 0.00, 0.00, 0.00, 0.00, 0.00
205, 1340.23, 66451.13, 3733.08, 28283.96, -19153.81, -3889.09, 9200.02, -54301.91, -7950.27, 37668.32, 6342.84, -12678.54, 0.00, 0.00, 0.00, 0.00, 0.00, 0.00, 0.00
206, 1340.23, 66451.13, 3733.08, 28283.96, -19153.81, -3889.09, 9200.02, -54301.91, -7957.85, 37628.64, 6302.63, -12647.29, 0.00, 0.00, 0.00, 0.00, 0.00, 0.00, 0.00
207, 1334.60, 66450.03, 3733.70, 28283.85, -19154.46, -3890.75, 9202.24, -54302.18, -7957.85, 37628.64, 6302.63, -12647.29, 0.00, 0.00, 0.00, 0.00, 0.11, 0.38, 0.95
208, 1334.60, 66450.03, 3733.70, 28283.85, -19154.46, -3890.75, 9202.24, -54302.18, -7949.93, 37670.60, 6346.93, -12681.62, 0.00, 0.00, 0.00, 0.00, 0.00, 0.00, 0.00
209, 1346.42, 66453.50, 3736.00, 28288.17, -19148.34, -3884.91, 9207.29, -54295.76, -7949.93, 37670.60, 6346.93, -12681.62, 0.00, 0.00, 0.00, 0.00, 0.00, 0.00, 0.00
210, 1346.42, 66453.50, 3736.00, 28288.17, -19148.34, -3884.91, 9207.29, -54295.76, -7954.54, 37629.74, 6306.12, -12656.43, 0.00, 0.00, 0.00, 0.00, 0.00, 0.00, 0.00
211, 1337.51, 66443.89, 3728.11, 28281.46, -19158.46, -3892.62, 9200.67, -54303.63, -7954.54, 37629.74, 6306.12, -12656.43, 0.00, 0.00, 0.00, 0.00, 0.00, 0.00, 0.00
212, 1337.51, 66443.89, 3728.11, 28281.46, -19158.46, -3892.62, 9200.67, -54303.63, -7950.98, 37665.66, 6335.96, -12675.14, 0.00, 0.00, 0.00, 0.00, 0.00, 0.00, 0.00
213, 1341.71, 66450.46, 3734.82, 28290.45, -19152.00, -3883.39, 9211.62, -54291.58, -7950.98, 37665.66, 6335.96, -12675.14, 0.00, 0.00, 0.00, 0.00, 0.00, 0.00, 0.00
214, 1341.71, 66450.46, 3734.82, 28290.45, -19152.00, -3883.39, 9211.62, -54291.58, -7955.59, 37631.84, 6298.83, -12647.60, 0.00, 0.00, 0.00, 0.00, 0.00, 0.00, 0.00
215, 1326.29, 66437.74, 3721.70, 28278.53, -19161.46, -3893.14, 9201.70, -54299.56, -7955.59, 37631.84, 6298.83, -12647.60, 0.00, 0.00, 0.00, 0.00, 0.00, 0.00, 0.00
