%OpenBCI Raw EEG Data
%
%Sample Rate = 250.0 Hz
%First Column = SampleIndex
%Other Columns = EEG data in microvolts followed by Accel Data (in G) interleaved with Aux Data
0, 0.00, 0.00, 0.00, 0.00, 0.00, 0.00, 0.00, 0.00, -8571.18, 37001.75, 4898.92, -15311.55, 0.00, 0.00, 0.00, 0.00, 0.11, 0.38, 0.93
1, 1367.66, 65247.89, 3438.64, 28364.50, -19406.50, -3532.83, 9656.80, -54055.32, -8571.18, 37001.75, 4898.92, -15311.55, 0.00, 0.00, 0.00, 0.00, 0.00, 0.00, 0.00
2, 1367.66, 65247.89, 3438.64, 28364.50, -19406.50, -3532.83, 9656.80, -54055.32, -8576.16, 37082.88, 5008.76, -14675.60, 0.00, 0.00, 0.00, 0.00, 0.00, 0.00, 0.00
3, 1365.27, 65240.27, 3432.98, 28354.82, -19414.50, -3539.47, 9645.72, -54064.71, -8576.16, 37082.88, 5008.76, -14675.60, 0.00, 0.00, 0.00, 0.00, 0.00, 0.00, 0.00
4, 1365.27, 65240.27, 3432.98, 28354.82, -19414.50, -3539.47, 9645.72, -54064.71, -8587.79, 37036.48, 4966.51, -14637.55, 0.00, 0.00, 0.00, 0.00, 0.00, 0.00, 0.00
5, 1368.60, 65249.19, 3438.03, 28364.05, -19410.14, -3535.93, 9650.03, -54060.13, -8587.79, 37036.48, 4966.51, -14637.55, 0.00, 0.00, 0.00, 0.00, 0.00, 0.00, 0.00
6, 1368.60, 65249.19, 3438.03, 28364.05, -19410.14, -3535.93, 9650.03, -54060.13, -8573.26, 37085.16, 5013.72, -14661.85, 0.00, 0.00, 0.00, 0.00, 0.11, 0.38, 0.94
7, 1371.57, 65252.99, 3441.07, 28363.13, -19406.21, -3533.54, 9653.05, -54056.02, -8573.26, 37085.16, 5013.72, -14661.85, 0.00, 0.00, 0.00, 0.00, 0.00, 0.00, 0.00
8, 1371.57, 65252.99, 3441.07, 28363.13, -19406.21, -3533.54, 9653.05, -54056.02, -8577.26, 37045.15, 4973.89, -14636.37, 0.00, 0.00, 0.00, 0.00, 0.00, 0.00, 0.00
9, 1364.66, 65247.80, 3436.33, 28357.14, -19411.46, -3539.29, 9650.54, -54059.19, -8577.26, 37045.15, 4973.89, -14636.37, 0.00, 0.00, 0.00, 0.00, 0.00, 0.00, 0.00
10, 1364.66, 65247.80, 3436.33, 28357.14, -19411.46, -3539.29, 9650.54, -54059.19, -8569.50, 37088.92, 5012.33, -14675.53, 0.00, 0.00, 0.00, 0.00, 0.00, 0.00, 0.00
11, 1361.20, 65251.87, 3439.87, 28360.14, -19403.19, -3533.74, 9657.34, -54051.86, -8569.50, 37088.92, 5012.33, -14675.53, 0.00, 0.00, 0.00, 0.00, 0.00, 0.00, 0.00
12, 1361.20, 65251.87, 3439.87, 28360.14, -19403.19, -3533.74, 9657.34, -54051.86, -8580.63, 37044.21, 4969.11, -14639.41, 0.00, 0.00, 0.00, 0.00, 0.00, 0.00, 0.00
13, 1354.49, 65231.13, 3419.64, 28346.39, -19423.24, -3547.83, 9634.05, -54070.63, -8580.63, 37044.21, 4969.11, -14639.41, 0.00, 0.00, 0.00, 0.00, 0.00, 0.00, 0.00
14, 1354.49, 65231.13, 3419.64, 28346.39, -19423.24, -3547.83, 9634.05, -54070.63, -8582.35, 37074.41, 4992.84, -14661.65, 0.00, 0.00, 0.00, 0.00, 0.00, 0.00, 0.00
15, 1364.31, 65244.85, 3432.13, 28361.08, -19411.75, -3535.82, 9646.68, -54056.46, -8582.35, 37074.41, 4992.84, -14661.65, 0.00, 0.00, 0.00, 0.00, 0.00, 0.00, 0.00
16, 1364.31, 65244.85, 3432.13, 28361.08, -19411.75, -3535.82, 9646.68, -54056.46, -8584.81, 37045.20, 4964.64, -14645.09, 0.00, 0.00, 0.00, 0.00, 0.11, 0.38, 0.94
17, 1355.07, 65233.72, 3423.80, 28347.98, -19417.85, -3547.80, 9629.24, -54069.83, -8584.81, 37045.20, 4964.64, -14645.09, 0.00, 0.00, 0.00, 0.00, 0.00, 0.00, 0.00
18, 1355.07, 65233.72, 3423.80, 28347.98, -19417.85, -3547.80, 9629.24, -54069.83, -8567.78, 37082.17, 5004.44, -14654.94, 0.00, 0.00, 0.00, 0.00, 0.00, 0.00, 0.00
19, 1375.88, 65259.92, 3448.16, 28375.25, -19395.37, -3525.67, 9651.64, -54045.78, -8567.78, 37082.17, 5004.44, -14654.94, 0.00, 0.00, 0.00, 0.00, 0.00, 0.00, 0.00
20, 1375.88, 65259.92, 3448.16, 28375.25, -19395.37, -3525.67, 9651.64, -54045.78, -8575.83, 37056.87, 4980.08, -14637.15, 0.00, 0.00, 0.00, 0.00, 0.00, 0.00, 0.00
21, 1357.82, 65235.00, 3425.27, 28350.10, -19415.93, -3546.73, 9620.64, -54068.91, -8575.83, 37056.87, 4980.08, -14637.15, 0.00, 0.00, 0.00, 0.00, 0.00, 0.00, 0.00
22, 1357.82, 65235.00, 3425.27, 28350.10, -19415.93, -3546.73, 9620.64, -54068.91, -8569.17, 37082.14, 5001.76, -14651.32, 0.00, 0.00, 0.00, 0.00, 0.00, 0.00, 0.00
23, 1371.79, 65264.72, 3450.06, 28377.35, -19395.77, -3522.57, 9644.64, -54043.03, -8569.17, 37082.14, 5001.76, -14651.32, 0.00, 0.00, 0.00, 0.00, 0.00, 0.00, 0.00
24, 1371.79, 65264.72, 3450.06, 28377.35, -19395.77, -3522.57, 9644.64, -54043.03, -8576.65, 37062.07, 4979.01, -14638.69, 0.00, 0.00, 0.00, 0.00, 0.00, 0.00, 0.00
25, 1345.95, 65226.32, 3416.80, 28344.78, -19421.83, -3551.54, 9605.10, -54073.20, -8576.65, 37062.07, 4979.01, -14638.69, 0.00, 0.00, 0.00, 0.00, 0.00, 0.00, 0.00
26, 1345.95, 65226.32, 3416.80, 28344.78, -19421.83, -3551.54, 9605.10, -54073.20, -8574.96, 37072.49, 4985.47, -14663.88, 0.00, 0.00, 0.00, 0.00, 0.11, 0.37, 0.94
27, 1370.65, 65255.65, 3443.67, 28377.60, -19399.73, -3522.93, 9630.23, -54046.52, -8574.96, 37072.49, 4985.47, -14663.88, 0.00, 0.00, 0.00, 0.00, 0.00, 0.00, 0.00
28, 1370.65, 65255.65, 3443.67, 28377.60, -19399.73, -3522.93, 9630.23, -54046.52, -8581.44, 37058.99, 4979.52, -14647.34, 0.00, 0.00, 0.00, 0.00, 0.00, 0.00, 0.00
29, 1355.03, 65227.89, 3418.65, 28345.97, -19421.27, -3551.09, 9589.86, -54077.59, -8581.44, 37058.99, 4979.52, -14647.34, 0.00, 0.00, 0.00, 0.00, 0.00, 0.00, 0.00
30, 1355.03, 65227.89, 3418.65, 28345.97, -19421.27, -3551.09, 9589.86, -54077.59, -8575.60, 37060.73, 4983.41, -14646.70, 0.00, 0.00, 0.00, 0.00, 0.00, 0.00, 0.00
31, 1376.00, 65265.86, 3449.88, 28380.28, -19395.44, -3523.19, 9620.68, -54045.82, -8575.60, 37060.73, 4983.41, -14646.70, 0.00, 0.00, 0.00, 0.00, 0.00, 0.00, 0.00
32, 1376.00, 65265.86, 3449.88, 28380.28, -19395.44, -3523.19, 9620.68, -54045.82, -8574.73, 37067.82, 4986.76, -14650.94, 0.00, 0.00, 0.00, 0.00, 0.00, 0.00, 0.00
33, 1350.94, 65230.79, 3421.02, 28345.14, -19421.30, -3551.25, 9580.29, -54074.61, -8574.73, 37067.82, 4986.76, -14650.94, 0.00, 0.00, 0.00, 0.00, 0.00, 0.00, 0.00
34, 1350.94, 65230.79, 3421.02, 28345.14, -19421.30, -3551.25, 9580.29, -54074.61, -8577.17, 37056.15, 4974.07, -14642.65, 0.00, 0.00, 0.00, 0.00, 0.00, 0.00, 0.00
35, 1366.68, 65256.74, 3442.48, 28373.35, -19398.81, -3526.28, 9604.03, -54048.91, -8577.17, 37056.15, 4974.07, -14642.65, 0.00, 0.00, 0.00, 0.00, 0.00, 0.00, 0.00
36, 1366.68, 65256.74, 3442.48, 28373.35, -19398.81, -3526.28, 9604.03, -54048.91, -8573.88, 37071.75, 4989.78, -14654.41, 0.00, 0.00, 0.00, 0.00, 0.11, 0.37, 0.94
37, 1350.34, 65227.06, 3418.54, 28344.87, -19418.64, -3549.03, 9565.12, -54073.56, -8573.88, 37071.75, 4989.78, -14654.41, 0.00, 0.00, 0.00, 0.00, 0.00, 0.00, 0.00
38, 1350.34, 65227.06, 3418.54, 28344.87, -19418.64, -3549.03, 9565.12, -54073.56, -8575.85, 37051.10, 4966.80, -14644.71, 0.00, 0.00, 0.00, 0.00, 0.00, 0.00, 0.00
39, 1364.33, 65252.05, 3439.35, 28370.15, -19399.59, -3527.91, 9587.04, -54049.51, -8575.85, 37051.10, 4966.80, -14644.71, 0.00, 0.00, 0.00, 0.00, 0.00, 0.00, 0.00
40, 1364.33, 65252.05, 3439.35, 28370.15, -19399.59, -3527.91, 9587.04, -54049.51, -8574.13, 37072.73, 4988.40, -14670.23, 0.00, 0.00, 0.00, 0.00, 0.00, 0.00, 0.00
41, 1344.66, 65225.96, 3418.50, 28344.18, -19419.33, -3551.36, 9550.34, -54073.92, -8574.13, 37072.73, 4988.40, -14670.23, 0.00, 0.00, 0.00, 0.00, 0.00, 0.00, 0.00
42, 1344.66, 65225.96, 3418.50, 28344.18, -19419.33, -3551.36, 9550.34, -54073.92, -8576.45, 37047.55, 4964.23, -14640.57, 0.00, 0.00, 0.00, 0.00, 0.00, 0.00, 0.00
43, 1363.12, 65254.44, 3440.27, 28370.67, -19401.04, -3529.45, 9571.58, -54050.45, -8576.45, 37047.55, 4964.23, -14640.57, 0.00, 0.00, 0.00, 0.00, 0.00, 0.00, 0.00
44, 1363.12, 65254.44, 3440.27, 28370.67, -19401.04, -3529.45, 9571.58, -54050.45, -8573.46, 37081.79, 4995.48, -14652.53, 0.00, 0.00, 0.00, 0.00, 0.00, 0.00, 0.00
45, 1351.90, 65231.69, 3423.12, 28346.66, -19414.93, -3549.32, 9539.14, -54073.11, -8573.46, 37081.79, 4995.48, -14652.53, 0.00, 0.00, 0.00, 0.00, 0.11, 0.38, 0.94
46, 1351.90, 65231.69, 3423.12, 28346.66, -19414.93, -3549.32, 9539.14, -54073.11, -8575.76, 37045.27, 4965.15, -14633.22, 0.00, 0.00, 0.00, 0.00, 0.00, 0.00, 0.00
47, 1360.08, 65245.63, 3437.68, 28366.29, -19404.87, -3533.68, 9555.62, -54053.36, -8575.76, 37045.27, 4965.15, -14633.22, 0.00, 0.00, 0.00, 0.00, 0.00, 0.00, 0.00
48, 1360.08, 65245.63, 3437.68, 28366.29, -19404.87, -3533.68, 9555.62, -54053.36, -8569.12, 37080.74, 4999.73, -14678.10, 0.00, 0.00, 0.00, 0.00, 0.00, 0.00, 0.00
49, 1351.97, 65232.54, 3424.11, 28348.47, -19414.17, -3548.36, 9525.20, -54070.90, -8569.12, 37080.74, 4999.73, -14678.10, 0.00, 0.00, 0.00, 0.00, 0.00, 0.00, 0.00
50, 1351.97, 65232.54, 3424.11, 28348.47, -19414.17, -3548.36, 9525.20, -54070.90, -8585.35, 37028.70, 4955.78, -14657.54, 0.00, 0.00, 0.00, 0.00, 0.00, 0.00, 0.00
51, 1352.28, 65242.30, 3428.31, 28357.46, -19414.34, -3542.77, 9524.26, -54067.08, -8585.35, 37028.70, 4955.78, -14657.54, 0.00, 0.00, 0.00, 0.00, 0.00, 0.00, 0.00
52, 1352.28, 65242.30, 3428.31, 28357.46, -19414.34, -3542.77, 9524.26, -54067.08, -8576.07, 37075.26, 4992.73, -14653.27, 0.00, 0.00, 0.00, 0.00, 0.00, 0.00, 0.00
53, 1350.89, 65237.81, 3426.37, 28353.12, -19414.37, -3544.58, 9514.78, -54069.25, -8576.07, 37075.26, 4992.73, -14653.27, 0.00, 0.00, 0.00, 0.00, 0.00, 0.00, 0.00
54, 1350.89, 65237.81, 3426.37, 28353.12, -19414.37, -3544.58, 9514.78, -54069.25, -8576.61, 37039.79, 4961.17, -14634.02, 0.00, 0.00, 0.00, 0.00, 0.00, 0.00, 0.00
55, 1356.21, 65241.99, 3429.58, 28360.83, -19409.74, -3540.20, 9512.10, -54062.01, -8576.61, 37039.79, 4961.17, -14634.02, 0.00, 0.00, 0.00, 0.00, 0.11, 0.38, 0.93
56, 1356.21, 65241.99, 3429.58, 28360.83, -19409.74, -3540.20, 9512.10, -54062.01, -8566.19, 37086.10, 5000.69, -14665.29, 0.00, 0.00, 0.00, 0.00, 0.00, 0.00, 0.00
57, 1356.91, 65242.01, 3431.51, 28358.15, -19406.86, -3539.26, 9505.71, -54060.42, -8566.19, 37086.10, 5000.69, -14665.29, 0.00, 0.00, 0.00, 0.00, 0.00, 0.00, 0.00
58, 1356.91, 65242.01, 3431.51, 28358.15, -19406.86, -3539.26, 9505.71, -54060.42, -8579.25, 37036.93, 4955.20, -14648.28, 0.00, 0.00, 0.00, 0.00, 0.00, 0.00, 0.00
59, 1346.60, 65234.64, 3422.79, 28350.33, -19418.41, -3547.56, 9488.67, -54068.80, -8579.25, 37036.93, 4955.20, -14648.28, 0.00, 0.00, 0.00, 0.00, 0.00, 0.00, 0.00
60, 1346.60, 65234.64, 3422.79, 28350.33, -19418.41, -3547.56, 9488.67, -54068.80, -8567.22, 37083.84, 4993.29, -14657.51, 0.00, 0.00, 0.00, 0.00, 0.00, 0.00, 0.00
61, 1358.49, 65255.96, 3438.61, 28367.02, -19403.86, -3534.59, 9496.43, -54053.64, -8567.22, 37083.84, 4993.29, -14657.51, 0.00, 0.00, 0.00, 0.00, 0.00, 0.00, 0.00
62, 1358.49, 65255.96, 3438.61, 28367.02, -19403.86, -3534.59, 9496.43, -54053.64, -8575.27, 37044.48, 4964.48, -14629.69, 0.00, 0.00, 0.00, 0.00, 0.00, 0.00, 0.00
63, 1348.21, 65231.69, 3421.94, 28349.41, -19417.83, -3548.70, 9468.40, -54071.15, -8575.27, 37044.48, 4964.48, -14629.69, 0.00, 0.00, 0.00, 0.00, 0.00, 0.00, 0.00
64, 1348.21, 65231.69, 3421.94, 28349.41, -19417.83, -3548.70, 9468.40, -54071.15, -8569.70, 37073.90, 4994.85, -14667.88, 0.00, 0.00, 0.00, 0.00, 0.00, 0.00, 0.00
65, 1361.60, 65249.86, 3439.51, 28369.68, -19402.21, -3531.71, 9480.96, -54051.66, -8569.70, 37073.90, 4994.85, -14667.88, 0.00, 0.00, 0.00, 0.00, 0.11, 0.38, 0.94
66, 1361.60, 65249.86, 3439.51, 28369.68, -19402.21, -3531.71, 9480.96, -54051.66, -8577.39, 37045.24, 4959.29, -14638.20, 0.00, 0.00, 0.00, 0.00, 0.00, 0.00, 0.00
67, 1345.62, 65227.39, 3417.83, 28346.84, -19423.24, -3552.36, 9449.33, -54074.19, -8577.39, 37045.24, 4959.29, -14638.20, 0.00, 0.00, 0.00, 0.00, 0.00, 0.00, 0.00
68, 1345.62, 65227.39, 3417.83, 28346.84, -19423.24, -3552.36, 9449.33, -54074.19, -8571.54, 37070.03, 4988.48, -14654.45, 0.00, 0.00, 0.00, 0.00, 0.00, 0.00, 0.00
69, 1357.35, 65249.61, 3435.73, 28367.78, -19402.05, -3533.79, 9467.37, -54053.67, -8571.54, 37070.03, 4988.48, -14654.45, 0.00, 0.00, 0.00, 0.00, 0.00, 0.00, 0.00
70, 1357.35, 65249.61, 3435.73, 28367.78, -19402.05, -3533.79, 9467.37, -54053.67, -8576.39, 37048.37, 4962.38, -14645.82, 0.00, 0.00, 0.00, 0.00, 0.00, 0.00, 0.00
71, 1338.53, 65226.64, 3413.54, 28344.34, -19425.03, -3553.61, 9432.10, -54077.74, -8576.39, 37048.37, 4962.38, -14645.82, 0.00, 0.00, 0.00, 0.00, 0.00, 0.00, 0.00
72, 1338.53, 65226.64, 3413.54, 28344.34, -19425.03, -3553.61, 9432.10, -54077.74, -8573.12, 37063.48, 4977.13, -14661.67, 0.00, 0.00, 0.00, 0.00, 0.00, 0.00, 0.00
73, 1361.11, 65251.13, 3436.80, 28368.34, -19402.03, -3532.42, 9454.63, -54050.32, -8573.12, 37063.48, 4977.13, -14661.67, 0.00, 0.00, 0.00, 0.00, 0.00, 0.00, 0.00
74, 1361.11, 65251.13, 3436.80, 28368.34, -19402.03, -3532.42, 9454.63, -54050.32, -8572.65, 37058.27, 4967.43, -14642.14, 0.00, 0.00, 0.00, 0.00, 0.00, 0.00, 0.00
75, 1343.76, 65221.76, 3413.27, 28340.65, -19424.71, -3557.70, 9419.81, -54075.20, -8572.65, 37058.27, 4967.43, -14642.14, 0.00, 0.00, 0.00, 0.00, 0.11, 0.38, 0.94
76, 1343.76, 65221.76, 3413.27, 28340.65, -19424.71, -3557.70, 9419.81, -54075.20, -8572.92, 37060.53, 4973.04, -14654.63, 0.00, 0.00, 0.00, 0.00, 0.00, 0.00, 0.00
77, 1367.66, 65261.01, 3443.29, 28372.48, -19402.32, -3531.62, 9443.86, -54050.81, -8572.92, 37060.53, 4973.04, -14654.63, 0.00, 0.00, 0.00, 0.00, 0.00, 0.00, 0.00
78, 1367.66, 65261.01, 3443.29, 28372.48, -19402.32, -3531.62, 9443.86, -54050.81, -8573.06, 37057.76, 4978.72, -14636.91, 0.00, 0.00, 0.00, 0.00, 0.00, 0.00, 0.00
79, 1348.37, 65234.17, 3422.48, 28345.34, -19419.13, -3554.20, 9408.74, -54075.08, -8573.06, 37057.76, 4978.72, -14636.91, 0.00, 0.00, 0.00, 0.00, 0.00, 0.00, 0.00
80, 1348.37, 65234.17, 3422.48, 28345.34, -19419.13, -3554.20, 9408.74, -54075.08, -8571.47, 37058.32, 4977.49, -14648.93, 0.00, 0.00, 0.00, 0.00, 0.00, 0.00, 0.00
81, 1367.99, 65264.21, 3446.08, 28375.72, -19397.38, -3529.85, 9436.15, -54049.18, -8571.47, 37058.32, 4977.49, -14648.93, 0.00, 0.00, 0.00, 0.00, 0.00, 0.00, 0.00
82, 1367.99, 65264.21, 3446.08, 28375.72, -19397.38, -3529.85, 9436.15, -54049.18, -8573.15, 37065.81, 4978.11, -14641.76, 0.00, 0.00, 0.00, 0.00, 0.00, 0.00, 0.00
83, 1342.76, 65226.79, 3414.54, 28341.83, -19424.31, -3556.65, 9395.80, -54074.90, -8573.15, 37065.81, 4978.11, -14641.76, 0.00, 0.00, 0.00, 0.00, 0.00, 0.00, 0.00
84, 1342.76, 65226.79, 3414.54, 28341.83, -19424.31, -3556.65, 9395.80, -54074.90, -8572.23, 37055.79, 4964.99, -14644.88, 0.00, 0.00, 0.00, 0.00, 0.11, 0.38, 0.94
85, 1359.79, 65253.59, 3438.39, 28372.10, -19399.06, -3530.12, 9424.37, -54043.99, -8572.23, 37055.79, 4964.99, -14644.88, 0.00, 0.00, 0.00, 0.00, 0.00, 0.00, 0.00
86, 1359.79, 65253.59, 3438.39, 28372.10, -19399.06, -3530.12, 9424.37, -54043.99, -8567.69, 37078.46, 4985.06, -14640.68, 0.00, 0.00, 0.00, 0.00, 0.00, 0.00, 0.00
87, 1342.85, 65222.39, 3412.84, 28343.96, -19421.10, -3555.58, 9385.90, -54073.59, -8567.69, 37078.46, 4985.06, -14640.68, 0.00, 0.00, 0.00, 0.00, 0.00, 0.00, 0.00
88, 1342.85, 65222.39, 3412.84, 28343.96, -19421.10, -3555.58, 9385.90, -54073.59, -8579.85, 37043.68, 4953.79, -14649.13, 0.00, 0.00, 0.00, 0.00, 0.00, 0.00, 0.00
89, 1355.10, 65247.24, 3431.95, 28364.56, -19407.97, -3540.31, 9403.74, -54057.87, -8579.85, 37043.68, 4953.79, -14649.13, 0.00, 0.00, 0.00, 0.00, 0.00, 0.00, 0.00
90, 1355.10, 65247.24, 3431.95, 28364.56, -19407.97, -3540.31, 9403.74, -54057.87, -8576.07, 37070.10, 4983.28, -14656.15, 0.00, 0.00, 0.00, 0.00, 0.00, 0.00, 0.00
91, 1347.99, 65231.55, 3417.58, 28347.33, -19423.75, -3554.78, 9375.48, -54077.43, -8576.07, 37070.10, 4983.28, -14656.15, 0.00, 0.00, 0.00, 0.00, 0.00, 0.00, 0.00
92, 1347.99, 65231.55, 3417.58, 28347.33, -19423.75, -3554.78, 9375.48, -54077.43, -8586.13, 37032.86, 4944.34, -14645.09, 0.00, 0.00, 0.00, 0.00, 0.00, 0.00, 0.00
93, 1358.56, 65245.19, 3429.99, 28365.50, -19411.69, -3540.70, 9392.09, -54060.62, -8586.13, 37032.86, 4944.34, -14645.09, 0.00, 0.00, 0.00, 0.00, 0.00, 0.00, 0.00
94, 1358.56, 65245.19, 3429.99, 28365.50, -19411.69, -3540.70, 9392.09, -54060.62, -8572.94, 37076.91, 4987.59, -14661.04, 0.00, 0.00, 0.00, 0.00, 0.10, 0.38, 0.94
95, 1349.62, 65234.32, 3420.87, 28347.89, -19419.71, -3553.68, 9369.45, -54074.57, -8572.94, 37076.91, 4987.59, -14661.04, 0.00, 0.00, 0.00, 0.00, 0.00, 0.00, 0.00
96, 1349.62, 65234.32, 3420.87, 28347.89, -19419.71, -3553.68, 9369.45, -54074.57, -8583.63, 37034.85, 4950.84, -14628.25, 0.00, 0.00, 0.00, 0.00, 0.00, 0.00, 0.00
97, 1355.28, 65245.34, 3431.98, 28360.16, -19408.69, -3546.08, 9381.65, -54061.63, -8583.63, 37034.85, 4950.84, -14628.25, 0.00, 0.00, 0.00, 0.00, 0.00, 0.00, 0.00
98, 1355.28, 65245.34, 3431.98, 28360.16, -19408.69, -3546.08, 9381.65, -54061.63, -8567.38, 37079.38, 4994.94, -14652.91, 0.00, 0.00, 0.00, 0.00, 0.00, 0.00, 0.00
99, 1351.57, 65244.49, 3430.81, 28352.74, -19411.01, -3549.08, 9371.84, -54064.84, -8567.38, 37079.38, 4994.94, -14652.91, 0.00, 0.00, 0.00, 0.00, 0.00, 0.00, 0.00
100, 1351.57, 65244.49, 3430.81, 28352.74, -19411.01, -3549.08, 9371.84, -54064.84, -8574.58, 37040.08, 4961.17, -14639.59, 0.00, 0.00, 0.00, 0.00, 0.00, 0.00, 0.00
101, 1356.75, 65249.48, 3430.59, 28357.17, -19409.90, -3547.04, 9371.48, -54061.61, -8574.58, 37040.08, 4961.17, -14639.59, 0.00, 0.00, 0.00, 0.00, 0.00, 0.00, 0.00
102, 1356.75, 65249.48, 3430.59, 28357.17, -19409.90, -3547.04, 9371.48, -54061.61, -8572.81, 37078.10, 4993.45, -14674.37, 0.00, 0.00, 0.00, 0.00, 0.00, 0.00, 0.00
103, 1361.33, 65251.58, 3434.26, 28358.60, -19409.20, -3545.77, 9368.15, -54063.97, -8572.81, 37078.10, 4993.45, -14674.37, 0.00, 0.00, 0.00, 0.00, 0.00, 0.00, 0.00
104, 1361.33, 65251.58, 3434.26, 28358.60, -19409.20, -3545.77, 9368.15, -54063.97, -8575.18, 37039.90, 4958.62, -14612.72, 0.00, 0.00, 0.00, 0.00, 0.11, 0.38, 0.95
105, 1359.05, 65247.85, 3431.60, 28354.73, -19410.63, -3550.31, 9362.41, -54063.64, -8575.18, 37039.90, 4958.62, -14612.72, 0.00, 0.00, 0.00, 0.00, 0.00, 0.00, 0.00
106, 1359.05, 65247.85, 3431.60, 28354.73, -19410.63, -3550.31, 9362.41, -54063.64, -8567.62, 37080.13, 4997.72, -14656.04, 0.00, 0.00, 0.00, 0.00, 0.00, 0.00, 0.00
107, 1363.75, 65255.60, 3438.75, 28362.22, -19404.80, -3544.92, 9363.26, -54059.12, -8567.62, 37080.13, 4997.72, -14656.04, 0.00, 0.00, 0.00, 0.00, 0.00, 0.00, 0.00
108, 1363.75, 65255.60, 3438.75, 28362.22, -19404.80, -3544.92, 9363.26, -54059.12, -8581.15, 37034.87, 4957.06, -14655.61, 0.00, 0.00, 0.00, 0.00, 0.00, 0.00, 0.00
109, 1349.78, 65239.98, 3424.60, 28346.73, -19416.27, -3557.66, 9347.12, -54069.74, -8581.15, 37034.87, 4957.06, -14655.61, 0.00, 0.00, 0.00, 0.00, 0.00, 0.00, 0.00
110, 1349.78, 65239.98, 3424.60, 28346.73, -19416.27, -3557.66, 9347.12, -54069.74, -8564.54, 37077.45, 4994.43, -14640.62, 0.00, 0.00, 0.00, 0.00, 0.00, 0.00, 0.00
111, 1364.15, 65253.37, 3436.65, 28362.46, -19406.10, -3544.70, 9359.82, -54057.18, -8564.54, 37077.45, 4994.43, -14640.62, 0.00, 0.00, 0.00, 0.00, 0.00, 0.00, 0.00
112, 1364.15, 65253.37, 3436.65, 28362.46, -19406.10, -3544.70, 9359.82, -54057.18, -8578.49, 37039.57, 4956.03, -14628.61, 0.00, 0.00, 0.00, 0.00, 0.00, 0.00, 0.00
113, 1348.08, 65234.05, 3420.17, 28344.56, -19421.52, -3558.96, 9337.62, -54072.11, -8578.49, 37039.57, 4956.03, -14628.61, 0.00, 0.00, 0.00, 0.00, 0.00, 0.00, 0.00
114, 1348.08, 65234.05, 3420.17, 28344.56, -19421.52, -3558.96, 9337.62, -54072.11, -8567.80, 37074.03, 4991.70, -14654.00, 0.00, 0.00, 0.00, 0.00, 0.11, 0.38, 0.94
115, 1364.17, 65257.10, 3441.19, 28367.02, -19401.94, -3539.85, 9359.59, -54051.63, -8567.80, 37074.03, 4991.70, -14654.00, 0.00, 0.00, 0.00, 0.00, 0.00, 0.00, 0.00
116, 1364.17, 65257.10, 3441.19, 28367.02, -19401.94, -3539.85, 9359.59, -54051.63, -8573.97, 37053.87, 4961.77, -14638.42, 0.00, 0.00, 0.00, 0.00, 0.00, 0.00, 0.00
117, 1345.57, 65233.99, 3419.44, 28342.21, -19418.81, -3560.01, 9333.37, -54067.30, -8573.97, 37053.87, 4961.77, -14638.42, 0.00, 0.00, 0.00, 0.00, 0.00, 0.00, 0.00
118, 1345.57, 65233.99, 3419.44, 28342.21, -19418.81, -3560.01, 9333.37, -54067.30, -8561.86, 37082.55, 4989.80, -14637.20, 0.00, 0.00, 0.00, 0.00, 0.00, 0.00, 0.00
119, 1364.51, 65261.66, 3442.66, 28370.44, -19397.80, -3535.53, 9359.73, -54042.70, -8561.86, 37082.55, 4989.80, -14637.20, 0.00, 0.00, 0.00, 0.00, 0.00, 0.00, 0.00
120, 1364.51, 65261.66, 3442.66, 28370.44, -19397.80, -3535.53, 9359.73, -54042.70, -8568.52, 37058.18, 4974.22, -14628.19, 0.00, 0.00, 0.00, 0.00, 0.00, 0.00, 0.00
121, 1351.23, 65239.26, 3422.95, 28339.37, -19419.35, -3562.04, 9324.37, -54070.23, -8568.52, 37058.18, 4974.22, -14628.19, 0.00, 0.00, 0.00, 0.00, 0.00, 0.00, 0.00
122, 1351.23, 65239.26, 3422.95, 28339.37, -19419.35, -3562.04, 9324.37, -54070.23, -8568.65, 37065.38, 4990.61, -14647.19, 0.00, 0.00, 0.00, 0.00, 0.00, 0.00, 0.00
123, 1366.54, 65267.18, 3445.32, 28368.43, -19399.62, -3540.85, 9349.29, -54050.56, -8568.65, 37065.38, 4990.61, -14647.19, 0.00, 0.00, 0.00, 0.00, 0.00, 0.00, 0.00
124, 1366.54, 65267.18, 3445.32, 28368.43, -19399.62, -3540.85, 9349.29, -54050.56, -8578.51, 37049.29, 4977.11, -14653.78, 0.00, 0.00, 0.00, 0.00, 0.11, 0.38, 0.93
125, 1346.96, 65233.45, 3418.70, 28335.91, -19423.98, -3567.85, 9314.40, -54078.66, -8578.51, 37049.29, 4977.11, -14653.78, 0.00, 0.00, 0.00, 0.00, 0.00, 0.00, 0.00
126, 1346.96, 65233.45, 3418.70, 28335.91, -19423.98, -3567.85, 9314.40, -54078.66, -8569.95, 37058.21, 4979.12, -14643.97, 0.00, 0.00, 0.00, 0.00, 0.00, 0.00, 0.00
127, 1366.05, 65262.75, 3442.06, 28369.95, -19400.42, -3539.98, 9344.15, -54048.35, -8569.95, 37058.21, 4979.12, -14643.97, 0.00, 0.00, 0.00, 0.00, 0.00, 0.00, 0.00
128, 1366.05, 65262.75, 3442.06, 28369.95, -19400.42, -3539.98, 9344.15, -54048.35, -8570.20, 37062.25, 4984.24, -14631.36, 0.00, 0.00, 0.00, 0.00, 0.00, 0.00, 0.00
129, 1348.66, 65237.07, 3420.80, 28337.12, -19420.56, -3564.72, 9309.64, -54072.29, -8570.20, 37062.25, 4984.24, -14631.36, 0.00, 0.00, 0.00, 0.00, 0.00, 0.00, 0.00
130, 1348.66, 65237.07, 3420.80, 28337.12, -19420.56, -3564.72, 9309.64, -54072.29, -8564.83, 37059.50, 4976.41, -14642.92, 0.00, 0.00, 0.00, 0.00, 0.00, 0.00, 0.00
131, 1368.13, 65269.17, 3444.94, 28366.71, -19398.47, -3542.30, 9338.11, -54046.79, -8564.83, 37059.50, 4976.41, -14642.92, 0.00, 0.00, 0.00, 0.00, 0.00, 0.00, 0.00
132, 1368.13, 65269.17, 3444.94, 28366.71, -19398.47, -3542.30, 9338.11, -54046.79, -8565.75, 37069.41, 4994.36, -14657.47, 0.00, 0.00, 0.00, 0.00, 0.00, 0.00, 0.00
133, 1348.32, 65237.63, 3420.11, 28335.80, -19418.37, -3566.58, 9302.86, -54075.35, -8565.75, 37069.41, 4994.36, -14657.47, 0.00, 0.00, 0.00, 0.00, 0.11, 0.38, 0.94
134, 1348.32, 65237.63, 3420.11, 28335.80, -19418.37, -3566.58, 9302.86, -54075.35, -8569.99, 37050.12, 4973.60, -14615.42, 0.00, 0.00, 0.00, 0.00, 0.00, 0.00, 0.00
135, 1362.00, 65263.14, 3443.13, 28362.98, -19400.42, -3544.43, 9332.05, -54051.12, -8569.99, 37050.12, 4973.60, -14615.42, 0.00, 0.00, 0.00, 0.00, 0.00, 0.00, 0.00
136, 1362.00, 65263.14, 3443.13, 28362.98, -19400.42, -3544.43, 9332.05, -54051.12, -8571.76, 37067.64, 4991.84, -14646.25, 0.00, 0.00, 0.00, 0.00, 0.00, 0.00, 0.00
137, 1346.65, 65240.18, 3425.70, 28340.20, -19414.10, -3565.26, 9300.29, -54069.23, -8571.76, 37067.64, 4991.84, -14646.25, 0.00, 0.00, 0.00, 0.00, 0.00, 0.00, 0.00
138, 1346.65, 65240.18, 3425.70, 28340.20, -19414.10, -3565.26, 9300.29, -54069.23, -8569.95, 37044.89, 4970.65, -14649.42, 0.00, 0.00, 0.00, 0.00, 0.00, 0.00, 0.00
139, 1366.56, 65262.58, 3440.00, 28361.14, -19401.54, -3548.27, 9325.04, -54053.33, -8569.95, 37044.89, 4970.65, -14649.42, 0.00, 0.00, 0.00, 0.00, 0.00, 0.00, 0.00
140, 1366.56, 65262.58, 3440.00, 28361.14, -19401.54, -3548.27, 9325.04, -54053.33, -8563.91, 37077.79, 4998.03, -14648.13, 0.00, 0.00, 0.00, 0.00, 0.00, 0.00, 0.00
141, 1351.43, 65240.18, 3425.40, 28340.47, -19413.05, -3563.18, 9299.96, -54066.01, -8563.91, 37077.79, 4998.03, -14648.13, 0.00, 0.00, 0.00, 0.00, 0.00, 0.00, 0.00
142, 1351.43, 65240.18, 3425.40, 28340.47, -19413.05, -3563.18, 9299.96, -54066.01, -8569.35, 37041.55, 4961.68, -14620.48, 0.00, 0.00, 0.00, 0.00, 0.00, 0.00, 0.00
143, 1356.77, 65253.82, 3435.93, 28354.37, -19402.83, -3551.98, 9313.77, -54054.52, -8569.35, 37041.55, 4961.68, -14620.48, 0.00, 0.00, 0.00, 0.00, 0.11, 0.38, 0.94
144, 1356.77, 65253.82, 3435.93, 28354.37, -19402.83, -3551.98, 9313.77, -54054.52, -8560.07, 37080.87, 4999.64, -14657.71, 0.00, 0.00, 0.00, 0.00, 0.00, 0.00, 0.00
145, 1350.20, 65242.77, 3426.81, 28344.16, -19411.30, -3561.62, 9298.06, -54066.72, -8560.07, 37080.87, 4999.64, -14657.71, 0.00, 0.00, 0.00, 0.00, 0.00, 0.00, 0.00
146, 1350.20, 65242.77, 3426.81, 28344.16, -19411.30, -3561.62, 9298.06, -54066.72, -8571.51, 37038.36, 4955.18, -14622.85, 0.00, 0.00, 0.00, 0.00, 0.00, 0.00, 0.00
147, 1352.64, 65254.08, 3431.71, 28350.06, -19406.10, -3556.94, 9302.59, -54059.75, -8571.51, 37038.36, 4955.18, -14622.85, 0.00, 0.00, 0.00, 0.00, 0.00, 0.00, 0.00
148, 1352.64, 65254.08, 3431.71, 28350.06, -19406.10, -3556.94, 9302.59, -54059.75, -8563.13, 37078.64, 4999.50, -14651.37, 0.00, 0.00, 0.00, 0.00, 0.00, 0.00, 0.00
149, 1353.58, 65242.91, 3426.90, 28345.99, -19410.79, -3560.48, 9295.60, -54061.98, -8563.13, 37078.64, 4999.50, -14651.37, 0.00, 0.00, 0.00, 0.00, 0.00, 0.00, 0.00
150, 1353.58, 65242.91, 3426.90, 28345.99, -19410.79, -3560.48, 9295.60, -54061.98, -8578.29, 37034.65, 4954.26, -14625.04, 0.00, 0.00, 0.00, 0.00, 0.00, 0.00, 0.00
151, 1351.34, 65242.28, 3425.18, 28345.41, -19412.82, -3562.80, 9291.75, -54065.20, -8578.29, 37034.65, 4954.26, -14625.04, 0.00, 0.00, 0.00, 0.00, 0.00, 0.00, 0.00
152, 1351.34, 65242.28, 3425.18, 28345.41, -19412.82, -3562.80, 9291.75, -54065.20, -8565.86, 37076.89, 4999.39, -14661.83, 0.00, 0.00, 0.00, 0.00, 0.00, 0.00, 0.00
153, 1355.72, 65251.67, 3431.40, 28350.64, -19405.94, -3558.64, 9293.12, -54061.16, -8565.86, 37076.89, 4999.39, -14661.83, 0.00, 0.00, 0.00, 0.00, 0.11, 0.37, 0.95
154, 1355.72, 65251.67, 3431.40, 28350.64, -19405.94, -3558.64, 9293.12, -54061.16, -8573.95, 37037.53, 4964.79, -14622.26, 0.00, 0.00, 0.00, 0.00, 0.00, 0.00, 0.00
155, 1347.27, 65246.57, 3425.70, 28341.01, -19409.90, -3565.66, 9285.70, -54065.22, -8573.95, 37037.53, 4964.79, -14622.26, 0.00, 0.00, 0.00, 0.00, 0.00, 0.00, 0.00
156, 1347.27, 65246.57, 3425.70, 28341.01, -19409.90, -3565.66, 9285.70, -54065.22, -8561.61, 37080.54, 5001.49, -14655.84, 0.00, 0.00, 0.00, 0.00, 0.00, 0.00, 0.00
157, 1359.54, 65255.91, 3436.16, 28353.72, -19400.40, -3554.80, 9294.57, -54055.93, -8561.61, 37080.54, 5001.49, -14655.84, 0.00, 0.00, 0.00, 0.00, 0.00, 0.00, 0.00
158, 1359.54, 65255.91, 3436.16, 28353.72, -19400.40, -3554.80, 9294.57, -54055.93, -8569.21, 37041.42, 4965.89, -14631.03, 0.00, 0.00, 0.00, 0.00, 0.00, 0.00, 0.00
159, 1338.22, 65239.26, 3418.39, 28334.79, -19415.64, -3569.84, 9276.15, -54066.39, -8569.21, 37041.42, 4965.89, -14631.03, 0.00, 0.00, 0.00, 0.00, 0.00, 0.00, 0.00
160, 1338.22, 65239.26, 3418.39, 28334.79, -19415.64, -3569.84, 9276.15, -54066.39, -8552.76, 37087.27, 5000.69, -14624.54, 0.00, 0.00, 0.00, 0.00, 0.00, 0.00, 0.00
161, 1357.40, 65251.40, 3429.94, 28351.51, -19398.54, -3554.93, 9294.03, -54048.53, -8552.76, 37087.27, 5000.69, -14624.54, 0.00, 0.00, 0.00, 0.00, 0.00, 0.00, 0.00
162, 1357.40, 65251.40, 3429.94, 28351.51, -19398.54, -3554.93, 9294.03, -54048.53, -8568.29, 37047.03, 4966.67, -14622.80, 0.00, 0.00, 0.00, 0.00, 0.00, 0.00, 0.00
163, 1336.77, 65230.66, 3413.31, 28330.39, -19417.65, -3573.33, 9270.72, -54067.97, -8568.29, 37047.03, 4966.67, -14622.80, 0.00, 0.00, 0.00, 0.00, 0.11, 0.38, 0.94
164, 1336.77, 65230.66, 3413.31, 28330.39, -19417.65, -3573.33, 9270.72, -54067.97, -8552.60, 37079.44, 4997.47, -14651.77, 0.00, 0.00, 0.00, 0.00, 0.00, 0.00, 0.00
165, 1354.54, 65257.82, 3436.49, 28352.81, -19393.69, -3553.75, 9296.09, -54044.71, -8552.60, 37079.44, 4997.47, -14651.77, 0.00, 0.00, 0.00, 0.00, 0.00, 0.00, 0.00
166, 1354.54, 65257.82, 3436.49, 28352.81, -19393.69, -3553.75, 9296.09, -54044.71, -8559.42, 37055.77, 4978.92, -14622.98, 0.00, 0.00, 0.00, 0.00, 0.00, 0.00, 0.00
167, 1344.28, 65240.54, 3419.62, 28330.61, -19412.67, -3571.88, 9272.04, -54064.40, -8559.42, 37055.77, 4978.92, -14622.98, 0.00, 0.00, 0.00, 0.00, 0.00, 0.00, 0.00
168, 1344.28, 65240.54, 3419.62, 28330.61, -19412.67, -3571.88, 9272.04, -54064.40, -8546.01, 37083.11, 4998.86, -14620.32, 0.00, 0.00, 0.00, 0.00, 0.00, 0.00, 0.00
169, 1358.61, 65261.82, 3441.10, 28357.79, -19390.76, -3549.01, 9299.02, -54039.39, -8546.01, 37083.11, 4998.86, -14620.32, 0.00, 0.00, 0.00, 0.00, 0.00, 0.00, 0.00
170, 1358.61, 65261.82, 3441.10, 28357.79, -19390.76, -3549.01, 9299.02, -54039.39, -8559.96, 37063.37, 4984.57, -14621.37, 0.00, 0.00, 0.00, 0.00, 0.00, 0.00, 0.00
171, 1336.92, 65233.74, 3419.30, 28327.93, -19412.06, -3574.83, 9270.18, -54069.05, -8559.96, 37063.37, 4984.57, -14621.37, 0.00, 0.00, 0.00, 0.00, 0.00, 0.00, 0.00
172, 1336.92, 65233.74, 3419.30, 28327.93, -19412.06, -3574.83, 9270.18, -54069.05, -8557.25, 37068.73, 4994.16, -14629.69, 0.00, 0.00, 0.00, 0.00, 0.11, 0.38, 0.94
173, 1360.13, 65264.45, 3442.64, 28355.13, -19393.31, -3553.52, 9292.51, -54043.92, -8557.25, 37068.73, 4994.16, -14629.69, 0.00, 0.00, 0.00, 0.00, 0.00, 0.00, 0.00
174, 1360.13, 65264.45, 3442.64, 28355.13, -19393.31, -3553.52, 9292.51, -54043.92, -8561.83, 37065.05, 4991.57, -14653.07, 0.00, 0.00, 0.00, 0.00, 0.00, 0.00, 0.00
175, 1340.61, 65232.43, 3415.86, 28323.93, -19415.04, -3577.51, 9258.90, -54069.52, -8561.83, 37065.05, 4991.57, -14653.07, 0.00, 0.00, 0.00, 0.00, 0.00, 0.00, 0.00
176, 1340.61, 65232.43, 3415.86, 28323.93, -19415.04, -3577.51, 9258.90, -54069.52, -8560.07, 37060.22, 4986.23, -14617.64, 0.00, 0.00, 0.00, 0.00, 0.00, 0.00, 0.00
177, 1358.87, 65263.27, 3441.10, 28354.95, -19395.28, -3553.99, 9287.62, -54045.84, -8560.07, 37060.22, 4986.23, -14617.64, 0.00, 0.00, 0.00, 0.00, 0.00, 0.00, 0.00
178, 1358.87, 65263.27, 3441.10, 28354.95, -19395.28, -3553.99, 9287.62, -54045.84, -8561.97, 37064.51, 4991.08, -14618.49, 0.00, 0.00, 0.00, 0.00, 0.00, 0.00, 0.00
179, 1337.55, 65229.38, 3413.96, 28322.92, -19418.64, -3581.20, 9254.38, -54074.14, -8561.97, 37064.51, 4991.08, -14618.49, 0.00, 0.00, 0.00, 0.00, 0.00, 0.00, 0.00
180, 1337.55, 65229.38, 3413.96, 28322.92, -19418.64, -3581.20, 9254.38, -54074.14, -8556.87, 37055.77, 4977.42, -14635.85, 0.00, 0.00, 0.00, 0.00, 0.00, 0.00, 0.00
181, 1351.99, 65254.82, 3436.07, 28351.44, -19397.78, -3558.02, 9284.09, -54047.37, -8556.87, 37055.77, 4977.42, -14635.85, 0.00, 0.00, 0.00, 0.00, 0.00, 0.00, 0.00
182, 1351.99, 65254.82, 3436.07, 28351.44, -19397.78, -3558.02, 9284.09, -54047.37, -8557.66, 37073.03, 4995.30, -14641.15, 0.00, 0.00, 0.00, 0.00, 0.10, 0.38, 0.94
183, 1337.91, 65230.70, 3414.41, 28322.79, -19415.95, -3580.24, 9254.72, -54071.57, -8557.66, 37073.03, 4995.30, -14641.15, 0.00, 0.00, 0.00, 0.00, 0.00, 0.00, 0.00
184, 1337.91, 65230.70, 3414.41, 28322.79, -19415.95, -3580.24, 9254.72, -54071.57, -8561.30, 37047.41, 4971.07, -14619.85, 0.00, 0.00, 0.00, 0.00, 0.00, 0.00, 0.00
185, 1352.95, 65250.51, 3431.24, 28345.88, -19400.75, -3562.35, 9275.30, -54048.64, -8561.30, 37047.41, 4971.07, -14619.85, 0.00, 0.00, 0.00, 0.00, 0.00, 0.00, 0.00
186, 1352.95, 65250.51, 3431.24, 28345.88, -19400.75, -3562.35, 9275.30, -54048.64, -8553.19, 37079.53, 5001.96, -14627.81, 0.00, 0.00, 0.00, 0.00, 0.00, 0.00, 0.00
187, 1342.49, 65234.66, 3419.73, 28326.07, -19411.60, -3576.23, 9255.10, -54066.03, -8553.19, 37079.53, 5001.96, -14627.81, 0.00, 0.00, 0.00, 0.00, 0.00, 0.00, 0.00
188, 1342.49, 65234.66, 3419.73, 28326.07, -19411.60, -3576.23, 9255.10, -54066.03, -8562.06, 37049.13, 4973.20, -14635.50, 0.00, 0.00, 0.00, 0.00, 0.00, 0.00, 0.00
189, 1355.59, 65260.48, 3438.59, 28345.81, -19397.65, -3562.31, 9275.95, -54049.09, -8562.06, 37049.13, 4973.20, -14635.50, 0.00, 0.00, 0.00, 0.00, 0.00, 0.00, 0.00
190, 1355.59, 65260.48, 3438.59, 28345.81, -19397.65, -3562.31, 9275.95, -54049.09, -8545.92, 37080.74, 5016.22, -14635.79, 0.00, 0.00, 0.00, 0.00, 0.00, 0.00, 0.00
191, 1348.06, 65248.14, 3428.00, 28326.34, -19404.17, -3576.82, 9255.14, -54065.34, -8545.92, 37080.74, 5016.22, -14635.79, 0.00, 0.00, 0.00, 0.00, 0.00, 0.00, 0.00
192, 1348.06, 65248.14, 3428.00, 28326.34, -19404.17, -3576.82, 9255.14, -54065.34, -8559.33, 37040.28, 4979.12, -14608.65, 0.00, 0.00, 0.00, 0.00, 0.11, 0.39, 0.93
193, 1357.85, 65260.95, 3441.10, 28342.75, -19396.80, -3563.56, 9268.44, -54051.66, -8559.33, 37040.28, 4979.12, -14608.65, 0.00, 0.00, 0.00, 0.00, 0.00, 0.00, 0.00
194, 1357.85, 65260.95, 3441.10, 28342.75, -19396.80, -3563.56, 9268.44, -54051.66, -8547.69, 37087.62, 5019.67, -14648.42, 0.00, 0.00, 0.00, 0.00, 0.00, 0.00, 0.00
195, 1353.80, 65249.46, 3433.16, 28332.87, -19401.54, -3573.31, 9259.30, -54057.91, -8547.69, 37087.62, 5019.67, -14648.42, 0.00, 0.00, 0.00, 0.00, 0.00, 0.00, 0.00
196, 1353.80, 65249.46, 3433.16, 28332.87, -19401.54, -3573.31, 9259.30, -54057.91, -8558.80, 37041.42, 4973.82, -14621.21, 0.00, 0.00, 0.00, 0.00, 0.00, 0.00, 0.00
197, 1354.83, 65253.08, 3434.01, 28336.22, -19401.87, -3571.29, 9261.53, -54056.57, -8558.80, 37041.42, 4973.82, -14621.21, 0.00, 0.00, 0.00, 0.00, 0.00, 0.00, 0.00
198, 1354.83, 65253.08, 3434.01, 28336.22, -19401.87, -3571.29, 9261.53, -54056.57, -8549.56, 37085.48, 5017.65, -14630.60, 0.00, 0.00, 0.00, 0.00, 0.00, 0.00, 0.00
199, 1350.74, 65256.18, 3435.64, 28336.02, -19400.75, -3569.04, 9259.14, -54057.00, -8549.56, 37085.48, 5017.65, -14630.60, 0.00, 0.00, 0.00, 0.00, 0.00, 0.00, 0.00
200, 1350.74, 65256.18, 3435.64, 28336.02, -19400.75, -3569.04, 9259.14, -54057.00, -8567.76, 37034.45, 4970.78, -14629.44, 0.00, 0.00, 0.00, 0.00, 0.00, 0.00, 0.00
201, 1350.27, 65246.55, 3427.35, 28328.96, -19410.39, -3578.09, 9252.50, -54064.64, -8567.76, 37034.45, 4970.78, -14629.44, 0.00, 0.00, 0.00, 0.00, 0.00, 0.00, 0.00
202, 1350.27, 65246.55, 3427.35, 28328.96, -19410.39, -3578.09, 9252.50, -54064.64, -8559.33, 37078.61, 5009.29, -14650.47, 0.00, 0.00, 0.00, 0.00, 0.11, 0.39, 0.94
203, 1353.00, 65250.64, 3432.20, 28334.39, -19404.13, -3571.76, 9256.19, -54059.05, -8559.33, 37078.61, 5009.29, -14650.47, 0.00, 0.00, 0.00, 0.00, 0.00, 0.00, 0.00
204, 1353.00, 65250.64, 3432.20, 28334.39, -19404.13, -3571.76, 9256.19, -54059.05, -8569.77, 37035.92, 4967.41, -14613.19, 0.00, 0.00, 0.00, 0.00, 0.00, 0.00, 0.00
205, 1341.60, 65242.41, 3425.00, 28324.96, -19408.96, -3580.12, 9249.40, -54066.25, -8569.77, 37035.92, 4967.41, -14613.19, 0.00, 0.00, 0.00, 0.00, 0.00, 0.00, 0.00
206, 1341.60, 65242.41, 3425.00, 28324.96, -19408.96, -3580.12, 9249.40, -54066.25, -8552.29, 37079.53, 5012.67, -14637.08, 0.00, 0.00, 0.00, 0.00, 0.00, 0.00, 0.00
207, 1356.97, 65257.73, 3438.61, 28341.56, -19393.96, -3565.91, 9262.54, -54051.34, -8552.29, 37079.53, 5012.67, -14637.08, 0.00, 0.00, 0.00, 0.00, 0.00, 0.00, 0.00
208, 1356.97, 65257.73, 3438.61, 28341.56, -19393.96, -3565.91, 9262.54, -54051.34, -8566.89, 37042.02, 4975.30, -14627.99, 0.00, 0.00, 0.00, 0.00, 0.00, 0.00, 0.00
209, 1335.29, 65237.61, 3419.62, 28318.25, -19412.82, -3584.28, 9240.84, -54066.57, -8566.89, 37042.02, 4975.30, -14627.99, 0.00, 0.00, 0.00, 0.00, 0.00, 0.00, 0.00
210, 1335.29, 65237.61, 3419.62, 28318.25, -19412.82, -3584.28, 9240.84, -54066.57, -8555.89, 37077.03, 5005.36, -14642.36, 0.00, 0.00, 0.00, 0.00, 0.00, 0.00, 0.00
211, 1357.38, 65261.84, 3441.34, 28343.69, -19394.96, -3564.05, 9262.83, -54046.96, -8555.89, 37077.03, 5005.36, -14642.36, 0.00, 0.00, 0.00, 0.00, 0.10, 0.38, 0.94
212, 1357.38, 65261.84, 3441.34, 28343.69, -19394.96, -3564.05, 9262.83, -54046.96, -8561.28, 37046.96, 4983.01, -14620.10, 0.00, 0.00, 0.00, 0.00, 0.00, 0.00, 0.00
213, 1343.79, 65239.80, 3421.58, 28318.81, -19412.96, -3585.80, 9236.66, -54066.79, -8561.28, 37046.96, 4983.01, -14620.10, 0.00, 0.00, 0.00, 0.00, 0.00, 0.00, 0.00
214, 1343.79, 65239.80, 3421.58, 28318.81, -19412.96, -3585.80, 9236.66, -54066.79, -8552.11, 37074.99, 5004.51, -14636.68, 0.00, 0.00, 0.00, 0.00, 0.00, 0.00, 0.00
215, 1359.86, 65264.23, 3443.53, 28343.20, -19391.50, -3563.70, 9264.37, -54043.32, -8552.11, 37074.99, 5004.51, -14636.68, 0.00, 0.00, 0.00, 0.00, 0.00, 0.00, 0.00
216, 1359.86, 65264.23, 3443.53, 28343.20, -19391.50, -3563.70, 9264.37, -54043.32, -8557.41, 37054.32, 4984.13, -14621.88, 0.00, 0.00, 0.00, 0.00, 0.00, 0.00, 0.00
217, 1338.67, 65234.41, 3419.91, 28316.55, -19414.26, -3587.88, 9231.78, -54071.13, -8557.41, 37054.32, 4984.13, -14621.88, 0.00, 0.00, 0.00, 0.00, 0.00, 0.00, 0.00
218, 1338.67, 65234.41, 3419.91, 28316.55, -19414.26, -3587.88, 9231.78, -54071.13, -8551.06, 37068.54, 5000.55, -14635.61, 0.00, 0.00, 0.00, 0.00, 0.00, 0.00, 0.00
219, 1351.30, 65266.09, 3443.49, 28342.32, -19394.14, -3564.97, 9262.50, -54045.24, -8551.06, 37068.54, 5000.55, -14635.61, 0.00, 0.00, 0.00, 0.00, 0.00, 0.00, 0.00
220, 1351.30, 65266.09, 3443.49, 28342.32, -19394.14, -3564.97, 9262.50, -54045.24, -8560.65, 37056.44, 4989.56, -14635.39, 0.00, 0.00, 0.00, 0.00, 0.00, 0.00, 0.00
221, 1346.29, 65238.97, 3420.49, 28313.94, -19412.11, -3590.14, 9230.20, -54067.86, -8560.65, 37056.44, 4989.56, -14635.39, 0.00, 0.00, 0.00, 0.00, 0.10, 0.38, 0.94
222, 1346.29, 65238.97, 3420.49, 28313.94, -19412.11, -3590.14, 9230.20, -54067.86, -8551.11, 37065.61, 5008.74, -14627.74, 0.00, 0.00, 0.00, 0.00, 0.00, 0.00, 0.00
223, 1381.00, 65286.79, 3472.61, 28364.47, -19367.05, -3550.33, 9277.78, -54028.88, -8551.11, 37065.61, 5008.74, -14627.74, 0.00, 0.00, 0.00, 0.00, 0.00, 0.00, 0.00
224, 1381.00, 65286.79, 3472.61, 28364.47, -19367.05, -3550.33, 9277.78, -54028.88, -8548.80, 37068.64, 5021.30, -14605.50, 0.00, 0.00, 0.00, 0.00, 0.00, 0.00, 0.00
225, 1342.96, 65234.66, 3417.20, 28308.84, -19421.86, -3594.05, 9222.58, -54074.90, -8548.80, 37068.64, 5021.30, -14605.50, 0.00, 0.00, 0.00, 0.00, 0.00, 0.00, 0.00
226, 1342.96, 65234.66, 3417.20, 28308.84, -19421.86, -3594.05, 9222.58, -54074.90, -8565.61, 37046.03, 4966.18, -14634.16, 0.00, 0.00, 0.00, 0.00, 0.00, 0.00, 0.00
227, 1369.13, 65275.41, 3451.33, 28340.58, -19396.31, -3567.45, 9258.11, -54048.10, -8565.61, 37046.03, 4966.18, -14634.16, 0.00, 0.00, 0.00, 0.00, 0.00, 0.00, 0.00
228, 1369.13, 65275.41, 3451.33, 28340.58, -19396.31, -3567.45, 9258.11, -54048.10, -8558.57, 37067.55, 5005.29, -14647.34, 0.00, 0.00, 0.00, 0.00, 0.00, 0.00, 0.00
229, 1351.97, 65248.41, 3425.52, 28303.28, -19426.93, -3598.94, 9216.32, -54076.94, -8558.57, 37067.55, 5005.29, -14647.34, 0.00, 0.00, 0.00, 0.00, 0.00, 0.00, 0.00
230, 1351.97, 65248.41, 3425.52, 28303.28, -19426.93, -3598.94, 9216.32, -54076.94, -8569.52, 37041.22, 4992.64, -14635.81, 0.00, 0.00, 0.00, 0.00, 0.00, 0.00, 0.00
231, 1374.83, 65279.43, 3453.08, 28323.77, -19406.28, -3579.14, 9244.64, -54056.29, -8569.52, 37041.22, 4992.64, -14635.81, 0.00, 0.00, 0.00, 0.00, 0.10, 0.38, 0.94
232, 1374.83, 65279.43, 3453.08, 28323.77, -19406.28, -3579.14, 9244.64, -54056.29, -8563.80, 37062.75, 5016.69, -14625.86, 0.00, 0.00, 0.00, 0.00, 0.00, 0.00, 0.00
233, 1362.88, 65257.05, 3439.08, 28294.45, -19420.22, -3598.54, 9218.73, -54075.15, -8563.80, 37062.75, 5016.69, -14625.86, 0.00, 0.00, 0.00, 0.00, 0.00, 0.00, 0.00
234, 1362.88, 65257.05, 3439.08, 28294.45, -19420.22, -3598.54, 9218.73, -54075.15, -8567.16, 37039.70, 5000.08, -14623.72, 0.00, 0.00, 0.00, 0.00, 0.00, 0.00, 0.00
235, 1372.55, 65279.25, 3454.57, 28318.07, -19406.70, -3578.94, 9245.71, -54053.18, -8567.16, 37039.70, 5000.08, -14623.72, 0.00, 0.00, 0.00, 0.00, 0.00, 0.00, 0.00
236, 1372.55, 65279.25, 3454.57, 28318.07, -19406.70, -3578.94, 9245.71, -54053.18, -8558.33, 37073.14, 5036.38, -14656.73, 0.00, 0.00, 0.00, 0.00, 0.00, 0.00, 0.00
237, 1364.04, 65262.40, 3444.47, 28304.33, -19414.10, -3594.21, 9225.06, -54071.35, -8558.33, 37073.14, 5036.38, -14656.73, 0.00, 0.00, 0.00, 0.00, 0.00, 0.00, 0.00
238, 1364.04, 65262.40, 3444.47, 28304.33, -19414.10, -3594.21, 9225.06, -54071.35, -8562.91, 37041.62, 5006.25, -14610.02, 0.00, 0.00, 0.00, 0.00, 0.00, 0.00, 0.00
239, 1380.49, 65282.94, 3461.99, 28329.09, -19400.93, -3574.87, 9247.23, -54050.76, -8562.91, 37041.62, 5006.25, -14610.02, 0.00, 0.00, 0.00, 0.00, 0.00, 0.00, 0.00
240, 1380.49, 65282.94, 3461.99, 28329.09, -19400.93, -3574.87, 9247.23, -54050.76, -8554.79, 37080.61, 5045.21, -14628.99, 0.00, 0.00, 0.00, 0.00, 0.00, 0.00, 0.00
241, 1376.73, 65272.63, 3452.96, 28313.63, -19405.67, -3587.34, 9231.05, -54063.23, -8554.79, 37080.61, 5045.21, -14628.99, 0.00, 0.00, 0.00, 0.00, 0.11, 0.38, 0.94
242, 1376.73, 65272.63, 3452.96, 28313.63, -19405.67, -3587.34, 9231.05, -54063.23, -8566.71, 37038.65, 5009.20, -14619.43, 0.00, 0.00, 0.00, 0.00, 0.00, 0.00, 0.00
243, 1376.96, 65281.96, 3459.58, 28321.40, -19405.07, -3584.64, 9239.36, -54059.64, -8566.71, 37038.65, 5009.20, -14619.43, 0.00, 0.00, 0.00, 0.00, 0.00, 0.00, 0.00
244, 1376.96, 65281.96, 3459.58, 28321.40, -19405.07, -3584.64, 9239.36, -54059.64, -8556.74, 37076.47, 5047.29, -14648.48, 0.00, 0.00, 0.00, 0.00, 0.00, 0.00, 0.00
245, 1368.66, 65267.47, 3446.88, 28310.05, -19413.88, -3591.72, 9228.59, -54067.04, -8556.74, 37076.47, 5047.29, -14648.48, 0.00, 0.00, 0.00, 0.00, 0.00, 0.00, 0.00
246, 1368.66, 65267.47, 3446.88, 28310.05, -19413.88, -3591.72, 9228.59, -54067.04, -8571.74, 37030.22, 4999.71, -14613.03, 0.00, 0.00, 0.00, 0.00, 0.00, 0.00, 0.00
247, 1364.60, 65269.75, 3450.08, 28313.98, -19412.29, -3590.99, 9230.04, -54064.26, -8571.74, 37030.22, 4999.71, -14613.03, 0.00, 0.00, 0.00, 0.00, 0.00, 0.00, 0.00
248, 1364.60, 65269.75, 3450.08, 28313.98, -19412.29, -3590.99, 9230.04, -54064.26, -8556.99, 37078.35, 5049.08, -14640.44, 0.00, 0.00, 0.00, 0.00, 0.00, 0.00, 0.00
249, 1373.67, 65275.70, 3456.03, 28320.80, -19404.93, -3585.15, 9235.20, -54059.86, -8556.99, 37078.35, 5049.08, -14640.44, 0.00, 0.00, 0.00, 0.00, 0.00, 0.00, 0.00
250, 1373.67, 65275.70, 3456.03, 28320.80, -19404.93, -3585.15, 9235.20, -54059.86, -8569.77, 37034.78, 5005.92, -14625.21, 0.00, 0.00, 0.00, 0.00, 0.11, 0.38, 0.94
251, 1365.76, 65263.89, 3443.89, 28308.10, -19417.45, -3598.05, 9226.58, -54070.57, -8569.77, 37034.78, 5005.92, -14625.21, 0.00, 0.00, 0.00, 0.00, 0.00, 0.00, 0.00
252, 1365.76, 65263.89, 3443.89, 28308.10, -19417.45, -3598.05, 9226.58, -54070.57, -8564.52, 37067.35, 5041.41, -14649.31, 0.00, 0.00, 0.00, 0.00, 0.00, 0.00, 0.00
253, 1375.35, 65272.41, 3454.55, 28322.36, -19406.81, -3586.94, 9233.64, -54061.83, -8564.52, 37067.35, 5041.41, -14649.31, 0.00, 0.00, 0.00, 0.00, 0.00, 0.00, 0.00
254, 1375.35, 65272.41, 3454.55, 28322.36, -19406.81, -3586.94, 9233.64, -54061.83, -8569.43, 37032.50, 5007.08, -14612.52, 0.00, 0.00, 0.00, 0.00, 0.00, 0.00, 0.00
255, 1363.61, 65259.69, 3441.88, 28307.39, -19418.52, -3597.09, 9222.98, -54072.04, -8569.43, 37032.50, 5007.08, -14612.52, 0.00, 0.00, 0.00, 0.00, 0.00, 0.00, 0.00
0, 1363.61, 65259.69, 3441.88, 28307.39, -19418.52, -3597.09, 9222.98, -54072.04, -8559.87, 37072.87, 5038.49, -14642.76, 0.00, 0.00, 0.00, 0.00, 0.00, 0.00, 0.00
1, 1376.42, 65280.66, 3458.49, 28326.57, -19401.83, -3581.22, 9241.60, -54056.08, -8559.87, 37072.87, 5038.49, -14642.76, 0.00, 0.00, 0.00, 0.00, 0.00, 0.00, 0.00
2, 1376.42, 65280.66, 3458.49, 28326.57, -19401.83, -3581.22, 9241.60, -54056.08, -8565.99, 37039.41, 5012.04, -14614.69, 0.00, 0.00, 0.00, 0.00, 0.00, 0.00, 0.00
3, 1364.06, 65262.46, 3443.98, 28306.25, -19414.77, -3599.73, 9221.88, -54072.87, -8565.99, 37039.41, 5012.04, -14614.69, 0.00, 0.00, 0.00, 0.00, 0.00, 0.00, 0.00
4, 1364.06, 65262.46, 3443.98, 28306.25, -19414.77, -3599.73, 9221.88, -54072.87, -8551.24, 37069.16, 5048.28, -14635.12, 0.00, 0.00, 0.00, 0.00, 0.11, 0.39, 0.94
5, 1386.12, 65291.39, 3467.85, 28332.31, -19395.19, -3579.79, 9247.36, -54052.93, -8551.24, 37069.16, 5048.28, -14635.12, 0.00, 0.00, 0.00, 0.00, 0.00, 0.00, 0.00
6, 1386.12, 65291.39, 3467.85, 28332.31, -19395.19, -3579.79, 9247.36, -54052.93, -8562.73, 37042.76, 5025.21, -14612.70, 0.00, 0.00, 0.00, 0.00, 0.00, 0.00, 0.00
7, 1369.67, 65269.66, 3447.71, 28309.09, -19415.46, -3597.33, 9224.39, -54072.11, -8562.73, 37042.76, 5025.21, -14612.70, 0.00, 0.00, 0.00, 0.00, 0.00, 0.00, 0.00
8, 1369.67, 65269.66, 3447.71, 28309.09, -19415.46, -3597.33, 9224.39, -54072.11, -8545.92, 37073.74, 5046.64, -14635.90, 0.00, 0.00, 0.00, 0.00, 0.00, 0.00, 0.00
9, 1387.13, 65292.77, 3467.96, 28333.61, -19389.13, -3575.05, 9252.30, -54042.56, -8545.92, 37073.74, 5046.64, -14635.90, 0.00, 0.00, 0.00, 0.00, 0.00, 0.00, 0.00
10, 1387.13, 65292.77, 3467.96, 28333.61, -19389.13, -3575.05, 9252.30, -54042.56, -8554.30, 37057.05, 5029.16, -14618.87, 0.00, 0.00, 0.00, 0.00, 0.00, 0.00, 0.00
11, 1360.17, 65258.84, 3437.99, 28302.72, -19418.86, -3601.54, 9219.07, -54072.91, -8554.30, 37057.05, 5029.16, -14618.87, 0.00, 0.00, 0.00, 0.00, 0.00, 0.00, 0.00
12, 1360.17, 65258.84, 3437.99, 28302.72, -19418.86, -3601.54, 9219.07, -54072.91, -8554.91, 37064.73, 5029.48, -14615.09, 0.00, 0.00, 0.00, 0.00, 0.00, 0.00, 0.00
13, 1378.23, 65285.89, 3459.02, 28329.40, -19399.03, -3576.75, 9252.53, -54044.55, -8554.91, 37064.73, 5029.48, -14615.09, 0.00, 0.00, 0.00, 0.00, 0.00, 0.00, 0.00
14, 1378.23, 65285.89, 3459.02, 28329.40, -19399.03, -3576.75, 9252.53, -54044.55, -8555.67, 37063.01, 5027.26, -14617.08, 0.00, 0.00, 0.00, 0.00, 0.11, 0.38, 0.94
15, 1364.33, 65260.05, 3438.10, 28302.16, -19417.32, -3603.26, 9218.84, -54071.82, -8555.67, 37063.01, 5027.26, -14617.08, 0.00, 0.00, 0.00, 0.00, 0.00, 0.00, 0.00
16, 1364.33, 65260.05, 3438.10, 28302.16, -19417.32, -3603.26, 9218.84, -54071.82, -8553.50, 37055.19, 5028.23, -14618.80, 0.00, 0.00, 0.00, 0.00, 0.00, 0.00, 0.00
17, 1377.16, 65286.22, 3460.59, 28328.22, -19397.96, -3580.84, 9249.53, -54047.84, -8553.50, 37055.19, 5028.23, -14618.80, 0.00, 0.00, 0.00, 0.00, 0.00, 0.00, 0.00
18, 1377.16, 65286.22, 3460.59, 28328.22, -19397.96, -3580.84, 9249.53, -54047.84, -8555.08, 37064.82, 5031.69, -14628.28, 0.00, 0.00, 0.00, 0.00, 0.00, 0.00, 0.00
19, 1359.77, 65254.57, 3435.15, 28300.12, -19417.61, -3605.72, 9217.79, -54074.59, -8555.08, 37064.82, 5031.69, -14628.28, 0.00, 0.00, 0.00, 0.00, 0.00, 0.00, 0.00
20, 1359.77, 65254.57, 3435.15, 28300.12, -19417.61, -3605.72, 9217.79, -54074.59, -8556.34, 37048.86, 5019.60, -14616.88, 0.00, 0.00, 0.00, 0.00, 0.00, 0.00, 0.00
21, 1377.74, 65287.25, 3459.47, 28328.94, -19397.65, -3581.62, 9246.63, -54050.18, -8556.34, 37048.86, 5019.60, -14616.88, 0.00, 0.00, 0.00, 0.00, 0.00, 0.00, 0.00
22, 1377.74, 65287.25, 3459.47, 28328.94, -19397.65, -3581.62, 9246.63, -54050.18, -8546.10, 37068.29, 5042.15, -14628.01, 0.00, 0.00, 0.00, 0.00, 0.00, 0.00, 0.00
23, 1365.83, 65263.18, 3440.81, 28303.12, -19413.94, -3602.97, 9221.06, -54073.56, -8546.10, 37068.29, 5042.15, -14628.01, 0.00, 0.00, 0.00, 0.00, 0.00, 0.00, 0.00
24, 1365.83, 65263.18, 3440.81, 28303.12, -19413.94, -3602.97, 9221.06, -54073.56, -8552.87, 37044.53, 5016.42, -14619.94, 0.00, 0.00, 0.00, 0.00, 0.11, 0.38, 0.94
25, 1381.94, 65286.22, 3460.61, 28327.15, -19398.16, -3585.29, 9245.89, -54052.44, -8552.87, 37044.53, 5016.42, -14619.94, 0.00, 0.00, 0.00, 0.00, 0.00, 0.00, 0.00
26, 1381.94, 65286.22, 3460.61, 28327.15, -19398.16, -3585.29, 9245.89, -54052.44, -8547.80, 37076.87, 5046.22, -14630.67, 0.00, 0.00, 0.00, 0.00, 0.00, 0.00, 0.00
27, 1371.12, 65268.68, 3445.14, 28304.71, -19411.89, -3601.92, 9223.60, -54068.20, -8547.80, 37076.87, 5046.22, -14630.67, 0.00, 0.00, 0.00, 0.00, 0.00, 0.00, 0.00
28, 1371.12, 65268.68, 3445.14, 28304.71, -19411.89, -3601.92, 9223.60, -54068.20, -8554.73, 37042.52, 5016.54, -14605.52, 0.00, 0.00, 0.00, 0.00, 0.00, 0.00, 0.00
29, 1381.02, 65290.94, 3460.92, 28326.28, -19400.60, -3585.80, 9246.54, -54053.24, -8554.73, 37042.52, 5016.54, -14605.52, 0.00, 0.00, 0.00, 0.00, 0.00, 0.00, 0.00
30, 1381.02, 65290.94, 3460.92, 28326.28, -19400.60, -3585.80, 9246.54, -54053.24, -8548.18, 37077.05, 5049.75, -14634.60, 0.00, 0.00, 0.00, 0.00, 0.00, 0.00, 0.00
31, 1375.77, 65273.42, 3447.73, 28308.33, -19409.83, -3599.35, 9225.70, -54070.12, -8548.18, 37077.05, 5049.75, -14634.60, 0.00, 0.00, 0.00, 0.00, 0.00, 0.00, 0.00
32, 1375.77, 65273.42, 3447.73, 28308.33, -19409.83, -3599.35, 9225.70, -54070.12, -8559.31, 37040.46, 5008.33, -14614.64, 0.00, 0.00, 0.00, 0.00, 0.00, 0.00, 0.00
33, 1383.75, 65288.66, 3459.13, 28324.73, -19401.92, -3589.94, 9241.19, -54056.73, -8559.31, 37040.46, 5008.33, -14614.64, 0.00, 0.00, 0.00, 0.00, 0.11, 0.38, 0.94
34, 1383.75, 65288.66, 3459.13, 28324.73, -19401.92, -3589.94, 9241.19, -54056.73, -8548.96, 37080.38, 5054.42, -14635.03, 0.00, 0.00, 0.00, 0.00, 0.00, 0.00, 0.00
35, 1375.84, 65277.42, 3451.35, 28312.55, -19404.64, -3596.44, 9230.96, -54062.92, -8548.96, 37080.38, 5054.42, -14635.03, 0.00, 0.00, 0.00, 0.00, 0.00, 0.00, 0.00
36, 1375.84, 65277.42, 3451.35, 28312.55, -19404.64, -3596.44, 9230.96, -54062.92, -8561.81, 37033.62, 5011.48, -14603.00, 0.00, 0.00, 0.00, 0.00, 0.00, 0.00, 0.00
37, 1372.91, 65282.00, 3452.90, 28317.49, -19405.29, -3593.24, 9237.82, -54060.73, -8561.81, 37033.62, 5011.48, -14603.00, 0.00, 0.00, 0.00, 0.00, 0.00, 0.00, 0.00
38, 1372.91, 65282.00, 3452.90, 28317.49, -19405.29, -3593.24, 9237.82, -54060.73, -8550.95, 37076.13, 5048.95, -14642.05, 0.00, 0.00, 0.00, 0.00, 0.00, 0.00, 0.00
39, 1375.06, 65275.14, 3449.23, 28312.06, -19404.64, -3597.27, 9235.72, -54062.07, -8550.95, 37076.13, 5048.95, -14642.05, 0.00, 0.00, 0.00, 0.00, 0.00, 0.00, 0.00
40, 1375.06, 65275.14, 3449.23, 28312.06, -19404.64, -3597.27, 9235.72, -54062.07, -8560.14, 37032.08, 5004.73, -14605.32, 0.00, 0.00, 0.00, 0.00, 0.00, 0.00, 0.00
41, 1365.20, 65271.05, 3444.76, 28310.99, -19409.49, -3596.84, 9233.48, -54062.95, -8560.14, 37032.08, 5004.73, -14605.32, 0.00, 0.00, 0.00, 0.00, 0.00, 0.00, 0.00
42, 1365.20, 65271.05, 3444.76, 28310.99, -19409.49, -3596.84, 9233.48, -54062.95, -8543.62, 37083.13, 5047.87, -14639.19, 0.00, 0.00, 0.00, 0.00, 0.00, 0.00, 0.00
43, 1372.96, 65276.50, 3451.49, 28319.66, -19399.10, -3590.56, 9241.98, -54053.36, -8543.62, 37083.13, 5047.87, -14639.19, 0.00, 0.00, 0.00, 0.00, 0.11, 0.37, 0.94
44, 1372.96, 65276.50, 3451.49, 28319.66, -19399.10, -3590.56, 9241.98, -54053.36, -8556.58, 37039.90, 5010.34, -14606.62, 0.00, 0.00, 0.00, 0.00, 0.00, 0.00, 0.00
45, 1361.38, 65269.02, 3442.86, 28308.19, -19410.86, -3601.72, 9232.54, -54063.46, -8556.58, 37039.90, 5010.34, -14606.62, 0.00, 0.00, 0.00, 0.00, 0.00, 0.00, 0.00
46, 1361.38, 65269.02, 3442.86, 28308.19, -19410.86, -3601.72, 9232.54, -54063.46, -8542.61, 37081.74, 5048.68, -14620.90, 0.00, 0.00, 0.00, 0.00, 0.00, 0.00, 0.00
47, 1380.87, 65286.67, 3459.04, 28325.36, -19392.95, -3587.45, 9250.38, -54047.95, -8542.61, 37081.74, 5048.68, -14620.90, 0.00, 0.00, 0.00, 0.00, 0.00, 0.00, 0.00
48, 1380.87, 65286.67, 3459.04, 28325.36, -19392.95, -3587.45, 9250.38, -54047.95, -8553.21, 37046.38, 5015.06, -14605.41, 0.00, 0.00, 0.00, 0.00, 0.00, 0.00, 0.00
49, 1365.62, 65268.23, 3441.21, 28308.17, -19407.66, -3600.91, 9235.72, -54062.27, -8553.21, 37046.38, 5015.06, -14605.41, 0.00, 0.00, 0.00, 0.00, 0.00, 0.00, 0.00
50, 1365.62, 65268.23, 3441.21, 28308.17, -19407.66, -3600.91, 9235.72, -54062.27, -8546.88, 37075.71, 5039.71, -14632.14, 0.00, 0.00, 0.00, 0.00, 0.00, 0.00, 0.00
51, 1373.63, 65280.21, 3456.41, 28326.48, -19393.60, -3586.09, 9247.50, -54050.00, -8546.88, 37075.71, 5039.71, -14632.14, 0.00, 0.00, 0.00, 0.00, 0.00, 0.00, 0.00
52, 1373.63, 65280.21, 3456.41, 28326.48, -19393.60, -3586.09, 9247.50, -54050.00, -8560.58, 37038.70, 5006.34, -14622.02, 0.00, 0.00, 0.00, 0.00, 0.00, 0.00, 0.00
53, 1353.24, 65258.64, 3435.87, 28303.83, -19413.92, -3605.31, 9228.41, -54070.93, -8560.58, 37038.70, 5006.34, -14622.02, 0.00, 0.00, 0.00, 0.00, 0.10, 0.38, 0.94
54, 1353.24, 65258.64, 3435.87, 28303.83, -19413.92, -3605.31, 9228.41, -54070.93, -8546.57, 37070.37, 5034.08, -14629.40, 0.00, 0.00, 0.00, 0.00, 0.00, 0.00, 0.00
55, 1375.73, 65281.13, 3455.91, 28327.86, -19392.44, -3583.97, 9256.97, -54044.93, -8546.57, 37070.37, 5034.08, -14629.40, 0.00, 0.00, 0.00, 0.00, 0.00, 0.00, 0.00
56, 1375.73, 65281.13, 3455.91, 28327.86, -19392.44, -3583.97, 9256.97, -54044.93, -8557.61, 37046.52, 5011.75, -14613.70, 0.00, 0.00, 0.00, 0.00, 0.00, 0.00, 0.00
57, 1350.56, 65250.20, 3429.88, 28298.22, -19414.93, -3606.88, 9227.76, -54068.91, -8557.61, 37046.52, 5011.75, -14613.70, 0.00, 0.00, 0.00, 0.00, 0.00, 0.00, 0.00
58, 1350.56, 65250.20, 3429.88, 28298.22, -19414.93, -3606.88, 9227.76, -54068.91, -8550.75, 37068.73, 5024.54, -14620.63, 0.00, 0.00, 0.00, 0.00, 0.00, 0.00, 0.00
59, 1367.77, 65277.11, 3452.63, 28327.44, -19394.61, -3583.95, 9256.86, -54041.66, -8550.75, 37068.73, 5024.54, -14620.63, 0.00, 0.00, 0.00, 0.00, 0.00, 0.00, 0.00
60, 1367.77, 65277.11, 3452.63, 28327.44, -19394.61, -3583.95, 9256.86, -54041.66, -8554.57, 37053.36, 5017.16, -14614.29, 0.00, 0.00, 0.00, 0.00, 0.00, 0.00, 0.00
61, 1350.87, 65253.41, 3432.04, 28298.04, -19414.19, -3608.98, 9229.15, -54072.27, -8554.57, 37053.36, 5017.16, -14614.29, 0.00, 0.00, 0.00, 0.00, 0.00, 0.00, 0.00
62, 1350.87, 65253.41, 3432.04, 28298.04, -19414.19, -3608.98, 9229.15, -54072.27, -8551.04, 37058.90, 5022.33, -14609.17, 0.00, 0.00, 0.00, 0.00, 0.00, 0.00, 0.00
63, 1372.53, 65276.12, 3455.15, 28331.24, -19393.33, -3581.71, 9258.74, -54043.77, -8551.04, 37058.90, 5022.33, -14609.17, 0.00, 0.00, 0.00, 0.00, 0.11, 0.38, 0.93
64, 1372.53, 65276.12, 3455.15, 28331.24, -19393.33, -3581.71, 9258.74, -54043.77, -8554.48, 37061.05, 5019.80, -14620.57, 0.00, 0.00, 0.00, 0.00, 0.00, 0.00, 0.00
65, 1345.11, 65244.96, 3426.99, 28296.28, -19416.07, -3609.38, 9226.17, -54069.56, -8554.48, 37061.05, 5019.80, -14620.57, 0.00, 0.00, 0.00, 0.00, 0.00, 0.00, 0.00
66, 1345.11, 65244.96, 3426.99, 28296.28, -19416.07, -3609.38, 9226.17, -54069.56, -8552.69, 37053.09, 5013.94, -14625.84, 0.00, 0.00, 0.00, 0.00, 0.00, 0.00, 0.00
67, 1364.82, 65276.05, 3453.39, 28329.49, -19394.45, -3583.07, 9259.84, -54044.73, -8552.69, 37053.09, 5013.94, -14625.84, 0.00, 0.00, 0.00, 0.00, 0.00, 0.00, 0.00
68, 1364.82, 65276.05, 3453.39, 28329.49, -19394.45, -3583.07, 9259.84, -54044.73, -8551.75, 37061.45, 5024.36, -14618.82, 0.00, 0.00, 0.00, 0.00, 0.00, 0.00, 0.00
69, 1351.86, 65248.18, 3429.56, 28302.72, -19411.64, -3605.83, 9230.51, -54068.62, -8551.75, 37061.45, 5024.36, -14618.82, 0.00, 0.00, 0.00, 0.00, 0.00, 0.00, 0.00
70, 1351.86, 65248.18, 3429.56, 28302.72, -19411.64, -3605.83, 9230.51, -54068.62, -8552.49, 37049.89, 5009.54, -14599.89, 0.00, 0.00, 0.00, 0.00, 0.00, 0.00, 0.00
71, 1373.87, 65276.84, 3452.29, 28329.47, -19392.64, -3582.76, 9261.96, -54043.61, -8552.49, 37049.89, 5009.54, -14599.89, 0.00, 0.00, 0.00, 0.00, 0.00, 0.00, 0.00
72, 1373.87, 65276.84, 3452.29, 28329.47, -19392.64, -3582.76, 9261.96, -54043.61, -8550.68, 37071.04, 5028.72, -14630.67, 0.00, 0.00, 0.00, 0.00, 0.11, 0.38, 0.94
73, 1355.74, 65253.70, 3433.54, 28305.53, -19411.55, -3603.24, 9233.48, -54067.10, -8550.68, 37071.04, 5028.72, -14630.67, 0.00, 0.00, 0.00, 0.00, 0.00, 0.00, 0.00
74, 1355.74, 65253.70, 3433.54, 28305.53, -19411.55, -3603.24, 9233.48, -54067.10, -8561.66, 37042.92, 4998.56, -14608.47, 0.00, 0.00, 0.00, 0.00, 0.00, 0.00, 0.00
75, 1367.77, 65271.18, 3446.86, 28324.76, -19400.24, -3587.72, 9254.36, -54050.50, -8561.66, 37042.92, 4998.56, -14608.47, 0.00, 0.00, 0.00, 0.00, 0.00, 0.00, 0.00
76, 1367.77, 65271.18, 3446.86, 28324.76, -19400.24, -3587.72, 9254.36, -54050.50, -8553.12, 37068.80, 5029.10, -14625.04, 0.00, 0.00, 0.00, 0.00, 0.00, 0.00, 0.00
77, 1355.97, 65252.83, 3433.81, 28304.50, -19409.65, -3604.51, 9234.18, -54068.44, -8553.12, 37068.80, 5029.10, -14625.04, 0.00, 0.00, 0.00, 0.00, 0.00, 0.00, 0.00
78, 1355.97, 65252.83, 3433.81, 28304.50, -19409.65, -3604.51, 9234.18, -54068.44, -8563.04, 37032.32, 4996.55, -14605.08, 0.00, 0.00, 0.00, 0.00, 0.00, 0.00, 0.00
79, 1369.38, 65271.65, 3449.03, 28326.92, -19402.23, -3588.28, 9253.20, -54052.24, -8563.04, 37032.32, 4996.55, -14605.08, 0.00, 0.00, 0.00, 0.00, 0.00, 0.00, 0.00
80, 1369.38, 65271.65, 3449.03, 28326.92, -19402.23, -3588.28, 9253.20, -54052.24, -8552.40, 37068.40, 5033.32, -14649.78, 0.00, 0.00, 0.00, 0.00, 0.00, 0.00, 0.00
81, 1366.12, 65265.21, 3444.20, 28315.26, -19400.93, -3596.84, 9244.75, -54057.49, -8552.40, 37068.40, 5033.32, -14649.78, 0.00, 0.00, 0.00, 0.00, 0.00, 0.00, 0.00
82, 1366.12, 65265.21, 3444.20, 28315.26, -19400.93, -3596.84, 9244.75, -54057.49, -8563.76, 37030.92, 4994.25, -14607.83, 0.00, 0.00, 0.00, 0.00, 0.11, 0.38, 0.94
83, 1369.67, 65275.34, 3447.96, 28322.30, -19399.53, -3592.35, 9254.40, -54052.13, -8563.76, 37030.92, 4994.25, -14607.83, 0.00, 0.00, 0.00, 0.00, 0.00, 0.00, 0.00
84, 1369.67, 65275.34, 3447.96, 28322.30, -19399.53, -3592.35, 9254.40, -54052.13, -8554.59, 37072.31, 5035.78, -14624.32, 0.00, 0.00, 0.00, 0.00, 0.00, 0.00, 0.00
85, 1367.97, 65262.96, 3442.12, 28315.26, -19402.92, -3596.51, 9242.56, -54059.37, -8554.59, 37072.31, 5035.78, -14624.32, 0.00, 0.00, 0.00, 0.00, 0.00, 0.00, 0.00
86, 1367.97, 65262.96, 3442.12, 28315.26, -19402.92, -3596.51, 9242.56, -54059.37, -8564.99, 37030.38, 4988.89, -14612.61, 0.00, 0.00, 0.00, 0.00, 0.00, 0.00, 0.00
87, 1359.25, 65262.06, 3439.49, 28316.51, -19407.39, -3597.36, 9244.10, -54059.52, -8564.99, 37030.38, 4988.89, -14612.61, 0.00, 0.00, 0.00, 0.00, 0.00, 0.00, 0.00
88, 1359.25, 65262.06, 3439.49, 28316.51, -19407.39, -3597.36, 9244.10, -54059.52, -8552.31, 37072.71, 5025.81, -14645.73, 0.00, 0.00, 0.00, 0.00, 0.00, 0.00, 0.00
89, 1369.63, 65262.84, 3439.93, 28318.59, -19403.32, -3596.08, 9246.60, -54059.46, -8552.31, 37072.71, 5025.81, -14645.73, 0.00, 0.00, 0.00, 0.00, 0.00, 0.00, 0.00
90, 1369.63, 65262.84, 3439.93, 28318.59, -19403.32, -3596.08, 9246.60, -54059.46, -8563.20, 37030.38, 4982.47, -14596.49, 0.00, 0.00, 0.00, 0.00, 0.00, 0.00, 0.00
91, 1364.08, 65255.04, 3435.11, 28312.89, -19410.59, -3600.28, 9245.69, -54061.87, -8563.20, 37030.38, 4982.47, -14596.49, 0.00, 0.00, 0.00, 0.00, 0.00, 0.00, 0.00
92, 1364.08, 65255.04, 3435.11, 28312.89, -19410.59, -3600.28, 9245.69, -54061.87, -8549.92, 37073.47, 5028.90, -14629.10, 0.00, 0.00, 0.00, 0.00, 0.11, 0.38, 0.94
93, 1368.35, 65267.07, 3444.45, 28321.71, -19399.17, -3593.36, 9249.31, -54054.00, -8549.92, 37073.47, 5028.90, -14629.10, 0.00, 0.00, 0.00, 0.00, 0.00, 0.00, 0.00
94, 1368.35, 65267.07, 3444.45, 28321.71, -19399.17, -3593.36, 9249.31, -54054.00, -8562.62, 37026.56, 4991.66, -14620.16, 0.00, 0.00, 0.00, 0.00, 0.00, 0.00, 0.00
95, 1354.49, 65256.61, 3434.43, 28309.47, -19409.81, -3604.69, 9240.75, -54064.89, -8562.62, 37026.56, 4991.66, -14620.16, 0.00, 0.00, 0.00, 0.00, 0.00, 0.00, 0.00
96, 1354.49, 65256.61, 3434.43, 28309.47, -19409.81, -3604.69, 9240.75, -54064.89, -8549.65, 37071.60, 5029.12, -14630.22, 0.00, 0.00, 0.00, 0.00, 0.00, 0.00, 0.00
97, 1373.87, 65273.35, 3449.75, 28329.00, -19394.23, -3585.85, 9261.02, -54044.97, -8549.65, 37071.60, 5029.12, -14630.22, 0.00, 0.00, 0.00, 0.00, 0.00, 0.00, 0.00
98, 1373.87, 65273.35, 3449.75, 28329.00, -19394.23, -3585.85, 9261.02, -54044.97, -8561.21, 37038.27, 4996.87, -14606.95, 0.00, 0.00, 0.00, 0.00, 0.00, 0.00, 0.00
99, 1354.18, 65254.02, 3431.53, 28306.54, -19410.86, -3605.45, 9238.80, -54067.48, -8561.21, 37038.27, 4996.87, -14606.95, 0.00, 0.00, 0.00, 0.00, 0.00, 0.00, 0.00
100, 1354.18, 65254.02, 3431.53, 28306.54, -19410.86, -3605.45, 9238.80, -54067.48, -8552.49, 37065.07, 5023.04, -14632.55, 0.00, 0.00, 0.00, 0.00, 0.00, 0.00, 0.00
101, 1367.93, 65275.52, 3447.42, 28326.97, -19395.64, -3589.18, 9258.07, -54048.86, -8552.49, 37065.07, 5023.04, -14632.55, 0.00, 0.00, 0.00, 0.00, 0.00, 0.00, 0.00
102, 1367.93, 65275.52, 3447.42, 28326.97, -19395.64, -3589.18, 9258.07, -54048.86, -8560.41, 37036.75, 4997.13, -14611.94, 0.00, 0.00, 0.00, 0.00, 0.10, 0.38, 0.94
103, 1349.55, 65252.34, 3427.13, 28304.55, -19414.32, -3608.00, 9234.40, -54067.95, -8560.41, 37036.75, 4997.13, -14611.94, 0.00, 0.00, 0.00, 0.00, 0.00, 0.00, 0.00
104, 1349.55, 65252.34, 3427.13, 28304.55, -19414.32, -3608.00, 9234.40, -54067.95, -8550.59, 37062.72, 5017.63, -14625.86, 0.00, 0.00, 0.00, 0.00, 0.00, 0.00, 0.00
105, 1368.08, 65271.65, 3447.15, 28331.46, -19395.37, -3587.01, 9263.26, -54045.02, -8550.59, 37062.72, 5017.63, -14625.86, 0.00, 0.00, 0.00, 0.00, 0.00, 0.00, 0.00
106, 1368.08, 65271.65, 3447.15, 28331.46, -19395.37, -3587.01, 9263.26, -54045.02, -8562.80, 37041.91, 5000.62, -14620.86, 0.00, 0.00, 0.00, 0.00, 0.00, 0.00, 0.00
107, 1352.21, 65247.94, 3427.77, 28305.96, -19412.67, -3609.00, 9236.92, -54069.29, -8562.80, 37041.91, 5000.62, -14620.86, 0.00, 0.00, 0.00, 0.00, 0.00, 0.00, 0.00
108, 1352.21, 65247.94, 3427.77, 28305.96, -19412.67, -3609.00, 9236.92, -54069.29, -8551.73, 37057.85, 5015.69, -14620.21, 0.00, 0.00, 0.00, 0.00, 0.00, 0.00, 0.00
109, 1377.20, 65277.80, 3454.08, 28340.45, -19388.95, -3582.90, 9266.99, -54041.51, -8551.73, 37057.85, 5015.69, -14620.21, 0.00, 0.00, 0.00, 0.00, 0.00, 0.00, 0.00
110, 1377.20, 65277.80, 3454.08, 28340.45, -19388.95, -3582.90, 9266.99, -54041.51, -8558.57, 37049.40, 5006.97, -14616.32, 0.00, 0.00, 0.00, 0.00, 0.00, 0.00, 0.00
111, 1355.86, 65255.36, 3430.52, 28308.51, -19411.42, -3606.50, 9237.53, -54067.30, -8558.57, 37049.40, 5006.97, -14616.32, 0.00, 0.00, 0.00, 0.00, 0.11, 0.38, 0.94
112, 1355.86, 65255.36, 3430.52, 28308.51, -19411.42, -3606.50, 9237.53, -54067.30, -8552.43, 37052.20, 5010.86, -14617.77, 0.00, 0.00, 0.00, 0.00, 0.00, 0.00, 0.00
113, 1377.00, 65283.48, 3455.71, 28338.93, -19389.33, -3582.20, 9271.03, -54039.21, -8552.43, 37052.20, 5010.86, -14617.77, 0.00, 0.00, 0.00, 0.00, 0.00, 0.00, 0.00
114, 1377.00, 65283.48, 3455.71, 28338.93, -19389.33, -3582.20, 9271.03, -54039.21, -8557.75, 37053.51, 5012.15, -14622.98, 0.00, 0.00, 0.00, 0.00, 0.00, 0.00, 0.00
115, 1357.24, 65250.26, 3426.86, 28304.33, -19416.29, -3610.99, 9233.17, -54073.36, -8557.75, 37053.51, 5012.15, -14622.98, 0.00, 0.00, 0.00, 0.00, 0.00, 0.00, 0.00
116, 1357.24, 65250.26, 3426.86, 28304.33, -19416.29, -3610.99, 9233.17, -54073.36, -8558.15, 37040.73, 4999.01, -14614.67, 0.00, 0.00, 0.00, 0.00, 0.00, 0.00, 0.00
117, 1378.25, 65283.99, 3454.69, 28338.64, -19391.46, -3583.41, 9269.54, -54041.96, -8558.15, 37040.73, 4999.01, -14614.67, 0.00, 0.00, 0.00, 0.00, 0.00, 0.00, 0.00
118, 1378.25, 65283.99, 3454.69, 28338.64, -19391.46, -3583.41, 9269.54, -54041.96, -8552.81, 37065.14, 5016.56, -14617.97, 0.00, 0.00, 0.00, 0.00, 0.00, 0.00, 0.00
119, 1355.05, 65249.57, 3428.74, 28308.57, -19414.86, -3609.23, 9235.90, -54067.71, -8552.81, 37065.14, 5016.56, -14617.97, 0.00, 0.00, 0.00, 0.00, 0.00, 0.00, 0.00
120, 1355.05, 65249.57, 3428.74, 28308.57, -19414.86, -3609.23, 9235.90, -54067.71, -8555.26, 37041.78, 4996.13, -14605.17, 0.00, 0.00, 0.00, 0.00, 0.00, 0.00, 0.00
121, 1371.97, 65279.05, 3453.52, 28335.71, -19391.84, -3585.40, 9269.65, -54039.23, -8555.26, 37041.78, 4996.13, -14605.17, 0.00, 0.00, 0.00, 0.00, 0.11, 0.38, 0.94
122, 1371.97, 65279.05, 3453.52, 28335.71, -19391.84, -3585.40, 9269.65, -54039.23, -8546.28, 37068.45, 5039.87, -14637.80, 0.00, 0.00, 0.00, 0.00, 0.00, 0.00, 0.00
123, 1375.66, 65272.16, 3456.79, 28328.62, -19390.23, -3593.49, 9257.00, -54056.71, -8546.28, 37068.45, 5039.87, -14637.80, 0.00, 0.00, 0.00, 0.00, 0.00, 0.00, 0.00
124, 1375.66, 65272.16, 3456.79, 28328.62, -19390.23, -3593.49, 9257.00, -54056.71, -8559.15, 37037.75, 4999.44, -14603.56, 0.00, 0.00, 0.00, 0.00, 0.00, 0.00, 0.00
125, 1366.23, 65269.19, 3438.75, 28323.12, -19411.80, -3597.71, 9254.25, -54055.46, -8559.15, 37037.75, 4999.44, -14603.56, 0.00, 0.00, 0.00, 0.00, 0.00, 0.00, 0.00
126, 1366.23, 65269.19, 3438.75, 28323.12, -19411.80, -3597.71, 9254.25, -54055.46, -8556.29, 37064.67, 5023.87, -14632.10, 0.00, 0.00, 0.00, 0.00, 0.00, 0.00, 0.00
127, 1369.22, 65269.86, 3445.21, 28313.27, -19414.34, -3605.45, 9241.95, -54066.39, -8556.29, 37064.67, 5023.87, -14632.10, 0.00, 0.00, 0.00, 0.00, 0.00, 0.00, 0.00
128, 1369.22, 65269.86, 3445.21, 28313.27, -19414.34, -3605.45, 9241.95, -54066.39, -8559.89, 37027.12, 5002.30, -14615.09, 0.00, 0.00, 0.00, 0.00, 0.00, 0.00, 0.00
129, 1376.53, 65278.49, 3450.10, 28312.75, -19403.41, -3600.64, 9257.20, -54052.51, -8559.89, 37027.12, 5002.30, -14615.09, 0.00, 0.00, 0.00, 0.00, 0.00, 0.00, 0.00
130, 1376.53, 65278.49, 3450.10, 28312.75, -19403.41, -3600.64, 9257.20, -54052.51, -8548.60, 37070.37, 5037.48, -14632.48, 0.00, 0.00, 0.00, 0.00, 0.00, 0.00, 0.00
131, 1369.27, 65270.55, 3442.86, 28303.12, -19410.21, -3606.90, 9245.71, -54060.87, -8548.60, 37070.37, 5037.48, -14632.48, 0.00, 0.00, 0.00, 0.00, 0.11, 0.38, 0.94
132, 1369.27, 65270.55, 3442.86, 28303.12, -19410.21, -3606.90, 9245.71, -54060.87, -8559.47, 37031.23, 4999.24, -14603.89, 0.00, 0.00, 0.00, 0.00, 0.00, 0.00, 0.00
133, 1369.69, 65278.80, 3448.52, 28314.09, -19405.43, -3599.93, 9256.77, -54054.32, -8559.47, 37031.23, 4999.24, -14603.89, 0.00, 0.00, 0.00, 0.00, 0.00, 0.00, 0.00
134, 1369.69, 65278.80, 3448.52, 28314.09, -19405.43, -3599.93, 9256.77, -54054.32, -8552.31, 37073.68, 5045.01, -14623.63, 0.00, 0.00, 0.00, 0.00, 0.00, 0.00, 0.00
135, 1372.53, 65275.74, 3450.80, 28316.89, -19406.50, -3600.60, 9250.29, -54058.61, -8552.31, 37073.68, 5045.01, -14623.63, 0.00, 0.00, 0.00, 0.00, 0.00, 0.00, 0.00
136, 1372.53, 65275.74, 3450.80, 28316.89, -19406.50, -3600.60, 9250.29, -54058.61, -8565.25, 37024.97, 5004.85, -14615.16, 0.00, 0.00, 0.00, 0.00, 0.00, 0.00, 0.00
137, 1379.82, 65277.98, 3452.61, 28317.31, -19406.23, -3600.62, 9256.50, -54053.24, -8565.25, 37024.97, 5004.85, -14615.16, 0.00, 0.00, 0.00, 0.00, 0.00, 0.00, 0.00
138, 1379.82, 65277.98, 3452.61, 28317.31, -19406.23, -3600.62, 9256.50, -54053.24, -8547.98, 37077.05, 5047.94, -14623.00, 0.00, 0.00, 0.00, 0.00, 0.00, 0.00, 0.00
139, 1385.34, 65287.81, 3459.56, 28325.49, -19395.86, -3593.83, 9262.56, -54046.92, -8547.98, 37077.05, 5047.94, -14623.00, 0.00, 0.00, 0.00, 0.00, 0.00, 0.00, 0.00
140, 1385.34, 65287.81, 3459.56, 28325.49, -19395.86, -3593.83, 9262.56, -54046.92, -8560.76, 37035.86, 5011.53, -14599.58, 0.00, 0.00, 0.00, 0.00, 0.00, 0.00, 0.00
141, 1371.93, 65274.36, 3448.83, 28317.09, -19408.00, -3601.56, 9253.04, -54055.23, -8560.76, 37035.86, 5011.53, -14599.58, 0.00, 0.00, 0.00, 0.00, 0.11, 0.38, 0.93
142, 1371.93, 65274.36, 3448.83, 28317.09, -19408.00, -3601.56, 9253.04, -54055.23, -8548.96, 37076.49, 5046.82, -14620.75, 0.00, 0.00, 0.00, 0.00, 0.00, 0.00, 0.00
143, 1379.33, 65284.95, 3457.55, 28325.25, -19395.37, -3592.80, 9264.37, -54046.88, -8548.96, 37076.49, 5046.82, -14620.75, 0.00, 0.00, 0.00, 0.00, 0.00, 0.00, 0.00
144, 1379.33, 65284.95, 3457.55, 28325.25, -19395.37, -3592.80, 9264.37, -54046.88, -8564.32, 37033.73, 5011.57, -14608.94, 0.00, 0.00, 0.00, 0.00, 0.00, 0.00, 0.00
145, 1375.33, 65272.03, 3445.57, 28313.04, -19409.00, -3606.05, 9247.21, -54063.01, -8564.32, 37033.73, 5011.57, -14608.94, 0.00, 0.00, 0.00, 0.00, 0.00, 0.00, 0.00
146, 1375.33, 65272.03, 3445.57, 28313.04, -19409.00, -3606.05, 9247.21, -54063.01, -8555.13, 37063.26, 5045.33, -14626.20, 0.00, 0.00, 0.00, 0.00, 0.00, 0.00, 0.00
147, 1390.32, 65296.15, 3466.91, 28337.09, -19392.73, -3586.54, 9271.62, -54043.70, -8555.13, 37063.26, 5045.33, -14626.20, 0.00, 0.00, 0.00, 0.00, 0.00, 0.00, 0.00
148, 1390.32, 65296.15, 3466.91, 28337.09, -19392.73, -3586.54, 9271.62, -54043.70, -8562.26, 37034.96, 5015.95, -14610.82, 0.00, 0.00, 0.00, 0.00, 0.00, 0.00, 0.00
149, 1374.70, 65272.05, 3444.47, 28310.99, -19409.79, -3607.62, 9249.58, -54060.62, -8562.26, 37034.96, 5015.95, -14610.82, 0.00, 0.00, 0.00, 0.00, 0.00, 0.00, 0.00
150, 1374.70, 65272.05, 3444.47, 28310.99, -19409.79, -3607.62, 9249.58, -54060.62, -8553.12, 37066.81, 5038.91, -14620.61, 0.00, 0.00, 0.00, 0.00, 0.11, 0.38, 0.94
151, 1389.38, 65291.84, 3463.56, 28335.24, -19392.62, -3587.37, 9272.42, -54041.78, -8553.12, 37066.81, 5038.91, -14620.61, 0.00, 0.00, 0.00, 0.00, 0.00, 0.00, 0.00
152, 1389.38, 65291.84, 3463.56, 28335.24, -19392.62, -3587.37, 9272.42, -54041.78, -8561.61, 37034.98, 5015.66, -14614.33, 0.00, 0.00, 0.00, 0.00, 0.00, 0.00, 0.00
153, 1368.42, 65264.75, 3442.59, 28308.88, -19415.98, -3611.75, 9243.81, -54069.88, -8561.61, 37034.98, 5015.66, -14614.33, 0.00, 0.00, 0.00, 0.00, 0.00, 0.00, 0.00
154, 1368.42, 65264.75, 3442.59, 28308.88, -19415.98, -3611.75, 9243.81, -54069.88, -8559.91, 37052.24, 5026.82, -14613.73, 0.00, 0.00, 0.00, 0.00, 0.00, 0.00, 0.00
155, 1387.89, 65290.72, 3463.07, 28333.92, -19395.12, -3588.51, 9273.76, -54042.83, -8559.91, 37052.24, 5026.82, -14613.73, 0.00, 0.00, 0.00, 0.00, 0.00, 0.00, 0.00
156, 1387.89, 65290.72, 3463.07, 28333.92, -19395.12, -3588.51, 9273.76, -54042.83, -8567.20, 37039.34, 5014.30, -14634.29, 0.00, 0.00, 0.00, 0.00, 0.00, 0.00, 0.00
157, 1364.26, 65262.44, 3440.87, 28308.01, -19416.13, -3612.91, 9244.86, -54064.93, -8567.20, 37039.34, 5014.30, -14634.29, 0.00, 0.00, 0.00, 0.00, 0.00, 0.00, 0.00
158, 1364.26, 65262.44, 3440.87, 28308.01, -19416.13, -3612.91, 9244.86, -54064.93, -8554.28, 37048.62, 5027.94, -14621.77, 0.00, 0.00, 0.00, 0.00, 0.00, 0.00, 0.00
159, 1385.27, 65294.34, 3463.94, 28334.84, -19393.20, -3588.89, 9276.13, -54041.71, -8554.28, 37048.62, 5027.94, -14621.77, 0.00, 0.00, 0.00, 0.00, 0.00, 0.00, 0.00
160, 1385.27, 65294.34, 3463.94, 28334.84, -19393.20, -3588.89, 9276.13, -54041.71, -8559.11, 37047.75, 5024.47, -14617.08, 0.00, 0.00, 0.00, 0.00, 0.10, 0.38, 0.94
161, 1371.91, 65265.62, 3439.80, 28305.00, -19415.15, -3612.42, 9246.27, -54067.48, -8559.11, 37047.75, 5024.47, -14617.08, 0.00, 0.00, 0.00, 0.00, 0.00, 0.00, 0.00
162, 1371.91, 65265.62, 3439.80, 28305.00, -19415.15, -3612.42, 9246.27, -54067.48, -8558.21, 37041.85, 5019.04, -14617.21, 0.00, 0.00, 0.00, 0.00, 0.00, 0.00, 0.00
163, 1389.21, 65295.81, 3464.72, 28337.18, -19396.35, -3586.72, 9281.00, -54039.79, -8558.21, 37041.85, 5019.04, -14617.21, 0.00, 0.00, 0.00, 0.00, 0.00, 0.00, 0.00
164, 1389.21, 65295.81, 3464.72, 28337.18, -19396.35, -3586.72, 9281.00, -54039.79, -8561.72, 37051.21, 5026.37, -14637.38, 0.00, 0.00, 0.00, 0.00, 0.00, 0.00, 0.00
165, 1365.42, 65265.68, 3441.50, 28307.57, -19415.48, -3612.02, 9247.79, -54067.13, -8561.72, 37051.21, 5026.37, -14637.38, 0.00, 0.00, 0.00, 0.00, 0.00, 0.00, 0.00
166, 1365.42, 65265.68, 3441.50, 28307.57, -19415.48, -3612.02, 9247.79, -54067.13, -8562.53, 37033.51, 5011.64, -14610.80, 0.00, 0.00, 0.00, 0.00, 0.00, 0.00, 0.00
167, 1386.59, 65290.72, 3462.04, 28336.40, -19396.46, -3589.96, 9278.77, -54039.74, -8562.53, 37033.51, 5011.64, -14610.80, 0.00, 0.00, 0.00, 0.00, 0.00, 0.00, 0.00
168, 1386.59, 65290.72, 3462.04, 28336.40, -19396.46, -3589.96, 9278.77, -54039.74, -8556.56, 37059.75, 5034.75, -14622.58, 0.00, 0.00, 0.00, 0.00, 0.00, 0.00, 0.00
169, 1370.97, 65264.07, 3443.22, 28310.12, -19412.24, -3608.38, 9253.38, -54059.37, -8556.56, 37059.75, 5034.75, -14622.58, 0.00, 0.00, 0.00, 0.00, 0.00, 0.00, 0.00
170, 1370.97, 65264.07, 3443.22, 28310.12, -19412.24, -3608.38, 9253.38, -54059.37, -8560.63, 37037.31, 5012.11, -14609.68, 0.00, 0.00, 0.00, 0.00, 0.11, 0.38, 0.93
171, 1380.06, 65284.39, 3459.09, 28334.50, -19395.64, -3587.95, 9283.55, -54035.81, -8560.63, 37037.31, 5012.11, -14609.68, 0.00, 0.00, 0.00, 0.00, 0.00, 0.00, 0.00
172, 1380.06, 65284.39, 3459.09, 28334.50, -19395.64, -3587.95, 9283.55, -54035.81, -8553.30, 37070.21, 5032.83, -14618.91, 0.00, 0.00, 0.00, 0.00, 0.00, 0.00, 0.00
173, 1360.66, 65261.97, 3438.73, 28309.56, -19412.33, -3608.38, 9257.29, -54056.80, -8553.30, 37070.21, 5032.83, -14618.91, 0.00, 0.00, 0.00, 0.00, 0.00, 0.00, 0.00
174, 1360.66, 65261.97, 3438.73, 28309.56, -19412.33, -3608.38, 9257.29, -54056.80, -8563.98, 37036.04, 4997.31, -14586.93, 0.00, 0.00, 0.00, 0.00, 0.00, 0.00, 0.00
175, 1368.62, 65279.63, 3451.13, 28328.04, -19401.72, -3594.23, 9276.06, -54045.06, -8563.98, 37036.04, 4997.31, -14586.93, 0.00, 0.00, 0.00, 0.00, 0.00, 0.00, 0.00
176, 1368.62, 65279.63, 3451.13, 28328.04, -19401.72, -3594.23, 9276.06, -54045.06, -8551.91, 37070.32, 5041.53, -14631.14, 0.00, 0.00, 0.00, 0.00, 0.00, 0.00, 0.00
177, 1369.65, 65268.32, 3443.46, 28316.04, -19406.61, -3605.34, 9260.08, -54056.17, -8551.91, 37070.32, 5041.53, -14631.14, 0.00, 0.00, 0.00, 0.00, 0.00, 0.00, 0.00
178, 1369.65, 65268.32, 3443.46, 28316.04, -19406.61, -3605.34, 9260.08, -54056.17, -8561.32, 37028.05, 5001.00, -14615.00, 0.00, 0.00, 0.00, 0.00, 0.00, 0.00, 0.00
179, 1369.69, 65273.82, 3448.29, 28323.12, -19405.45, -3601.27, 9269.36, -54051.21, -8561.32, 37028.05, 5001.00, -14615.00, 0.00, 0.00, 0.00, 0.00, 0.00, 0.00, 0.00
180, 1369.69, 65273.82, 3448.29, 28323.12, -19405.45, -3601.27, 9269.36, -54051.21, -8558.62, 37065.07, 5038.66, -14635.47, 0.00, 0.00, 0.00, 0.00, 0.11, 0.38, 0.94
181, 1367.06, 65266.78, 3443.31, 28315.99, -19408.22, -3607.10, 9259.21, -54055.77, -8558.62, 37065.07, 5038.66, -14635.47, 0.00, 0.00, 0.00, 0.00, 0.00, 0.00, 0.00
182, 1367.06, 65266.78, 3443.31, 28315.99, -19408.22, -3607.10, 9259.21, -54055.77, -8570.37, 37018.53, 4990.36, -14611.83, 0.00, 0.00, 0.00, 0.00, 0.00, 0.00, 0.00
183, 1361.74, 65271.45, 3443.87, 28321.36, -19410.30, -3604.04, 9265.87, -54057.04, -8570.37, 37018.53, 4990.36, -14611.83, 0.00, 0.00, 0.00, 0.00, 0.00, 0.00, 0.00
184, 1361.74, 65271.45, 3443.87, 28321.36, -19410.30, -3604.04, 9265.87, -54057.04, -8555.44, 37065.52, 5038.02, -14624.41, 0.00, 0.00, 0.00, 0.00, 0.00, 0.00, 0.00
185, 1375.41, 65275.85, 3449.59, 28324.51, -19401.98, -3601.04, 9266.29, -54050.65, -8555.44, 37065.52, 5038.02, -14624.41, 0.00, 0.00, 0.00, 0.00, 0.00, 0.00, 0.00
186, 1375.41, 65275.85, 3449.59, 28324.51, -19401.98, -3601.04, 9266.29, -54050.65, -8563.27, 37027.25, 4997.00, -14606.82, 0.00, 0.00, 0.00, 0.00, 0.00, 0.00, 0.00
187, 1369.22, 65271.81, 3443.00, 28319.23, -19407.86, -3604.42, 9263.90, -54054.47, -8563.27, 37027.25, 4997.00, -14606.82, 0.00, 0.00, 0.00, 0.00, 0.00, 0.00, 0.00
188, 1369.22, 65271.81, 3443.00, 28319.23, -19407.86, -3604.42, 9263.90, -54054.47, -8552.67, 37071.69, 5038.15, -14618.69, 0.00, 0.00, 0.00, 0.00, 0.00, 0.00, 0.00
189, 1372.84, 65278.27, 3448.00, 28323.59, -19403.73, -3598.56, 9271.12, -54049.38, -8552.67, 37071.69, 5038.15, -14618.69, 0.00, 0.00, 0.00, 0.00, 0.11, 0.38, 0.93
190, 1372.84, 65278.27, 3448.00, 28323.59, -19403.73, -3598.56, 9271.12, -54049.38, -8568.47, 37024.28, 4995.44, -14607.09, 0.00, 0.00, 0.00, 0.00, 0.00, 0.00, 0.00
191, 1358.27, 65266.96, 3440.18, 28313.65, -19413.18, -3610.01, 9260.15, -54060.38, -8568.47, 37024.28, 4995.44, -14607.09, 0.00, 0.00, 0.00, 0.00, 0.00, 0.00, 0.00
192, 1358.27, 65266.96, 3440.18, 28313.65, -19413.18, -3610.01, 9260.15, -54060.38, -8552.20, 37064.93, 5035.49, -14647.57, 0.00, 0.00, 0.00, 0.00, 0.00, 0.00, 0.00
193, 1376.91, 65280.86, 3452.88, 28330.88, -19398.01, -3595.01, 9276.24, -54042.29, -8552.20, 37064.93, 5035.49, -14647.57, 0.00, 0.00, 0.00, 0.00, 0.00, 0.00, 0.00
194, 1376.91, 65280.86, 3452.88, 28330.88, -19398.01, -3595.01, 9276.24, -54042.29, -8558.46, 37033.31, 5005.99, -14599.29, 0.00, 0.00, 0.00, 0.00, 0.00, 0.00, 0.00
195, 1361.56, 65260.54, 3437.14, 28310.58, -19413.58, -3611.04, 9257.11, -54060.44, -8558.46, 37033.31, 5005.99, -14599.29, 0.00, 0.00, 0.00, 0.00, 0.00, 0.00, 0.00
196, 1361.56, 65260.54, 3437.14, 28310.58, -19413.58, -3611.04, 9257.11, -54060.44, -8549.18, 37065.83, 5035.80, -14613.57, 0.00, 0.00, 0.00, 0.00, 0.00, 0.00, 0.00
197, 1379.46, 65284.35, 3457.26, 28336.91, -19394.70, -3590.09, 9283.82, -54040.59, -8549.18, 37065.83, 5035.80, -14613.57, 0.00, 0.00, 0.00, 0.00, 0.00, 0.00, 0.00
198, 1379.46, 65284.35, 3457.26, 28336.91, -19394.70, -3590.09, 9283.82, -54040.59, -8561.30, 37035.30, 5008.35, -14616.74, 0.00, 0.00, 0.00, 0.00, 0.00, 0.00, 0.00
199, 1356.89, 65260.45, 3437.65, 28311.68, -19416.47, -3609.83, 9259.48, -54062.45, -8561.30, 37035.30, 5008.35, -14616.74, 0.00, 0.00, 0.00, 0.00, 0.10, 0.38, 0.94
200, 1356.89, 65260.45, 3437.65, 28311.68, -19416.47, -3609.83, 9259.48, -54062.45, -8547.37, 37062.03, 5033.28, -14616.14, 0.00, 0.00, 0.00, 0.00, 0.00, 0.00, 0.00
201, 1382.68, 65290.00, 3464.83, 28342.50, -19390.18, -3584.42, 9287.64, -54034.04, -8547.37, 37062.03, 5033.28, -14616.14, 0.00, 0.00, 0.00, 0.00, 0.00, 0.00, 0.00
202, 1382.68, 65290.00, 3464.83, 28342.50, -19390.18, -3584.42, 9287.64, -54034.04, -8555.98, 37039.54, 5017.81, -14611.04, 0.00, 0.00, 0.00, 0.00, 0.00, 0.00, 0.00
203, 1363.57, 65261.79, 3439.04, 28313.09, -19415.98, -3610.59, 9258.07, -54062.43, -8555.98, 37039.54, 5017.81, -14611.04, 0.00, 0.00, 0.00, 0.00, 0.00, 0.00, 0.00
204, 1363.57, 65261.79, 3439.04, 28313.09, -19415.98, -3610.59, 9258.07, -54062.43, -8548.22, 37054.61, 5024.14, -14608.61, 0.00, 0.00, 0.00, 0.00, 0.00, 0.00, 0.00
205, 1378.48, 65286.22, 3461.91, 28342.37, -19390.03, -3585.53, 9292.51, -54031.00, -8548.22, 37054.61, 5024.14, -14608.61, 0.00, 0.00, 0.00, 0.00, 0.00, 0.00, 0.00
206, 1378.48, 65286.22, 3461.91, 28342.37, -19390.03, -3585.53, 9292.51, -54031.00, -8555.64, 37046.88, 5017.90, -14615.87, 0.00, 0.00, 0.00, 0.00, 0.00, 0.00, 0.00
207, 1359.19, 65256.90, 3436.58, 28311.99, -19415.11, -3610.43, 9260.60, -54061.02, -8555.64, 37046.88, 5017.90, -14615.87, 0.00, 0.00, 0.00, 0.00, 0.00, 0.00, 0.00
208, 1359.19, 65256.90, 3436.58, 28311.99, -19415.11, -3610.43, 9260.60, -54061.02, -8552.89, 37052.42, 5016.92, -14620.32, 0.00, 0.00, 0.00, 0.00, 0.00, 0.00, 0.00
209, 1378.77, 65289.04, 3461.35, 28343.96, -19394.61, -3586.49, 9289.85, -54036.17, -8552.89, 37052.42, 5016.92, -14620.32, 0.00, 0.00, 0.00, 0.00, 0.11, 0.38, 0.94
210, 1378.77, 65289.04, 3461.35, 28343.96, -19394.61, -3586.49, 9289.85, -54036.17, -8558.26, 37051.41, 5018.59, -14614.06, 0.00, 0.00, 0.00, 0.00, 0.00, 0.00, 0.00
211, 1363.81, 65260.45, 3436.96, 28310.94, -19416.76, -3613.58, 9258.58, -54065.63, -8558.26, 37051.41, 5018.59, -14614.06, 0.00, 0.00, 0.00, 0.00, 0.00, 0.00, 0.00
212, 1363.81, 65260.45, 3436.96, 28310.94, -19416.76, -3613.58, 9258.58, -54065.63, -8558.08, 37042.23, 5009.56, -14608.50, 0.00, 0.00, 0.00, 0.00, 0.00, 0.00, 0.00
213, 1385.29, 65293.09, 3463.65, 28344.20, -19394.05, -3585.73, 9292.89, -54034.16, -8558.08, 37042.23, 5009.56, -14608.50, 0.00, 0.00, 0.00, 0.00, 0.00, 0.00, 0.00
214, 1385.29, 65293.09, 3463.65, 28344.20, -19394.05, -3585.73, 9292.89, -54034.16, -8553.70, 37061.29, 5029.14, -14620.34, 0.00, 0.00, 0.00, 0.00, 0.00, 0.00, 0.00
215, 1368.22, 65266.22, 3441.92, 28316.69, -19412.67, -3606.79, 9263.43, -54056.95, -8553.70, 37061.29, 5029.14, -14620.34, 0.00, 0.00, 0.00, 0.00, 0.00, 0.00, 0.00
216, 1368.22, 65266.22, 3441.92, 28316.69, -19412.67, -3606.79, 9263.43, -54056.95, -8551.13, 37042.83, 5011.86, -14586.01, 0.00, 0.00, 0.00, 0.00, 0.00, 0.00, 0.00
217, 1384.60, 65291.10, 3463.36, 28346.26, -19390.43, -3583.72, 9294.97, -54030.96, -8551.13, 37042.83, 5011.86, -14586.01, 0.00, 0.00, 0.00, 0.00, 0.00, 0.00, 0.00
218, 1384.60, 65291.10, 3463.36, 28346.26, -19390.43, -3583.72, 9294.97, -54030.96, -8544.11, 37071.75, 5037.37, -14617.77, 0.00, 0.00, 0.00, 0.00, 0.00, 0.00, 0.00
219, 1366.05, 65267.34, 3442.79, 28317.27, -19407.64, -3606.23, 9271.62, -54051.84, -8544.11, 37071.75, 5037.37, -14617.77, 0.00, 0.00, 0.00, 0.00, 0.11, 0.38, 0.94
220, 1366.05, 65267.34, 3442.79, 28317.27, -19407.64, -3606.23, 9271.62, -54051.84, -8552.60, 37040.21, 5007.35, -14596.52, 0.00, 0.00, 0.00, 0.00, 0.00, 0.00, 0.00
221, 1381.96, 65290.34, 3459.56, 28341.92, -19398.43, -3587.21, 9292.36, -54035.59, -8552.60, 37040.21, 5007.35, -14596.52, 0.00, 0.00, 0.00, 0.00, 0.00, 0.00, 0.00
222, 1381.96, 65290.34, 3459.56, 28341.92, -19398.43, -3587.21, 9292.36, -54035.59, -8543.24, 37077.23, 5042.35, -14610.87, 0.00, 0.00, 0.00, 0.00, 0.00, 0.00, 0.00
223, 1376.11, 65276.12, 3448.74, 28322.50, -19404.53, -3599.59, 9274.07, -54045.27, -8543.24, 37077.23, 5042.35, -14610.87, 0.00, 0.00, 0.00, 0.00, 0.00, 0.00, 0.00
224, 1376.11, 65276.12, 3448.74, 28322.50, -19404.53, -3599.59, 9274.07, -54045.27, -8548.89, 37041.91, 5009.32, -14579.33, 0.00, 0.00, 0.00, 0.00, 0.00, 0.00, 0.00
225, 1386.99, 65291.59, 3464.77, 28341.32, -19390.79, -3585.89, 9296.49, -54032.12, -8548.89, 37041.91, 5009.32, -14579.33, 0.00, 0.00, 0.00, 0.00, 0.00, 0.00, 0.00
226, 1386.99, 65291.59, 3464.77, 28341.32, -19390.79, -3585.89, 9296.49, -54032.12, -8534.34, 37086.62, 5048.97, -14609.50, 0.00, 0.00, 0.00, 0.00, 0.00, 0.00, 0.00
227, 1372.04, 65275.88, 3450.95, 28323.79, -19404.82, -3599.37, 9281.14, -54045.49, -8534.34, 37086.62, 5048.97, -14609.50, 0.00, 0.00, 0.00, 0.00, 0.00, 0.00, 0.00
228, 1372.04, 65275.88, 3450.95, 28323.79, -19404.82, -3599.37, 9281.14, -54045.49, -8549.41, 37041.67, 5005.70, -14581.85, 0.00, 0.00, 0.00, 0.00, 0.11, 0.38, 0.94
229, 1378.45, 65282.16, 3453.81, 28330.57, -19402.79, -3595.84, 9284.74, -54039.65, -8549.41, 37041.67, 5005.70, -14581.85, 0.00, 0.00, 0.00, 0.00, 0.00, 0.00, 0.00
230, 1378.45, 65282.16, 3453.81, 28330.57, -19402.79, -3595.84, 9284.74, -54039.65, -8535.26, 37083.80, 5047.43, -14605.63, 0.00, 0.00, 0.00, 0.00, 0.00, 0.00, 0.00
231, 1376.35, 65281.04, 3453.46, 28327.26, -19400.15, -3595.57, 9284.78, -54042.94, -8535.26, 37083.80, 5047.43, -14605.63, 0.00, 0.00, 0.00, 0.00, 0.00, 0.00, 0.00
232, 1376.35, 65281.04, 3453.46, 28327.26, -19400.15, -3595.57, 9284.78, -54042.94, -8549.94, 37036.97, 5009.43, -14589.56, 0.00, 0.00, 0.00, 0.00, 0.00, 0.00, 0.00
233, 1382.79, 65286.87, 3456.59, 28331.51, -19400.42, -3595.66, 9288.27, -54039.90, -8549.94, 37036.97, 5009.43, -14589.56, 0.00, 0.00, 0.00, 0.00, 0.00, 0.00, 0.00
234, 1382.79, 65286.87, 3456.59, 28331.51, -19400.42, -3595.66, 9288.27, -54039.90, -8540.85, 37080.67, 5046.71, -14616.72, 0.00, 0.00, 0.00, 0.00, 0.00, 0.00, 0.00
235, 1387.06, 65291.54, 3463.09, 28336.56, -19394.05, -3590.34, 9291.84, -54036.23, -8540.85, 37080.67, 5046.71, -14616.72, 0.00, 0.00, 0.00, 0.00, 0.00, 0.00, 0.00
236, 1387.06, 65291.54, 3463.09, 28336.56, -19394.05, -3590.34, 9291.84, -54036.23, -8550.15, 37037.71, 5008.78, -14577.99, 0.00, 0.00, 0.00, 0.00, 0.00, 0.00, 0.00
237, 1373.94, 65278.20, 3451.49, 28326.03, -19405.43, -3599.55, 9282.25, -54045.84, -8550.15, 37037.71, 5008.78, -14577.99, 0.00, 0.00, 0.00, 0.00, 0.00, 0.00, 0.00
238, 1373.94, 65278.20, 3451.49, 28326.03, -19405.43, -3599.55, 9282.25, -54045.84, -8538.97, 37079.84, 5045.75, -14616.97, 0.00, 0.00, 0.00, 0.00, 0.11, 0.38, 0.93
239, 1384.85, 65288.19, 3458.66, 28337.32, -19393.67, -3591.55, 9291.93, -54037.71, -8538.97, 37079.84, 5045.75, -14616.97, 0.00, 0.00, 0.00, 0.00, 0.00, 0.00, 0.00
240, 1384.85, 65288.19, 3458.66, 28337.32, -19393.67, -3591.55, 9291.93, -54037.71, -8555.20, 37035.63, 5003.91, -14596.58, 0.00, 0.00, 0.00, 0.00, 0.00, 0.00, 0.00
241, 1372.08, 65272.99, 3445.92, 28320.73, -19409.16, -3605.27, 9279.84, -54050.52, -8555.20, 37035.63, 5003.91, -14596.58, 0.00, 0.00, 0.00, 0.00, 0.00, 0.00, 0.00
242, 1372.08, 65272.99, 3445.92, 28320.73, -19409.16, -3605.27, 9279.84, -54050.52, -8544.83, 37072.42, 5034.08, -14609.01, 0.00, 0.00, 0.00, 0.00, 0.00, 0.00, 0.00
243, 1384.44, 65288.57, 3459.18, 28341.97, -19397.18, -3588.17, 9294.06, -54035.99, -8544.83, 37072.42, 5034.08, -14609.01, 0.00, 0.00, 0.00, 0.00, 0.00, 0.00, 0.00
244, 1384.44, 65288.57, 3459.18, 28341.97, -19397.18, -3588.17, 9294.06, -54035.99, -8556.11, 37042.25, 5002.57, -14582.72, 0.00, 0.00, 0.00, 0.00, 0.00, 0.00, 0.00
245, 1359.19, 65261.62, 3434.39, 28311.90, -19414.93, -3610.81, 9272.00, -54054.77, -8556.11, 37042.25, 5002.57, -14582.72, 0.00, 0.00, 0.00, 0.00, 0.00, 0.00, 0.00
246, 1359.19, 65261.62, 3434.39, 28311.90, -19414.93, -3610.81, 9272.00, -54054.77, -8549.99, 37065.41, 5022.15, -14624.59, 0.00, 0.00, 0.00, 0.00, 0.00, 0.00, 0.00
247, 1377.25, 65282.47, 3454.69, 28338.57, -19397.47, -3590.61, 9295.82, -54034.40, -8549.99, 37065.41, 5022.15, -14624.59, 0.00, 0.00, 0.00, 0.00, 0.00, 0.00, 0.00
248, 1377.25, 65282.47, 3454.69, 28338.57, -19397.47, -3590.61, 9295.82, -54034.40, -8557.50, 37040.44, 5002.66, -14597.83, 0.00, 0.00, 0.00, 0.00, 0.11, 0.39, 0.94
249, 1363.75, 65261.57, 3435.08, 28315.12, -19418.03, -3610.41, 9269.96, -54058.56, -8557.50, 37040.44, 5002.66, -14597.83, 0.00, 0.00, 0.00, 0.00, 0.00, 0.00, 0.00
250, 1363.75, 65261.57, 3435.08, 28315.12, -19418.03, -3610.41, 9269.96, -54058.56, -8544.29, 37064.15, 5024.83, -14595.06, 0.00, 0.00, 0.00, 0.00, 0.00, 0.00, 0.00
251, 1382.21, 65291.25, 3459.31, 28341.59, -19393.15, -3587.61, 9298.84, -54029.75, -8544.29, 37064.15, 5024.83, -14595.06, 0.00, 0.00, 0.00, 0.00, 0.00, 0.00, 0.00
252, 1382.21, 65291.25, 3459.31, 28341.59, -19393.15, -3587.61, 9298.84, -54029.75, -8552.58, 37049.96, 5012.80, -14619.94, 0.00, 0.00, 0.00, 0.00, 0.00, 0.00, 0.00
253, 1373.36, 65271.14, 3446.77, 28321.98, -19408.58, -3604.17, 9275.79, -54054.83, -8552.58, 37049.96, 5012.80, -14619.94, 0.00, 0.00, 0.00, 0.00, 0.00, 0.00, 0.00
254, 1373.36, 65271.14, 3446.77, 28321.98, -19408.58, -3604.17, 9275.79, -54054.83, -8538.72, 37069.38, 5044.81, -14593.50, 0.00, 0.00, 0.00, 0.00, 0.00, 0.00, 0.00
255, 1392.74, 65306.05, 3477.24, 28356.99, -19383.77, -3576.75, 9312.41, -54023.00, -8538.72, 37069.38, 5044.81, -14593.50, 0.00, 0.00, 0.00, 0.00, 0.00, 0.00, 0.00
0, 1392.74, 65306.05, 3477.24, 28356.99, -19383.77, -3576.75, 9312.41, -54023.00, -8544.20, 37061.05, 5030.28, -14589.72, 0.00, 0.00, 0.00, 0.00, 0.00, 0.00, 0.00
1, 1365.67, 65268.23, 3436.25, 28300.95, -19418.26, -3617.79, 9267.41, -54058.47, -8544.20, 37061.05, 5030.28, -14589.72, 0.00, 0.00, 0.00, 0.00, 0.00, 0.00, 0.00
2, 1365.67, 65268.23, 3436.25, 28300.95, -19418.26, -3617.79, 9267.41, -54058.47, -8544.94, 37059.21, 5031.82, -14593.48, 0.00, 0.00, 0.00, 0.00, 0.11, 0.38, 0.94
3, 1399.22, 65311.08, 3475.79, 28336.58, -19393.13, -3588.37, 9302.91, -54025.19, -8544.94, 37059.21, 5031.82, -14593.48, 0.00, 0.00, 0.00, 0.00, 0.00, 0.00, 0.00
4, 1399.22, 65311.08, 3475.79, 28336.58, -19393.13, -3588.37, 9302.91, -54025.19, -8547.24, 37067.21, 5049.26, -14611.31, 0.00, 0.00, 0.00, 0.00, 0.00, 0.00, 0.00
5, 1367.32, 65268.97, 3437.27, 28287.05, -19428.61, -3623.26, 9261.80, -54061.13, -8547.24, 37067.21, 5049.26, -14611.31, 0.00, 0.00, 0.00, 0.00, 0.00, 0.00, 0.00
6, 1367.32, 65268.97, 3437.27, 28287.05, -19428.61, -3623.26, 9261.80, -54061.13, -8554.75, 37043.23, 5028.40, -14607.36, 0.00, 0.00, 0.00, 0.00, 0.00, 0.00, 0.00
7, 1388.36, 65304.57, 3471.25, 28321.22, -19398.59, -3595.95, 9298.37, -54033.11, -8554.75, 37043.23, 5028.40, -14607.36, 0.00, 0.00, 0.00, 0.00, 0.00, 0.00, 0.00
8, 1388.36, 65304.57, 3471.25, 28321.22, -19398.59, -3595.95, 9298.37, -54033.11, -8546.08, 37069.50, 5057.80, -14600.23, 0.00, 0.00, 0.00, 0.00, 0.00, 0.00, 0.00
9, 1377.31, 65279.41, 3450.37, 28302.58, -19416.96, -3614.30, 9271.79, -54058.96, -8546.08, 37069.50, 5057.80, -14600.23, 0.00, 0.00, 0.00, 0.00, 0.00, 0.00, 0.00
10, 1377.31, 65279.41, 3450.37, 28302.58, -19416.96, -3614.30, 9271.79, -54058.96, -8551.42, 37043.14, 5033.64, -14592.76, 0.00, 0.00, 0.00, 0.00, 0.00, 0.00, 0.00
11, 1390.50, 65303.03, 3469.48, 28328.40, -19402.45, -3594.63, 9298.82, -54036.05, -8551.42, 37043.14, 5033.64, -14592.76, 0.00, 0.00, 0.00, 0.00, 0.10, 0.38, 0.94
12, 1390.50, 65303.03, 3469.48, 28328.40, -19402.45, -3594.63, 9298.82, -54036.05, -8545.79, 37073.27, 5057.95, -14619.58, 0.00, 0.00, 0.00, 0.00, 0.00, 0.00, 0.00
13, 1376.06, 65279.36, 3448.63, 28301.93, -19417.47, -3614.57, 9273.18, -54057.09, -8545.79, 37073.27, 5057.95, -14619.58, 0.00, 0.00, 0.00, 0.00, 0.00, 0.00, 0.00
14, 1376.06, 65279.36, 3448.63, 28301.93, -19417.47, -3614.57, 9273.18, -54057.09, -8553.54, 37038.18, 5026.66, -14579.89, 0.00, 0.00, 0.00, 0.00, 0.00, 0.00, 0.00
15, 1384.27, 65301.02, 3467.60, 28326.39, -19402.34, -3596.93, 9295.75, -54037.57, -8553.54, 37038.18, 5026.66, -14579.89, 0.00, 0.00, 0.00, 0.00, 0.00, 0.00, 0.00
16, 1384.27, 65301.02, 3467.60, 28326.39, -19402.34, -3596.93, 9295.75, -54037.57, -8539.64, 37080.07, 5067.36, -14604.72, 0.00, 0.00, 0.00, 0.00, 0.00, 0.00, 0.00
17, 1381.20, 65286.09, 3455.96, 28310.43, -19408.69, -3606.77, 9283.28, -54047.12, -8539.64, 37080.07, 5067.36, -14604.72, 0.00, 0.00, 0.00, 0.00, 0.00, 0.00, 0.00
18, 1381.20, 65286.09, 3455.96, 28310.43, -19408.69, -3606.77, 9283.28, -54047.12, -8552.00, 37038.43, 5026.48, -14598.55, 0.00, 0.00, 0.00, 0.00, 0.00, 0.00, 0.00
19, 1389.36, 65295.34, 3464.10, 28325.49, -19406.14, -3597.49, 9295.31, -54041.87, -8552.00, 37038.43, 5026.48, -14598.55, 0.00, 0.00, 0.00, 0.00, 0.00, 0.00, 0.00
20, 1389.36, 65295.34, 3464.10, 28325.49, -19406.14, -3597.49, 9295.31, -54041.87, -8542.61, 37080.00, 5067.97, -14613.08, 0.00, 0.00, 0.00, 0.00, 0.00, 0.00, 0.00
21, 1388.78, 65294.99, 3463.43, 28321.63, -19404.04, -3602.88, 9288.74, -54048.48, -8542.61, 37080.00, 5067.97, -14613.08, 0.00, 0.00, 0.00, 0.00, 0.11, 0.38, 0.94
22, 1388.78, 65294.99, 3463.43, 28321.63, -19404.04, -3602.88, 9288.74, -54048.48, -8551.58, 37038.74, 5030.95, -14573.14, 0.00, 0.00, 0.00, 0.00, 0.00, 0.00, 0.00
23, 1395.44, 65300.82, 3469.06, 28328.58, -19401.22, -3596.86, 9295.06, -54039.48, -8551.58, 37038.74, 5030.95, -14573.14, 0.00, 0.00, 0.00, 0.00, 0.00, 0.00, 0.00
24, 1395.44, 65300.82, 3469.06, 28328.58, -19401.22, -3596.86, 9295.06, -54039.48, -8537.92, 37083.46, 5070.11, -14607.74, 0.00, 0.00, 0.00, 0.00, 0.00, 0.00, 0.00
25, 1392.45, 65301.31, 3469.53, 28325.69, -19399.71, -3595.88, 9296.76, -54037.82, -8537.92, 37083.46, 5070.11, -14607.74, 0.00, 0.00, 0.00, 0.00, 0.00, 0.00, 0.00
26, 1392.45, 65301.31, 3469.53, 28325.69, -19399.71, -3595.88, 9296.76, -54037.82, -8549.61, 37044.06, 5028.40, -14591.24, 0.00, 0.00, 0.00, 0.00, 0.00, 0.00, 0.00
27, 1389.41, 65292.80, 3463.27, 28322.95, -19403.32, -3600.91, 9295.87, -54041.96, -8549.61, 37044.06, 5028.40, -14591.24, 0.00, 0.00, 0.00, 0.00, 0.00, 0.00, 0.00
28, 1389.41, 65292.80, 3463.27, 28322.95, -19403.32, -3600.91, 9295.87, -54041.96, -8538.10, 37085.95, 5065.17, -14607.29, 0.00, 0.00, 0.00, 0.00, 0.00, 0.00, 0.00
29, 1388.60, 65299.43, 3469.84, 28328.80, -19396.08, -3594.07, 9300.36, -54035.21, -8538.10, 37085.95, 5065.17, -14607.29, 0.00, 0.00, 0.00, 0.00, 0.00, 0.00, 0.00
30, 1388.60, 65299.43, 3469.84, 28328.80, -19396.08, -3594.07, 9300.36, -54035.21, -8549.07, 37039.95, 5026.24, -14571.73, 0.00, 0.00, 0.00, 0.00, 0.00, 0.00, 0.00
31, 1388.56, 65291.39, 3463.40, 28322.68, -19408.22, -3600.55, 9290.82, -54043.45, -8549.07, 37039.95, 5026.24, -14571.73, 0.00, 0.00, 0.00, 0.00, 0.11, 0.38, 0.94
32, 1388.56, 65291.39, 3463.40, 28322.68, -19408.22, -3600.55, 9290.82, -54043.45, -8533.23, 37089.30, 5066.42, -14598.75, 0.00, 0.00, 0.00, 0.00, 0.00, 0.00, 0.00
33, 1392.63, 65304.38, 3475.03, 28333.72, -19393.60, -3589.73, 9309.05, -54029.82, -8533.23, 37089.30, 5066.42, -14598.75, 0.00, 0.00, 0.00, 0.00, 0.00, 0.00, 0.00
34, 1392.63, 65304.38, 3475.03, 28333.72, -19393.60, -3589.73, 9309.05, -54029.82, -8548.36, 37050.36, 5030.42, -14593.34, 0.00, 0.00, 0.00, 0.00, 0.00, 0.00, 0.00
35, 1382.41, 65288.15, 3458.19, 28311.68, -19409.20, -3608.67, 9287.95, -54046.89, -8548.36, 37050.36, 5030.42, -14593.34, 0.00, 0.00, 0.00, 0.00, 0.00, 0.00, 0.00
36, 1382.41, 65288.15, 3458.19, 28311.68, -19409.20, -3608.67, 9287.95, -54046.89, -8539.62, 37077.03, 5058.18, -14596.78, 0.00, 0.00, 0.00, 0.00, 0.00, 0.00, 0.00
37, 1389.25, 65302.54, 3470.42, 28332.65, -19398.94, -3592.35, 9303.69, -54032.41, -8539.62, 37077.03, 5058.18, -14596.78, 0.00, 0.00, 0.00, 0.00, 0.00, 0.00, 0.00
38, 1389.25, 65302.54, 3470.42, 28332.65, -19398.94, -3592.35, 9303.69, -54032.41, -8547.40, 37048.55, 5029.52, -14579.30, 0.00, 0.00, 0.00, 0.00, 0.00, 0.00, 0.00
39, 1365.45, 65273.95, 3443.69, 28304.82, -19421.79, -3613.92, 9279.62, -54055.88, -8547.40, 37048.55, 5029.52, -14579.30, 0.00, 0.00, 0.00, 0.00, 0.00, 0.00, 0.00
40, 1365.45, 65273.95, 3443.69, 28304.82, -19421.79, -3613.92, 9279.62, -54055.88, -8538.72, 37073.36, 5048.68, -14604.18, 0.00, 0.00, 0.00, 0.00, 0.00, 0.00, 0.00
41, 1391.46, 65305.07, 3470.38, 28332.91, -19393.98, -3592.01, 9311.42, -54028.66, -8538.72, 37073.36, 5048.68, -14604.18, 0.00, 0.00, 0.00, 0.00, 0.11, 0.38, 0.94
42, 1391.46, 65305.07, 3470.38, 28332.91, -19393.98, -3592.01, 9311.42, -54028.66, -8542.68, 37054.18, 5036.43, -14595.89, 0.00, 0.00, 0.00, 0.00, 0.00, 0.00, 0.00
43, 1378.48, 65281.31, 3449.77, 28308.33, -19416.20, -3612.49, 9282.34, -54052.84, -8542.68, 37054.18, 5036.43, -14595.89, 0.00, 0.00, 0.00, 0.00, 0.00, 0.00, 0.00
44, 1378.48, 65281.31, 3449.77, 28308.33, -19416.20, -3612.49, 9282.34, -54052.84, -8537.43, 37066.30, 5048.97, -14592.02, 0.00, 0.00, 0.00, 0.00, 0.00, 0.00, 0.00
45, 1396.40, 65312.82, 3478.02, 28338.50, -19395.86, -3587.30, 9313.21, -54030.49, -8537.43, 37066.30, 5048.97, -14592.02, 0.00, 0.00, 0.00, 0.00, 0.00, 0.00, 0.00
46, 1396.40, 65312.82, 3478.02, 28338.50, -19395.86, -3587.30, 9313.21, -54030.49, -8539.39, 37065.20, 5046.08, -14579.35, 0.00, 0.00, 0.00, 0.00, 0.00, 0.00, 0.00
47, 1381.43, 65286.85, 3455.98, 28311.75, -19409.81, -3610.03, 9289.81, -54048.13, -8539.39, 37065.20, 5046.08, -14579.35, 0.00, 0.00, 0.00, 0.00, 0.00, 0.00, 0.00
48, 1381.43, 65286.85, 3455.98, 28311.75, -19409.81, -3610.03, 9289.81, -54048.13, -8530.27, 37072.80, 5048.72, -14598.48, 0.00, 0.00, 0.00, 0.00, 0.00, 0.00, 0.00
49, 1397.65, 65312.89, 3481.22, 28341.85, -19385.64, -3581.89, 9323.94, -54019.38, -8530.27, 37072.80, 5048.72, -14598.48, 0.00, 0.00, 0.00, 0.00, 0.00, 0.00, 0.00
50, 1397.65, 65312.89, 3481.22, 28341.85, -19385.64, -3581.89, 9323.94, -54019.38, -8538.05, 37068.49, 5048.23, -14595.42, 0.00, 0.00, 0.00, 0.00, 0.11, 0.38, 0.94
51, 1373.65, 65275.74, 3449.03, 28306.16, -19416.69, -3613.20, 9284.27, -54051.16, -8538.05, 37068.49, 5048.23, -14595.42, 0.00, 0.00, 0.00, 0.00, 0.00, 0.00, 0.00
52, 1373.65, 65275.74, 3449.03, 28306.16, -19416.69, -3613.20, 9284.27, -54051.16, -8541.29, 37058.54, 5034.69, -14582.05, 0.00, 0.00, 0.00, 0.00, 0.00, 0.00, 0.00
53, 1392.31, 65305.78, 3472.99, 28336.33, -19393.94, -3589.11, 9318.40, -54024.52, -8541.29, 37058.54, 5034.69, -14582.05, 0.00, 0.00, 0.00, 0.00, 0.00, 0.00, 0.00
54, 1392.31, 65305.78, 3472.99, 28336.33, -19393.94, -3589.11, 9318.40, -54024.52, -8542.12, 37073.83, 5052.23, -14601.39, 0.00, 0.00, 0.00, 0.00, 0.00, 0.00, 0.00
55, 1375.21, 65279.50, 3450.35, 28306.76, -19414.12, -3612.33, 9284.85, -54049.04, -8542.12, 37073.83, 5052.23, -14601.39, 0.00, 0.00, 0.00, 0.00, 0.00, 0.00, 0.00
56, 1375.21, 65279.50, 3450.35, 28306.76, -19414.12, -3612.33, 9284.85, -54049.04, -8543.22, 37055.75, 5031.58, -14583.51, 0.00, 0.00, 0.00, 0.00, 0.00, 0.00, 0.00
57, 1391.02, 65308.62, 3473.22, 28337.34, -19395.39, -3587.68, 9317.64, -54026.09, -8543.22, 37055.75, 5031.58, -14583.51, 0.00, 0.00, 0.00, 0.00, 0.00, 0.00, 0.00
58, 1391.02, 65308.62, 3473.22, 28337.34, -19395.39, -3587.68, 9317.64, -54026.09, -8540.85, 37078.64, 5053.80, -14594.06, 0.00, 0.00, 0.00, 0.00, 0.00, 0.00, 0.00
59, 1367.77, 65280.64, 3450.08, 28308.01, -19416.00, -3610.50, 9288.13, -54050.27, -8540.85, 37078.64, 5053.80, -14594.06, 0.00, 0.00, 0.00, 0.00, 0.00, 0.00, 0.00
60, 1367.77, 65280.64, 3450.08, 28308.01, -19416.00, -3610.50, 9288.13, -54050.27, -8548.51, 37047.16, 5022.79, -14580.69, 0.00, 0.00, 0.00, 0.00, 0.11, 0.38, 0.94
61, 1382.72, 65297.82, 3466.49, 28329.99, -19400.17, -3593.45, 9315.25, -54030.04, -8548.51, 37047.16, 5022.79, -14580.69, 0.00, 0.00, 0.00, 0.00, 0.00, 0.00, 0.00
62, 1382.72, 65297.82, 3466.49, 28329.99, -19400.17, -3593.45, 9315.25, -54030.04, -8535.80, 37083.38, 5058.49, -14618.58, 0.00, 0.00, 0.00, 0.00, 0.00, 0.00, 0.00
63, 1377.31, 65281.66, 3454.73, 28314.27, -19407.77, -3606.88, 9293.81, -54045.29, -8535.80, 37083.38, 5058.49, -14618.58, 0.00, 0.00, 0.00, 0.00, 0.00, 0.00, 0.00
64, 1377.31, 65281.66, 3454.73, 28314.27, -19407.77, -3606.88, 9293.81, -54045.29, -8544.27, 37047.43, 5031.11, -14578.10, 0.00, 0.00, 0.00, 0.00, 0.00, 0.00, 0.00
65, 1389.32, 65300.93, 3471.32, 28333.67, -19398.56, -3591.75, 9316.09, -54029.46, -8544.27, 37047.43, 5031.11, -14578.10, 0.00, 0.00, 0.00, 0.00, 0.00, 0.00, 0.00
66, 1389.32, 65300.93, 3471.32, 28333.67, -19398.56, -3591.75, 9316.09, -54029.46, -8538.03, 37086.55, 5062.09, -14591.89, 0.00, 0.00, 0.00, 0.00, 0.00, 0.00, 0.00
67, 1380.38, 65289.89, 3460.59, 28318.07, -19408.20, -3603.84, 9300.76, -54045.67, -8538.03, 37086.55, 5062.09, -14591.89, 0.00, 0.00, 0.00, 0.00, 0.00, 0.00, 0.00
68, 1380.38, 65289.89, 3460.59, 28318.07, -19408.20, -3603.84, 9300.76, -54045.67, -8546.57, 37043.68, 5027.64, -14571.93, 0.00, 0.00, 0.00, 0.00, 0.00, 0.00, 0.00
69, 1385.25, 65303.68, 3472.41, 28332.89, -19402.07, -3595.10, 9311.18, -54035.79, -8546.57, 37043.68, 5027.64, -14571.93, 0.00, 0.00, 0.00, 0.00, 0.00, 0.00, 0.00
70, 1385.25, 65303.68, 3472.41, 28332.89, -19402.07, -3595.10, 9311.18, -54035.79, -8536.20, 37086.82, 5065.15, -14616.27, 0.00, 0.00, 0.00, 0.00, 0.11, 0.38, 0.94
71, 1389.79, 65298.05, 3465.26, 28325.00, -19404.80, -3599.66, 9305.37, -54040.10, -8536.20, 37086.82, 5065.15, -14616.27, 0.00, 0.00, 0.00, 0.00, 0.00, 0.00, 0.00
72, 1389.79, 65298.05, 3465.26, 28325.00, -19404.80, -3599.66, 9305.37, -54040.10, -8551.55, 37039.19, 5021.86, -14578.90, 0.00, 0.00, 0.00, 0.00, 0.00, 0.00, 0.00
73, 1380.56, 65291.48, 3459.47, 28322.45, -19407.75, -3602.88, 9303.35, -54044.66, -8551.55, 37039.19, 5021.86, -14578.90, 0.00, 0.00, 0.00, 0.00, 0.00, 0.00, 0.00
74, 1380.56, 65291.48, 3459.47, 28322.45, -19407.75, -3602.88, 9303.35, -54044.66, -8538.84, 37083.46, 5061.64, -14602.66, 0.00, 0.00, 0.00, 0.00, 0.00, 0.00, 0.00
75, 1388.76, 65298.90, 3470.22, 28330.81, -19397.63, -3593.07, 9311.40, -54032.57, -8538.84, 37083.46, 5061.64, -14602.66, 0.00, 0.00, 0.00, 0.00, 0.00, 0.00, 0.00
76, 1388.76, 65298.90, 3470.22, 28330.81, -19397.63, -3593.07, 9311.40, -54032.57, -8546.46, 37045.58, 5022.93, -14581.83, 0.00, 0.00, 0.00, 0.00, 0.00, 0.00, 0.00
77, 1384.89, 65297.47, 3467.40, 28327.53, -19405.29, -3597.83, 9307.51, -54040.19, -8546.46, 37045.58, 5022.93, -14581.83, 0.00, 0.00, 0.00, 0.00, 0.00, 0.00, 0.00
78, 1384.89, 65297.47, 3467.40, 28327.53, -19405.29, -3597.83, 9307.51, -54040.19, -8534.66, 37092.29, 5068.71, -14593.30, 0.00, 0.00, 0.00, 0.00, 0.00, 0.00, 0.00
79, 1395.82, 65309.67, 3478.87, 28340.00, -19389.29, -3584.12, 9321.66, -54026.49, -8534.66, 37092.29, 5068.71, -14593.30, 0.00, 0.00, 0.00, 0.00, 0.00, 0.00, 0.00
80, 1395.82, 65309.67, 3478.87, 28340.00, -19389.29, -3584.12, 9321.66, -54026.49, -8542.59, 37055.19, 5028.34, -14574.81, 0.00, 0.00, 0.00, 0.00, 0.11, 0.38, 0.94
81, 1384.06, 65293.36, 3460.07, 28322.12, -19406.99, -3600.58, 9306.44, -54041.53, -8542.59, 37055.19, 5028.34, -14574.81, 0.00, 0.00, 0.00, 0.00, 0.00, 0.00, 0.00
82, 1384.06, 65293.36, 3460.07, 28322.12, -19406.99, -3600.58, 9306.44, -54041.53, -8537.79, 37082.41, 5062.18, -14585.45, 0.00, 0.00, 0.00, 0.00, 0.00, 0.00, 0.00
83, 1394.93, 65308.98, 3475.05, 28338.95, -19394.18, -3586.96, 9319.02, -54027.52, -8537.79, 37082.41, 5062.18, -14585.45, 0.00, 0.00, 0.00, 0.00, 0.00, 0.00, 0.00
84, 1394.93, 65308.98, 3475.05, 28338.95, -19394.18, -3586.96, 9319.02, -54027.52, -8548.89, 37048.48, 5028.83, -14587.44, 0.00, 0.00, 0.00, 0.00, 0.00, 0.00, 0.00
85, 1370.70, 65282.40, 3454.17, 28315.37, -19409.34, -3606.28, 9297.34, -54045.18, -8548.89, 37048.48, 5028.83, -14587.44, 0.00, 0.00, 0.00, 0.00, 0.00, 0.00, 0.00
86, 1370.70, 65282.40, 3454.17, 28315.37, -19409.34, -3606.28, 9297.34, -54045.18, -8536.94, 37076.58, 5054.11, -14600.47, 0.00, 0.00, 0.00, 0.00, 0.00, 0.00, 0.00
87, 1383.17, 65303.01, 3472.30, 28338.77, -19389.80, -3586.72, 9323.74, -54025.71, -8536.94, 37076.58, 5054.11, -14600.47, 0.00, 0.00, 0.00, 0.00, 0.00, 0.00, 0.00
88, 1383.17, 65303.01, 3472.30, 28338.77, -19389.80, -3586.72, 9323.74, -54025.71, -8550.46, 37048.46, 5025.90, -14596.47, 0.00, 0.00, 0.00, 0.00, 0.00, 0.00, 0.00
89, 1360.98, 65270.20, 3446.01, 28310.85, -19417.14, -3609.72, 9294.48, -54052.82, -8550.46, 37048.46, 5025.90, -14596.47, 0.00, 0.00, 0.00, 0.00, 0.00, 0.00, 0.00
90, 1360.98, 65270.20, 3446.01, 28310.85, -19417.14, -3609.72, 9294.48, -54052.82, -8542.10, 37070.77, 5044.65, -14594.30, 0.00, 0.00, 0.00, 0.00, 0.11, 0.38, 0.94
91, 1385.65, 65306.45, 3475.03, 28342.21, -19390.36, -3584.50, 9324.43, -54022.04, -8542.10, 37070.77, 5044.65, -14594.30, 0.00, 0.00, 0.00, 0.00, 0.00, 0.00, 0.00
92, 1385.65, 65306.45, 3475.03, 28342.21, -19390.36, -3584.50, 9324.43, -54022.04, -8542.61, 37061.09, 5036.05, -14571.68, 0.00, 0.00, 0.00, 0.00, 0.00, 0.00, 0.00
93, 1370.47, 65280.48, 3453.21, 28315.35, -19409.23, -3606.90, 9297.48, -54049.51, -8542.61, 37061.09, 5036.05, -14571.68, 0.00, 0.00, 0.00, 0.00, 0.00, 0.00, 0.00
94, 1370.47, 65280.48, 3453.21, 28315.35, -19409.23, -3606.90, 9297.48, -54049.51, -8540.65, 37068.82, 5039.27, -14592.29, 0.00, 0.00, 0.00, 0.00, 0.00, 0.00, 0.00
95, 1388.89, 65306.12, 3474.60, 28343.02, -19392.02, -3582.67, 9329.95, -54025.53, -8540.65, 37068.82, 5039.27, -14592.29, 0.00, 0.00, 0.00, 0.00, 0.00, 0.00, 0.00
96, 1388.89, 65306.12, 3474.60, 28343.02, -19392.02, -3582.67, 9329.95, -54025.53, -8544.40, 37062.39, 5037.26, -14605.25, 0.00, 0.00, 0.00, 0.00, 0.00, 0.00, 0.00
97, 1365.00, 65275.88, 3451.98, 28314.00, -19413.61, -3607.26, 9294.19, -54052.08, -8544.40, 37062.39, 5037.26, -14605.25, 0.00, 0.00, 0.00, 0.00, 0.00, 0.00, 0.00
98, 1365.00, 65275.88, 3451.98, 28314.00, -19413.61, -3607.26, 9294.19, -54052.08, -8538.37, 37061.88, 5031.33, -14575.62, 0.00, 0.00, 0.00, 0.00, 0.00, 0.00, 0.00
99, 1381.11, 65309.61, 3478.85, 28343.71, -19384.75, -3581.91, 9330.69, -54019.45, -8538.37, 37061.88, 5031.33, -14575.62, 0.00, 0.00, 0.00, 0.00, 0.11, 0.39, 0.94
100, 1381.11, 65309.61, 3478.85, 28343.71, -19384.75, -3581.91, 9330.69, -54019.45, -8535.55, 37075.20, 5049.01, -14584.36, 0.00, 0.00, 0.00, 0.00, 0.00, 0.00, 0.00
101, 1367.43, 65277.35, 3451.47, 28312.24, -19408.40, -3607.55, 9298.08, -54049.46, -8535.55, 37075.20, 5049.01, -14584.36, 0.00, 0.00, 0.00, 0.00, 0.00, 0.00, 0.00
102, 1367.43, 65277.35, 3451.47, 28312.24, -19408.40, -3607.55, 9298.08, -54049.46, -8540.58, 37058.63, 5032.05, -14585.63, 0.00, 0.00, 0.00, 0.00, 0.00, 0.00, 0.00
103, 1389.47, 65311.26, 3479.29, 28343.60, -19389.91, -3582.56, 9329.80, -54021.68, -8540.58, 37058.63, 5032.05, -14585.63, 0.00, 0.00, 0.00, 0.00, 0.00, 0.00, 0.00
104, 1389.47, 65311.26, 3479.29, 28343.60, -19389.91, -3582.56, 9329.80, -54021.68, -8539.84, 37078.95, 5053.46, -14597.81, 0.00, 0.00, 0.00, 0.00, 0.00, 0.00, 0.00
105, 1374.21, 65287.34, 3458.51, 28317.63, -19407.51, -3603.30, 9300.81, -54044.44, -8539.84, 37078.95, 5053.46, -14597.81, 0.00, 0.00, 0.00, 0.00, 0.00, 0.00, 0.00
106, 1374.21, 65287.34, 3458.51, 28317.63, -19407.51, -3603.30, 9300.81, -54044.44, -8539.80, 37057.47, 5034.37, -14570.77, 0.00, 0.00, 0.00, 0.00, 0.00, 0.00, 0.00
107, 1388.78, 65315.77, 3483.03, 28342.86, -19386.70, -3582.54, 9329.01, -54019.52, -8539.80, 37057.47, 5034.37, -14570.77, 0.00, 0.00, 0.00, 0.00, 0.00, 0.00, 0.00
108, 1388.78, 65315.77, 3483.03, 28342.86, -19386.70, -3582.54, 9329.01, -54019.52, -8533.11, 37087.55, 5059.21, -14584.29, 0.00, 0.00, 0.00, 0.00, 0.00, 0.00, 0.00
109, 1375.53, 65295.43, 3464.81, 28319.90, -19399.35, -3599.99, 9307.58, -54040.01, -8533.11, 37087.55, 5059.21, -14584.29, 0.00, 0.00, 0.00, 0.00, 0.11, 0.38, 0.94
110, 1375.53, 65295.43, 3464.81, 28319.90, -19399.35, -3599.99, 9307.58, -54040.01, -8539.01, 37051.66, 5031.18, -14581.09, 0.00, 0.00, 0.00, 0.00, 0.00, 0.00, 0.00
111, 1392.16, 65313.07, 3479.45, 28340.22, -19393.87, -3585.24, 9323.92, -54026.22, -8539.01, 37051.66, 5031.18, -14581.09, 0.00, 0.00, 0.00, 0.00, 0.00, 0.00, 0.00
112, 1392.16, 65313.07, 3479.45, 28340.22, -19393.87, -3585.24, 9323.92, -54026.22, -8532.80, 37088.88, 5062.65, -14601.14, 0.00, 0.00, 0.00, 0.00, 0.00, 0.00, 0.00
113, 1383.48, 65296.17, 3466.24, 28323.57, -19400.38, -3597.29, 9307.96, -54040.13, -8532.80, 37088.88, 5062.65, -14601.14, 0.00, 0.00, 0.00, 0.00, 0.00, 0.00, 0.00
114, 1383.48, 65296.17, 3466.24, 28323.57, -19400.38, -3597.29, 9307.96, -54040.13, -8540.62, 37054.77, 5028.54, -14567.77, 0.00, 0.00, 0.00, 0.00, 0.00, 0.00, 0.00
115, 1382.63, 65309.27, 3475.61, 28336.76, -19396.46, -3587.19, 9323.02, -54027.59, -8540.62, 37054.77, 5028.54, -14567.77, 0.00, 0.00, 0.00, 0.00, 0.00, 0.00, 0.00
116, 1382.63, 65309.27, 3475.61, 28336.76, -19396.46, -3587.19, 9323.02, -54027.59, -8531.04, 37094.35, 5063.92, -14576.82, 0.00, 0.00, 0.00, 0.00, 0.00, 0.00, 0.00
117, 1383.42, 65294.63, 3465.59, 28325.49, -19399.50, -3593.94, 9312.03, -54035.34, -8531.04, 37094.35, 5063.92, -14576.82, 0.00, 0.00, 0.00, 0.00, 0.00, 0.00, 0.00
118, 1383.42, 65294.63, 3465.59, 28325.49, -19399.50, -3593.94, 9312.03, -54035.34, -8544.51, 37046.41, 5022.48, -14586.35, 0.00, 0.00, 0.00, 0.00, 0.00, 0.00, 0.00
119, 1381.92, 65301.38, 3470.33, 28329.52, -19400.02, -3592.64, 9314.64, -54034.29, -8544.51, 37046.41, 5022.48, -14586.35, 0.00, 0.00, 0.00, 0.00, 0.11, 0.38, 0.93
120, 1381.92, 65301.38, 3470.33, 28329.52, -19400.02, -3592.64, 9314.64, -54034.29, -8536.96, 37087.20, 5062.49, -14591.69, 0.00, 0.00, 0.00, 0.00, 0.00, 0.00, 0.00
121, 1381.34, 65301.87, 3469.57, 28329.96, -19398.74, -3591.17, 9314.37, -54034.63, -8536.96, 37087.20, 5062.49, -14591.69, 0.00, 0.00, 0.00, 0.00, 0.00, 0.00, 0.00
122, 1381.34, 65301.87, 3469.57, 28329.96, -19398.74, -3591.17, 9314.37, -54034.63, -8546.93, 37048.51, 5018.77, -14569.40, 0.00, 0.00, 0.00, 0.00, 0.00, 0.00, 0.00
123, 1375.55, 65294.50, 3466.08, 28329.58, -19404.04, -3591.88, 9316.43, -54036.55, -8546.93, 37048.51, 5018.77, -14569.40, 0.00, 0.00, 0.00, 0.00, 0.00, 0.00, 0.00
124, 1375.55, 65294.50, 3466.08, 28329.58, -19404.04, -3591.88, 9316.43, -54036.55, -8530.21, 37094.95, 5063.36, -14596.67, 0.00, 0.00, 0.00, 0.00, 0.00, 0.00, 0.00
125, 1380.96, 65306.90, 3475.83, 28338.57, -19392.02, -3584.35, 9325.95, -54027.03, -8530.21, 37094.95, 5063.36, -14596.67, 0.00, 0.00, 0.00, 0.00, 0.00, 0.00, 0.00
126, 1380.96, 65306.90, 3475.83, 28338.57, -19392.02, -3584.35, 9325.95, -54027.03, -8542.48, 37050.36, 5020.09, -14576.56, 0.00, 0.00, 0.00, 0.00, 0.00, 0.00, 0.00
127, 1376.58, 65288.88, 3459.87, 28322.86, -19404.31, -3596.57, 9310.42, -54037.02, -8542.48, 37050.36, 5020.09, -14576.56, 0.00, 0.00, 0.00, 0.00, 0.00, 0.00, 0.00
128, 1376.58, 65288.88, 3459.87, 28322.86, -19404.31, -3596.57, 9310.42, -54037.02, -8535.21, 37088.02, 5056.25, -14571.33, 0.00, 0.00, 0.00, 0.00, 0.00, 0.00, 0.00
129, 1386.55, 65304.62, 3475.07, 28341.79, -19394.09, -3581.69, 9329.24, -54026.45, -8535.21, 37088.02, 5056.25, -14571.33, 0.00, 0.00, 0.00, 0.00, 0.11, 0.37, 0.94
130, 1386.55, 65304.62, 3475.07, 28341.79, -19394.09, -3581.69, 9329.24, -54026.45, -8543.98, 37056.15, 5024.00, -14565.74, 0.00, 0.00, 0.00, 0.00, 0.00, 0.00, 0.00
131, 1372.08, 65290.07, 3460.56, 28322.19, -19403.93, -3596.08, 9312.79, -54040.95, -8543.98, 37056.15, 5024.00, -14565.74, 0.00, 0.00, 0.00, 0.00, 0.00, 0.00, 0.00
132, 1372.08, 65290.07, 3460.56, 28322.19, -19403.93, -3596.08, 9312.79, -54040.95, -8529.56, 37092.23, 5056.50, -14593.43, 0.00, 0.00, 0.00, 0.00, 0.00, 0.00, 0.00
133, 1386.01, 65309.34, 3475.70, 28341.97, -19391.26, -3581.13, 9330.94, -54021.84, -8529.56, 37092.23, 5056.50, -14593.43, 0.00, 0.00, 0.00, 0.00, 0.00, 0.00, 0.00
134, 1386.01, 65309.34, 3475.70, 28341.97, -19391.26, -3581.13, 9330.94, -54021.84, -8540.02, 37056.02, 5027.44, -14584.40, 0.00, 0.00, 0.00, 0.00, 0.00, 0.00, 0.00
135, 1375.17, 65293.06, 3460.81, 28319.53, -19406.74, -3600.22, 9309.97, -54044.88, -8540.02, 37056.02, 5027.44, -14584.40, 0.00, 0.00, 0.00, 0.00, 0.00, 0.00, 0.00
136, 1375.17, 65293.06, 3460.81, 28319.53, -19406.74, -3600.22, 9309.97, -54044.88, -8533.16, 37080.56, 5055.52, -14574.34, 0.00, 0.00, 0.00, 0.00, 0.00, 0.00, 0.00
137, 1398.17, 65322.14, 3486.38, 28348.54, -19384.75, -3576.84, 9338.65, -54016.99, -8533.16, 37080.56, 5055.52, -14574.34, 0.00, 0.00, 0.00, 0.00, 0.00, 0.00, 0.00
138, 1398.17, 65322.14, 3486.38, 28348.54, -19384.75, -3576.84, 9338.65, -54016.99, -8536.56, 37064.15, 5040.59, -14565.78, 0.00, 0.00, 0.00, 0.00, 0.11, 0.38, 0.93
139, 1377.07, 65292.30, 3460.90, 28317.49, -19407.39, -3600.71, 9308.23, -54042.38, -8536.56, 37064.15, 5040.59, -14565.78, 0.00, 0.00, 0.00, 0.00, 0.00, 0.00, 0.00
140, 1377.07, 65292.30, 3460.90, 28317.49, -19407.39, -3600.71, 9308.23, -54042.38, -8530.19, 37080.78, 5054.35, -14593.36, 0.00, 0.00, 0.00, 0.00, 0.00, 0.00, 0.00
141, 1397.92, 65324.87, 3488.37, 28349.65, -19384.91, -3572.68, 9342.56, -54014.91, -8530.19, 37080.78, 5054.35, -14593.36, 0.00, 0.00, 0.00, 0.00, 0.00, 0.00, 0.00
142, 1397.92, 65324.87, 3488.37, 28349.65, -19384.91, -3572.68, 9342.56, -54014.91, -8537.67, 37072.67, 5047.65, -14578.25, 0.00, 0.00, 0.00, 0.00, 0.00, 0.00, 0.00
143, 1374.21, 65297.51, 3466.17, 28319.95, -19402.79, -3599.75, 9315.04, -54041.78, -8537.67, 37072.67, 5047.65, -14578.25, 0.00, 0.00, 0.00, 0.00, 0.00, 0.00, 0.00
144, 1374.21, 65297.51, 3466.17, 28319.95, -19402.79, -3599.75, 9315.04, -54041.78, -8534.16, 37072.73, 5046.51, -14569.47, 0.00, 0.00, 0.00, 0.00, 0.00, 0.00, 0.00
145, 1396.16, 65321.88, 3486.43, 28350.33, -19386.20, -3573.57, 9346.29, -54014.46, -8534.16, 37072.73, 5046.51, -14569.47, 0.00, 0.00, 0.00, 0.00, 0.00, 0.00, 0.00
146, 1396.16, 65321.88, 3486.43, 28350.33, -19386.20, -3573.57, 9346.29, -54014.46, -8532.40, 37077.79, 5052.08, -14577.47, 0.00, 0.00, 0.00, 0.00, 0.00, 0.00, 0.00
147, 1375.84, 65296.60, 3464.56, 28320.38, -19404.73, -3597.92, 9318.58, -54037.31, -8532.40, 37077.79, 5052.08, -14577.47, 0.00, 0.00, 0.00, 0.00, 0.00, 0.00, 0.00
148, 1375.84, 65296.60, 3464.56, 28320.38, -19404.73, -3597.92, 9318.58, -54037.31, -8530.36, 37072.42, 5043.74, -14577.38, 0.00, 0.00, 0.00, 0.00, 0.10, 0.38, 0.94
149, 1387.71, 65316.60, 3483.25, 28346.75, -19387.75, -3575.97, 9350.99, -54017.75, -8530.36, 37072.42, 5043.74, -14577.38, 0.00, 0.00, 0.00, 0.00, 0.00, 0.00, 0.00
150, 1387.71, 65316.60, 3483.25, 28346.75, -19387.75, -3575.97, 9350.99, -54017.75, -8536.29, 37078.59, 5051.70, -14577.99, 0.00, 0.00, 0.00, 0.00, 0.00, 0.00, 0.00
151, 1367.01, 65287.01, 3458.28, 28316.64, -19408.80, -3600.46, 9320.88, -54044.77, -8536.29, 37078.59, 5051.70, -14577.99, 0.00, 0.00, 0.00, 0.00, 0.00, 0.00, 0.00
152, 1367.01, 65287.01, 3458.28, 28316.64, -19408.80, -3600.46, 9320.88, -54044.77, -8539.77, 37057.16, 5027.26, -14567.30, 0.00, 0.00, 0.00, 0.00, 0.00, 0.00, 0.00
153, 1382.50, 65307.84, 3476.64, 28344.25, -19391.12, -3578.18, 9352.71, -54023.09, -8539.77, 37057.16, 5027.26, -14567.30, 0.00, 0.00, 0.00, 0.00, 0.00, 0.00, 0.00
154, 1382.50, 65307.84, 3476.64, 28344.25, -19391.12, -3578.18, 9352.71, -54023.09, -8536.73, 37079.09, 5048.77, -14589.52, 0.00, 0.00, 0.00, 0.00, 0.00, 0.00, 0.00
155, 1369.98, 65286.87, 3458.69, 28319.37, -19412.04, -3599.08, 9326.56, -54047.90, -8536.73, 37079.09, 5048.77, -14589.52, 0.00, 0.00, 0.00, 0.00, 0.00, 0.00, 0.00
156, 1369.98, 65286.87, 3458.69, 28319.37, -19412.04, -3599.08, 9326.56, -54047.90, -8543.06, 37051.10, 5023.82, -14588.25, 0.00, 0.00, 0.00, 0.00, 0.00, 0.00, 0.00
157, 1383.53, 65310.19, 3476.59, 28341.21, -19392.33, -3581.11, 9357.20, -54025.57, -8543.06, 37051.10, 5023.82, -14588.25, 0.00, 0.00, 0.00, 0.00, 0.00, 0.00, 0.00
158, 1383.53, 65310.19, 3476.59, 28341.21, -19392.33, -3581.11, 9357.20, -54025.57, -8534.66, 37086.01, 5055.18, -14590.19, 0.00, 0.00, 0.00, 0.00, 0.10, 0.37, 0.94
159, 1376.64, 65295.10, 3466.93, 28326.77, -19401.83, -3593.15, 9345.00, -54038.52, -8534.66, 37086.01, 5055.18, -14590.19, 0.00, 0.00, 0.00, 0.00, 0.00, 0.00, 0.00
160, 1376.64, 65295.10, 3466.93, 28326.77, -19401.83, -3593.15, 9345.00, -54038.52, -8541.05, 37049.25, 5023.73, -14561.98, 0.00, 0.00, 0.00, 0.00, 0.00, 0.00, 0.00
161, 1381.36, 65310.05, 3476.46, 28341.21, -19397.47, -3583.32, 9364.53, -54028.01, -8541.05, 37049.25, 5023.73, -14561.98, 0.00, 0.00, 0.00, 0.00, 0.00, 0.00, 0.00
162, 1381.36, 65310.05, 3476.46, 28341.21, -19397.47, -3583.32, 9364.53, -54028.01, -8539.46, 37085.07, 5049.53, -14601.75, 0.00, 0.00, 0.00, 0.00, 0.00, 0.00, 0.00
163, 1369.09, 65287.45, 3458.15, 28322.23, -19412.38, -3598.45, 9348.91, -54044.95, -8539.46, 37085.07, 5049.53, -14601.75, 0.00, 0.00, 0.00, 0.00, 0.00, 0.00, 0.00
164, 1369.09, 65287.45, 3458.15, 28322.23, -19412.38, -3598.45, 9348.91, -54044.95, -8549.12, 37046.07, 5009.72, -14571.42, 0.00, 0.00, 0.00, 0.00, 0.00, 0.00, 0.00
165, 1381.43, 65299.32, 3467.45, 28334.79, -19401.72, -3586.96, 9370.34, -54032.46, -8549.12, 37046.07, 5009.72, -14571.42, 0.00, 0.00, 0.00, 0.00, 0.00, 0.00, 0.00
166, 1381.43, 65299.32, 3467.45, 28334.79, -19401.72, -3586.96, 9370.34, -54032.46, -8531.88, 37090.57, 5052.97, -14593.05, 0.00, 0.00, 0.00, 0.00, 0.00, 0.00, 0.00
167, 1380.40, 65300.89, 3467.63, 28331.46, -19400.38, -3587.43, 9376.44, -54033.22, -8531.88, 37090.57, 5052.97, -14593.05, 0.00, 0.00, 0.00, 0.00, 0.00, 0.00, 0.00
168, 1380.40, 65300.89, 3467.63, 28331.46, -19400.38, -3587.43, 9376.44, -54033.22, -8539.42, 37049.63, 5015.49, -14550.87, 0.00, 0.00, 0.00, 0.00, 0.10, 0.37, 0.94
169, 1374.81, 65301.29, 3467.29, 28332.56, -19401.20, -3588.15, 9382.32, -54033.71, -8539.42, 37049.63, 5015.49, -14550.87, 0.00, 0.00, 0.00, 0.00, 0.00, 0.00, 0.00
170, 1374.81, 65301.29, 3467.29, 28332.56, -19401.20, -3588.15, 9382.32, -54033.71, -8531.33, 37089.41, 5052.83, -14595.93, 0.00, 0.00, 0.00, 0.00, 0.00, 0.00, 0.00
171, 1374.01, 65298.77, 3467.63, 28333.27, -19399.19, -3586.69, 9390.50, -54030.91, -8531.33, 37089.41, 5052.83, -14595.93, 0.00, 0.00, 0.00, 0.00, 0.00, 0.00, 0.00
172, 1374.01, 65298.77, 3467.63, 28333.27, -19399.19, -3586.69, 9390.50, -54030.91, -8548.69, 37043.37, 5004.80, -14589.25, 0.00, 0.00, 0.00, 0.00, 0.00, 0.00, 0.00
173, 1370.27, 65285.38, 3454.64, 28323.97, -19411.46, -3595.17, 9387.53, -54042.20, -8548.69, 37043.37, 5004.80, -14589.25, 0.00, 0.00, 0.00, 0.00, 0.00, 0.00, 0.00
174, 1370.27, 65285.38, 3454.64, 28323.97, -19411.46, -3595.17, 9387.53, -54042.20, -8534.99, 37086.26, 5043.47, -14586.41, 0.00, 0.00, 0.00, 0.00, 0.00, 0.00, 0.00
175, 1379.15, 65301.63, 3468.95, 28336.20, -19396.26, -3583.05, 9411.34, -54028.14, -8534.99, 37086.26, 5043.47, -14586.41, 0.00, 0.00, 0.00, 0.00, 0.00, 0.00, 0.00
176, 1379.15, 65301.63, 3468.95, 28336.20, -19396.26, -3583.05, 9411.34, -54028.14, -8540.04, 37054.90, 5017.07, -14559.86, 0.00, 0.00, 0.00, 0.00, 0.00, 0.00, 0.00
177, 1366.72, 65290.34, 3459.69, 28325.34, -19405.09, -3592.60, 9404.65, -54035.65, -8540.04, 37054.90, 5017.07, -14559.86, 0.00, 0.00, 0.00, 0.00, 0.10, 0.37, 0.93
178, 1366.72, 65290.34, 3459.69, 28325.34, -19405.09, -3592.60, 9404.65, -54035.65, -8531.42, 37090.28, 5047.54, -14587.33, 0.00, 0.00, 0.00, 0.00, 0.00, 0.00, 0.00
179, 1371.17, 65301.04, 3468.07, 28335.53, -19395.90, -3584.77, 9424.72, -54026.54, -8531.42, 37090.28, 5047.54, -14587.33, 0.00, 0.00, 0.00, 0.00, 0.00, 0.00, 0.00
180, 1371.17, 65301.04, 3468.07, 28335.53, -19395.90, -3584.77, 9424.72, -54026.54, -8544.45, 37054.96, 5014.48, -14563.68, 0.00, 0.00, 0.00, 0.00, 0.00, 0.00, 0.00
181, 1360.80, 65279.05, 3448.11, 28315.66, -19414.23, -3600.62, 9412.77, -54045.64, -8544.45, 37054.96, 5014.48, -14563.68, 0.00, 0.00, 0.00, 0.00, 0.00, 0.00, 0.00
182, 1360.80, 65279.05, 3448.11, 28315.66, -19414.23, -3600.62, 9412.77, -54045.64, -8533.69, 37086.77, 5038.53, -14583.08, 0.00, 0.00, 0.00, 0.00, 0.00, 0.00, 0.00
183, 1378.45, 65304.15, 3470.64, 28342.46, -19392.35, -3577.44, 9449.89, -54018.93, -8533.69, 37086.77, 5038.53, -14583.08, 0.00, 0.00, 0.00, 0.00, 0.00, 0.00, 0.00
184, 1378.45, 65304.15, 3470.64, 28342.46, -19392.35, -3577.44, 9449.89, -54018.93, -8539.26, 37064.46, 5021.99, -14569.36, 0.00, 0.00, 0.00, 0.00, 0.00, 0.00, 0.00
185, 1360.91, 65280.57, 3451.13, 28317.31, -19412.20, -3598.27, 9430.11, -54046.20, -8539.26, 37064.46, 5021.99, -14569.36, 0.00, 0.00, 0.00, 0.00, 0.00, 0.00, 0.00
186, 1360.91, 65280.57, 3451.13, 28317.31, -19412.20, -3598.27, 9430.11, -54046.20, -8538.61, 37077.45, 5032.63, -14588.40, 0.00, 0.00, 0.00, 0.00, 0.00, 0.00, 0.00
187, 1376.44, 65306.59, 3473.39, 28345.99, -19391.03, -3577.35, 9464.73, -54022.40, -8538.61, 37077.45, 5032.63, -14588.40, 0.00, 0.00, 0.00, 0.00, 0.11, 0.38, 0.94
188, 1376.44, 65306.59, 3473.39, 28345.99, -19391.03, -3577.35, 9464.73, -54022.40, -8539.30, 37065.43, 5024.49, -14562.14, 0.00, 0.00, 0.00, 0.00, 0.00, 0.00, 0.00
189, 1368.28, 65286.00, 3454.82, 28320.40, -19409.63, -3598.27, 9446.61, -54043.90, -8539.30, 37065.43, 5024.49, -14562.14, 0.00, 0.00, 0.00, 0.00, 0.00, 0.00, 0.00
190, 1368.28, 65286.00, 3454.82, 28320.40, -19409.63, -3598.27, 9446.61, -54043.90, -8538.10, 37073.21, 5029.77, -14582.28, 0.00, 0.00, 0.00, 0.00, 0.00, 0.00, 0.00
191, 1384.74, 65310.54, 3475.18, 28346.91, -19390.72, -3574.76, 9486.13, -54019.58, -8538.10, 37073.21, 5029.77, -14582.28, 0.00, 0.00, 0.00, 0.00, 0.00, 0.00, 0.00
192, 1384.74, 65310.54, 3475.18, 28346.91, -19390.72, -3574.76, 9486.13, -54019.58, -8540.69, 37073.12, 5027.71, -14589.56, 0.00, 0.00, 0.00, 0.00, 0.00, 0.00, 0.00
193, 1364.19, 65280.84, 3450.64, 28318.18, -19411.89, -3597.56, 9461.72, -54046.23, -8540.69, 37073.12, 5027.71, -14589.56, 0.00, 0.00, 0.00, 0.00, 0.00, 0.00, 0.00
194, 1364.19, 65280.84, 3450.64, 28318.18, -19411.89, -3597.56, 9461.72, -54046.23, -8542.41, 37065.32, 5020.54, -14554.76, 0.00, 0.00, 0.00, 0.00, 0.00, 0.00, 0.00
195, 1377.76, 65305.34, 3470.33, 28343.42, -19397.31, -3578.78, 9498.96, -54025.35, -8542.41, 37065.32, 5020.54, -14554.76, 0.00, 0.00, 0.00, 0.00, 0.00, 0.00, 0.00
196, 1377.76, 65305.34, 3470.33, 28343.42, -19397.31, -3578.78, 9498.96, -54025.35, -8548.33, 37067.30, 5021.36, -14584.27, 0.00, 0.00, 0.00, 0.00, 0.00, 0.00, 0.00
197, 1357.80, 65277.69, 3446.59, 28312.42, -19416.91, -3604.40, 9474.59, -54051.68, -8548.33, 37067.30, 5021.36, -14584.27, 0.00, 0.00, 0.00, 0.00, 0.12, 0.37, 0.94
198, 1357.80, 65277.69, 3446.59, 28312.42, -19416.91, -3604.40, 9474.59, -54051.68, -8545.79, 37058.39, 5010.32, -14581.56, 0.00, 0.00, 0.00, 0.00, 0.00, 0.00, 0.00
199, 1376.98, 65310.48, 3473.19, 28346.21, -19393.20, -3575.18, 9519.67, -54021.26, -8545.79, 37058.39, 5010.32, -14581.56, 0.00, 0.00, 0.00, 0.00, 0.00, 0.00, 0.00
200, 1376.98, 65310.48, 3473.19, 28346.21, -19393.20, -3575.18, 9519.67, -54021.26, -8540.74, 37086.48, 5028.70, -14589.01, 0.00, 0.00, 0.00, 0.00, 0.00, 0.00, 0.00
201, 1357.89, 65271.85, 3440.60, 28309.31, -19419.37, -3602.90, 9492.16, -54048.55, -8540.74, 37086.48, 5028.70, -14589.01, 0.00, 0.00, 0.00, 0.00, 0.00, 0.00, 0.00
202, 1357.89, 65271.85, 3440.60, 28309.31, -19419.37, -3602.90, 9492.16, -54048.55, -8553.07, 37055.91, 4992.26, -14557.83, 0.00, 0.00, 0.00, 0.00, 0.00, 0.00, 0.00
203, 1370.94, 65293.96, 3459.09, 28337.29, -19404.20, -3581.98, 9528.37, -54028.32, -8553.07, 37055.91, 4992.26, -14557.83, 0.00, 0.00, 0.00, 0.00, 0.00, 0.00, 0.00
204, 1370.94, 65293.96, 3459.09, 28337.29, -19404.20, -3581.98, 9528.37, -54028.32, -8545.67, 37081.12, 5024.27, -14588.80, 0.00, 0.00, 0.00, 0.00, 0.00, 0.00, 0.00
205, 1351.39, 65267.88, 3438.39, 28311.54, -19420.09, -3602.72, 9510.00, -54051.28, -8545.67, 37081.12, 5024.27, -14588.80, 0.00, 0.00, 0.00, 0.00, 0.00, 0.00, 0.00
206, 1351.39, 65267.88, 3438.39, 28311.54, -19420.09, -3602.72, 9510.00, -54051.28, -8554.01, 37047.37, 4991.01, -14570.54, 0.00, 0.00, 0.00, 0.00, 0.00, 0.00, 0.00
207, 1358.72, 65286.87, 3454.60, 28334.37, -19405.27, -3585.91, 9542.99, -54030.69, -8554.01, 37047.37, 4991.01, -14570.54, 0.00, 0.00, 0.00, 0.00, 0.11, 0.38, 0.94
208, 1358.72, 65286.87, 3454.60, 28334.37, -19405.27, -3585.91, 9542.99, -54030.69, -8538.61, 37091.27, 5027.67, -14598.57, 0.00, 0.00, 0.00, 0.00, 0.00, 0.00, 0.00
209, 1359.92, 65272.88, 3442.77, 28319.70, -19413.07, -3594.72, 9536.59, -54040.62, -8538.61, 37091.27, 5027.67, -14598.57, 0.00, 0.00, 0.00, 0.00, 0.00, 0.00, 0.00
210, 1359.92, 65272.88, 3442.77, 28319.70, -19413.07, -3594.72, 9536.59, -54040.62, -8545.61, 37051.48, 4995.66, -14544.37, 0.00, 0.00, 0.00, 0.00, 0.00, 0.00, 0.00
211, 1360.30, 65284.08, 3449.43, 28328.42, -19406.81, -3588.68, 9556.49, -54032.68, -8545.61, 37051.48, 4995.66, -14544.37, 0.00, 0.00, 0.00, 0.00, 0.00, 0.00, 0.00
212, 1360.30, 65284.08, 3449.43, 28328.42, -19406.81, -3588.68, 9556.49, -54032.68, -8538.95, 37092.16, 5027.73, -14587.53, 0.00, 0.00, 0.00, 0.00, 0.00, 0.00, 0.00
213, 1355.77, 65275.68, 3445.41, 28322.03, -19409.09, -3592.01, 9558.66, -54037.96, -8538.95, 37092.16, 5027.73, -14587.53, 0.00, 0.00, 0.00, 0.00, 0.00, 0.00, 0.00
214, 1355.77, 65275.68, 3445.41, 28322.03, -19409.09, -3592.01, 9558.66, -54037.96, -8546.37, 37051.41, 4994.36, -14576.22, 0.00, 0.00, 0.00, 0.00, 0.00, 0.00, 0.00
215, 1356.64, 65285.62, 3451.06, 28328.89, -19406.41, -3587.54, 9573.18, -54032.64, -8546.37, 37051.41, 4994.36, -14576.22, 0.00, 0.00, 0.00, 0.00, 0.00, 0.00, 0.00
