%OpenBCI Raw EEG Data
%
%Sample Rate = 250.0 Hz
%First Column = SampleIndex
%Other Columns = EEG data in microvolts followed by Accel Data (in G) interleaved with Aux Data
0, 0.00, 0.00, 0.00, 0.00, 0.00, 0.00, 0.00, 0.00, -9690.78, 36474.00, 3441.39, -18938.70, 0.00, 0.00, 0.00, 0.00, 0.10, 0.38, 0.94
1, 1475.04, 64259.63, 3435.93, 28218.94, -19906.37, -3048.29, 8830.17, -54497.98, -9690.78, 36474.00, 3441.39, -18938.70, 0.00, 0.00, 0.00, 0.00, 0.00, 0.00, 0.00
2, 1475.04, 64259.63, 3435.93, 28218.94, -19906.37, -3048.29, 8830.17, -54497.98, -9088.76, 36568.84, 3729.48, -17297.77, 0.00, 0.00, 0.00, 0.00, 0.00, 0.00, 0.00
3, 1482.43, 64281.47, 3449.28, 28234.19, -19897.66, -3035.55, 8847.69, -54483.29, -9088.76, 36568.84, 3729.48, -17297.77, 0.00, 0.00, 0.00, 0.00, 0.00, 0.00, 0.00
4, 1482.43, 64281.47, 3449.28, 28234.19, -19897.66, -3035.55, 8847.69, -54483.29, -9084.60, 36604.45, 3764.82, -17308.74, 0.00, 0.00, 0.00, 0.00, 0.00, 0.00, 0.00
5, 1482.35, 64267.23, 3437.68, 28220.57, -19909.32, -3047.12, 8830.39, -54498.82, -9084.60, 36604.45, 3764.82, -17308.74, 0.00, 0.00, 0.00, 0.00, 0.00, 0.00, 0.00
6, 1482.35, 64267.23, 3437.68, 28220.57, -19909.32, -3047.12, 8830.39, -54498.82, -9087.71, 36564.95, 3730.39, -17277.41, 0.00, 0.00, 0.00, 0.00, 0.00, 0.00, 0.00
7, 1483.33, 64280.51, 3447.35, 28231.66, -19899.67, -3040.44, 8846.89, -54487.07, -9087.71, 36564.95, 3730.39, -17277.41, 0.00, 0.00, 0.00, 0.00, 0.10, 0.39, 0.93
8, 1483.33, 64280.51, 3447.35, 28231.66, -19899.67, -3040.44, 8846.89, -54487.07, -9081.96, 36603.21, 3767.99, -17314.80, 0.00, 0.00, 0.00, 0.00, 0.00, 0.00, 0.00
9, 1480.67, 64269.51, 3442.95, 28226.65, -19901.05, -3043.64, 8837.75, -54490.96, -9081.96, 36603.21, 3767.99, -17314.80, 0.00, 0.00, 0.00, 0.00, 0.00, 0.00, 0.00
10, 1480.67, 64269.51, 3442.95, 28226.65, -19901.05, -3043.64, 8837.75, -54490.96, -9086.21, 36566.69, 3728.49, -17292.74, 0.00, 0.00, 0.00, 0.00, 0.00, 0.00, 0.00
11, 1476.89, 64280.29, 3443.89, 28226.83, -19902.22, -3044.37, 8842.60, -54488.52, -9086.21, 36566.69, 3728.49, -17292.74, 0.00, 0.00, 0.00, 0.00, 0.00, 0.00, 0.00
12, 1476.89, 64280.29, 3443.89, 28226.83, -19902.22, -3044.37, 8842.60, -54488.52, -9079.01, 36606.93, 3770.67, -17305.37, 0.00, 0.00, 0.00, 0.00, 0.00, 0.00, 0.00
13, 1484.54, 64279.66, 3448.05, 28234.32, -19895.94, -3037.16, 8847.00, -54486.31, -9079.01, 36606.93, 3770.67, -17305.37, 0.00, 0.00, 0.00, 0.00, 0.00, 0.00, 0.00
14, 1484.54, 64279.66, 3448.05, 28234.32, -19895.94, -3037.16, 8847.00, -54486.31, -9087.55, 36568.35, 3733.19, -17269.00, 0.00, 0.00, 0.00, 0.00, 0.00, 0.00, 0.00
15, 1474.48, 64270.47, 3440.09, 28229.60, -19904.50, -3042.18, 8844.05, -54492.55, -9087.55, 36568.35, 3733.19, -17269.00, 0.00, 0.00, 0.00, 0.00, 0.00, 0.00, 0.00
16, 1474.48, 64270.47, 3440.09, 28229.60, -19904.50, -3042.18, 8844.05, -54492.55, -9083.44, 36604.85, 3767.48, -17308.88, 0.00, 0.00, 0.00, 0.00, 0.11, 0.39, 0.94
17, 1480.02, 64269.80, 3444.31, 28235.73, -19898.33, -3038.81, 8847.74, -54486.24, -9083.44, 36604.85, 3767.48, -17308.88, 0.00, 0.00, 0.00, 0.00, 0.00, 0.00, 0.00
18, 1480.02, 64269.80, 3444.31, 28235.73, -19898.33, -3038.81, 8847.74, -54486.24, -9092.26, 36571.16, 3725.75, -17271.95, 0.00, 0.00, 0.00, 0.00, 0.00, 0.00, 0.00
19, 1466.79, 64257.13, 3430.61, 28221.63, -19910.87, -3047.84, 8839.06, -54494.63, -9092.26, 36571.16, 3725.75, -17271.95, 0.00, 0.00, 0.00, 0.00, 0.00, 0.00, 0.00
20, 1466.79, 64257.13, 3430.61, 28221.63, -19910.87, -3047.84, 8839.06, -54494.63, -9080.28, 36609.16, 3758.85, -17298.82, 0.00, 0.00, 0.00, 0.00, 0.00, 0.00, 0.00
21, 1482.55, 64287.13, 3449.32, 28243.33, -19893.63, -3031.61, 8861.26, -54477.68, -9080.28, 36609.16, 3758.85, -17298.82, 0.00, 0.00, 0.00, 0.00, 0.00, 0.00, 0.00
22, 1482.55, 64287.13, 3449.32, 28243.33, -19893.63, -3031.61, 8861.26, -54477.68, -9085.34, 36579.19, 3732.92, -17282.17, 0.00, 0.00, 0.00, 0.00, 0.00, 0.00, 0.00
23, 1472.00, 64266.34, 3436.54, 28223.32, -19903.07, -3048.11, 8841.90, -54490.82, -9085.34, 36579.19, 3732.92, -17282.17, 0.00, 0.00, 0.00, 0.00, 0.00, 0.00, 0.00
24, 1472.00, 64266.34, 3436.54, 28223.32, -19903.07, -3048.11, 8841.90, -54490.82, -9078.97, 36609.43, 3763.43, -17279.64, 0.00, 0.00, 0.00, 0.00, 0.00, 0.00, 0.00
25, 1492.40, 64284.15, 3456.81, 28248.60, -19883.15, -3026.52, 8867.34, -54472.32, -9078.97, 36609.43, 3763.43, -17279.64, 0.00, 0.00, 0.00, 0.00, 0.00, 0.00, 0.00
26, 1492.40, 64284.15, 3456.81, 28248.60, -19883.15, -3026.52, 8867.34, -54472.32, -9083.06, 36587.91, 3743.58, -17264.64, 0.00, 0.00, 0.00, 0.00, 0.11, 0.38, 0.94
27, 1474.52, 64268.44, 3440.69, 28225.47, -19899.94, -3045.92, 8846.31, -54487.96, -9083.06, 36587.91, 3743.58, -17264.64, 0.00, 0.00, 0.00, 0.00, 0.00, 0.00, 0.00
28, 1474.52, 64268.44, 3440.69, 28225.47, -19899.94, -3045.92, 8846.31, -54487.96, -9068.71, 36618.10, 3765.73, -17269.78, 0.00, 0.00, 0.00, 0.00, 0.00, 0.00, 0.00
29, 1494.59, 64297.25, 3463.83, 28252.78, -19874.86, -3020.88, 8878.72, -54459.93, -9068.71, 36618.10, 3765.73, -17269.78, 0.00, 0.00, 0.00, 0.00, 0.00, 0.00, 0.00
30, 1494.59, 64297.25, 3463.83, 28252.78, -19874.86, -3020.88, 8878.72, -54459.93, -9070.02, 36599.39, 3750.15, -17267.75, 0.00, 0.00, 0.00, 0.00, 0.00, 0.00, 0.00
31, 1467.26, 64268.50, 3437.79, 28223.61, -19899.69, -3045.74, 8847.78, -54486.51, -9070.02, 36599.39, 3750.15, -17267.75, 0.00, 0.00, 0.00, 0.00, 0.00, 0.00, 0.00
32, 1467.26, 64268.50, 3437.79, 28223.61, -19899.69, -3045.74, 8847.78, -54486.51, -9072.33, 36608.02, 3751.47, -17272.73, 0.00, 0.00, 0.00, 0.00, 0.00, 0.00, 0.00
33, 1491.91, 64292.27, 3460.32, 28255.42, -19875.64, -3021.64, 8882.47, -54460.43, -9072.33, 36608.02, 3751.47, -17272.73, 0.00, 0.00, 0.00, 0.00, 0.00, 0.00, 0.00
34, 1491.91, 64292.27, 3460.32, 28255.42, -19875.64, -3021.64, 8882.47, -54460.43, -9066.65, 36613.70, 3758.96, -17253.54, 0.00, 0.00, 0.00, 0.00, 0.00, 0.00, 0.00
35, 1479.77, 64278.94, 3447.91, 28229.71, -19890.59, -3042.12, 8859.38, -54480.63, -9066.65, 36613.70, 3758.96, -17253.54, 0.00, 0.00, 0.00, 0.00, 0.00, 0.00, 0.00
36, 1479.77, 64278.94, 3447.91, 28229.71, -19890.59, -3042.12, 8859.38, -54480.63, -9059.68, 36614.19, 3763.92, -17253.20, 0.00, 0.00, 0.00, 0.00, 0.11, 0.38, 0.94
37, 1504.47, 64310.30, 3477.80, 28265.95, -19862.47, -3012.32, 8896.40, -54450.34, -9059.68, 36614.19, 3763.92, -17253.20, 0.00, 0.00, 0.00, 0.00, 0.00, 0.00, 0.00
38, 1504.47, 64310.30, 3477.80, 28265.95, -19862.47, -3012.32, 8896.40, -54450.34, -9060.15, 36620.47, 3777.96, -17262.16, 0.00, 0.00, 0.00, 0.00, 0.00, 0.00, 0.00
39, 1478.97, 64274.65, 3449.43, 28231.88, -19886.30, -3040.15, 8860.41, -54480.79, -9060.15, 36620.47, 3777.96, -17262.16, 0.00, 0.00, 0.00, 0.00, 0.00, 0.00, 0.00
40, 1478.97, 64274.65, 3449.43, 28231.88, -19886.30, -3040.15, 8860.41, -54480.79, -9057.93, 36611.11, 3762.33, -17258.05, 0.00, 0.00, 0.00, 0.00, 0.00, 0.00, 0.00
41, 1494.50, 64302.73, 3470.58, 28261.54, -19866.54, -3016.97, 8894.05, -54454.19, -9057.93, 36611.11, 3762.33, -17258.05, 0.00, 0.00, 0.00, 0.00, 0.00, 0.00, 0.00
42, 1494.50, 64302.73, 3470.58, 28261.54, -19866.54, -3016.97, 8894.05, -54454.19, -9064.21, 36627.82, 3772.33, -17260.78, 0.00, 0.00, 0.00, 0.00, 0.00, 0.00, 0.00
43, 1473.70, 64267.97, 3437.65, 28227.30, -19894.04, -3044.26, 8858.15, -54485.75, -9064.21, 36627.82, 3772.33, -17260.78, 0.00, 0.00, 0.00, 0.00, 0.00, 0.00, 0.00
44, 1473.70, 64267.97, 3437.65, 28227.30, -19894.04, -3044.26, 8858.15, -54485.75, -9065.35, 36602.39, 3744.77, -17244.30, 0.00, 0.00, 0.00, 0.00, 0.00, 0.00, 0.00
45, 1492.76, 64299.71, 3462.62, 28256.56, -19872.15, -3020.59, 8891.59, -54457.48, -9065.35, 36602.39, 3744.77, -17244.30, 0.00, 0.00, 0.00, 0.00, 0.00, 0.00, 0.00
46, 1492.76, 64299.71, 3462.62, 28256.56, -19872.15, -3020.59, 8891.59, -54457.48, -9059.14, 36629.59, 3773.89, -17266.81, 0.00, 0.00, 0.00, 0.00, 0.10, 0.38, 0.94
47, 1474.84, 64267.52, 3439.69, 28232.29, -19891.40, -3041.47, 8864.43, -54483.61, -9059.14, 36629.59, 3773.89, -17266.81, 0.00, 0.00, 0.00, 0.00, 0.00, 0.00, 0.00
48, 1474.84, 64267.52, 3439.69, 28232.29, -19891.40, -3041.47, 8864.43, -54483.61, -9067.79, 36599.46, 3737.28, -17239.36, 0.00, 0.00, 0.00, 0.00, 0.00, 0.00, 0.00
49, 1490.03, 64287.73, 3456.47, 28254.12, -19878.48, -3023.54, 8887.97, -54463.60, -9067.79, 36599.46, 3737.28, -17239.36, 0.00, 0.00, 0.00, 0.00, 0.00, 0.00, 0.00
50, 1490.03, 64287.73, 3456.47, 28254.12, -19878.48, -3023.54, 8887.97, -54463.60, -9061.91, 36632.21, 3772.13, -17275.91, 0.00, 0.00, 0.00, 0.00, 0.00, 0.00, 0.00
51, 1483.82, 64277.38, 3446.42, 28237.11, -19887.62, -3038.50, 8868.50, -54479.38, -9061.91, 36632.21, 3772.13, -17275.91, 0.00, 0.00, 0.00, 0.00, 0.00, 0.00, 0.00
52, 1483.82, 64277.38, 3446.42, 28237.11, -19887.62, -3038.50, 8868.50, -54479.38, -9063.34, 36593.34, 3741.37, -17236.61, 0.00, 0.00, 0.00, 0.00, 0.00, 0.00, 0.00
53, 1483.80, 64294.28, 3455.53, 28247.82, -19880.69, -3029.89, 8884.59, -54469.32, -9063.34, 36593.34, 3741.37, -17236.61, 0.00, 0.00, 0.00, 0.00, 0.00, 0.00, 0.00
54, 1483.80, 64294.28, 3455.53, 28247.82, -19880.69, -3029.89, 8884.59, -54469.32, -9060.57, 36632.86, 3769.15, -17268.76, 0.00, 0.00, 0.00, 0.00, 0.00, 0.00, 0.00
55, 1478.70, 64276.21, 3445.41, 28240.15, -19885.65, -3037.24, 8873.98, -54477.48, -9060.57, 36632.86, 3769.15, -17268.76, 0.00, 0.00, 0.00, 0.00, 0.10, 0.38, 0.93
56, 1478.70, 64276.21, 3445.41, 28240.15, -19885.65, -3037.24, 8873.98, -54477.48, -9063.16, 36594.81, 3737.77, -17237.11, 0.00, 0.00, 0.00, 0.00, 0.00, 0.00, 0.00
57, 1483.02, 64282.45, 3452.83, 28250.21, -19882.77, -3029.85, 8884.06, -54471.09, -9063.16, 36594.81, 3737.77, -17237.11, 0.00, 0.00, 0.00, 0.00, 0.00, 0.00, 0.00
58, 1483.02, 64282.45, 3452.83, 28250.21, -19882.77, -3029.85, 8884.06, -54471.09, -9065.73, 36630.77, 3769.17, -17278.97, 0.00, 0.00, 0.00, 0.00, 0.00, 0.00, 0.00
59, 1478.55, 64273.82, 3443.89, 28245.99, -19890.62, -3034.34, 8876.39, -54481.88, -9065.73, 36630.77, 3769.17, -17278.97, 0.00, 0.00, 0.00, 0.00, 0.00, 0.00, 0.00
60, 1478.55, 64273.82, 3443.89, 28245.99, -19890.62, -3034.34, 8876.39, -54481.88, -9071.81, 36590.50, 3731.24, -17233.57, 0.00, 0.00, 0.00, 0.00, 0.00, 0.00, 0.00
61, 1471.30, 64273.09, 3445.50, 28247.71, -19888.02, -3035.19, 8877.11, -54479.20, -9071.81, 36590.50, 3731.24, -17233.57, 0.00, 0.00, 0.00, 0.00, 0.00, 0.00, 0.00
62, 1471.30, 64273.09, 3445.50, 28247.71, -19888.02, -3035.19, 8877.11, -54479.20, -9072.04, 36622.97, 3762.42, -17267.68, 0.00, 0.00, 0.00, 0.00, 0.00, 0.00, 0.00
63, 1477.52, 64271.77, 3447.24, 28254.77, -19884.38, -3030.14, 8881.44, -54478.87, -9072.04, 36622.97, 3762.42, -17267.68, 0.00, 0.00, 0.00, 0.00, 0.00, 0.00, 0.00
64, 1477.52, 64271.77, 3447.24, 28254.77, -19884.38, -3030.14, 8881.44, -54478.87, -9077.94, 36581.13, 3725.97, -17246.65, 0.00, 0.00, 0.00, 0.00, 0.00, 0.00, 0.00
65, 1471.66, 64261.40, 3440.05, 28247.29, -19891.93, -3037.45, 8875.54, -54486.87, -9077.94, 36581.13, 3725.97, -17246.65, 0.00, 0.00, 0.00, 0.00, 0.11, 0.37, 0.93
66, 1471.66, 64261.40, 3440.05, 28247.29, -19891.93, -3037.45, 8875.54, -54486.87, -9066.49, 36625.84, 3766.49, -17272.82, 0.00, 0.00, 0.00, 0.00, 0.00, 0.00, 0.00
67, 1484.40, 64277.85, 3455.49, 28261.14, -19879.04, -3026.83, 8889.49, -54474.55, -9066.49, 36625.84, 3766.49, -17272.82, 0.00, 0.00, 0.00, 0.00, 0.00, 0.00, 0.00
68, 1484.40, 64277.85, 3455.49, 28261.14, -19879.04, -3026.83, 8889.49, -54474.55, -9075.48, 36587.82, 3735.11, -17254.21, 0.00, 0.00, 0.00, 0.00, 0.00, 0.00, 0.00
69, 1468.89, 64262.00, 3438.86, 28241.54, -19894.33, -3042.72, 8872.48, -54493.24, -9075.48, 36587.82, 3735.11, -17254.21, 0.00, 0.00, 0.00, 0.00, 0.00, 0.00, 0.00
70, 1468.89, 64262.00, 3438.86, 28241.54, -19894.33, -3042.72, 8872.48, -54493.24, -9069.24, 36621.70, 3770.16, -17258.74, 0.00, 0.00, 0.00, 0.00, 0.00, 0.00, 0.00
71, 1490.59, 64289.83, 3457.68, 28264.47, -19878.23, -3024.48, 8894.70, -54471.67, -9069.24, 36621.70, 3770.16, -17258.74, 0.00, 0.00, 0.00, 0.00, 0.00, 0.00, 0.00
72, 1490.59, 64289.83, 3457.68, 28264.47, -19878.23, -3024.48, 8894.70, -54471.67, -9072.24, 36593.25, 3736.97, -17244.97, 0.00, 0.00, 0.00, 0.00, 0.00, 0.00, 0.00
73, 1476.22, 64268.28, 3438.61, 28238.12, -19893.01, -3044.67, 8872.48, -54487.88, -9072.24, 36593.25, 3736.97, -17244.97, 0.00, 0.00, 0.00, 0.00, 0.00, 0.00, 0.00
74, 1476.22, 64268.28, 3438.61, 28238.12, -19893.01, -3044.67, 8872.48, -54487.88, -9061.60, 36624.63, 3768.48, -17258.43, 0.00, 0.00, 0.00, 0.00, 0.00, 0.00, 0.00
75, 1494.57, 64298.66, 3462.80, 28264.45, -19874.28, -3024.73, 8896.71, -54468.47, -9061.60, 36624.63, 3768.48, -17258.43, 0.00, 0.00, 0.00, 0.00, 0.10, 0.37, 0.93
76, 1494.57, 64298.66, 3462.80, 28264.45, -19874.28, -3024.73, 8896.71, -54468.47, -9066.98, 36598.54, 3750.96, -17257.36, 0.00, 0.00, 0.00, 0.00, 0.00, 0.00, 0.00
77, 1477.25, 64274.05, 3442.97, 28238.88, -19892.76, -3046.54, 8870.83, -54491.81, -9066.98, 36598.54, 3750.96, -17257.36, 0.00, 0.00, 0.00, 0.00, 0.00, 0.00, 0.00
78, 1477.25, 64274.05, 3442.97, 28238.88, -19892.76, -3046.54, 8870.83, -54491.81, -9064.01, 36615.00, 3767.92, -17268.15, 0.00, 0.00, 0.00, 0.00, 0.00, 0.00, 0.00
79, 1499.22, 64300.11, 3468.12, 28269.64, -19875.84, -3023.05, 8898.36, -54474.08, -9064.01, 36615.00, 3767.92, -17268.15, 0.00, 0.00, 0.00, 0.00, 0.00, 0.00, 0.00
80, 1499.22, 64300.11, 3468.12, 28269.64, -19875.84, -3023.05, 8898.36, -54474.08, -9070.52, 36601.18, 3759.76, -17245.64, 0.00, 0.00, 0.00, 0.00, 0.00, 0.00, 0.00
81, 1488.60, 64276.48, 3449.12, 28242.10, -19893.10, -3045.49, 8872.68, -54492.50, -9070.52, 36601.18, 3759.76, -17245.64, 0.00, 0.00, 0.00, 0.00, 0.00, 0.00, 0.00
82, 1488.60, 64276.48, 3449.12, 28242.10, -19893.10, -3045.49, 8872.68, -54492.50, -9066.94, 36610.19, 3764.59, -17250.40, 0.00, 0.00, 0.00, 0.00, 0.00, 0.00, 0.00
83, 1517.75, 64316.56, 3479.45, 28277.93, -19869.69, -3018.87, 8906.19, -54467.80, -9066.94, 36610.19, 3764.59, -17250.40, 0.00, 0.00, 0.00, 0.00, 0.00, 0.00, 0.00
84, 1517.75, 64316.56, 3479.45, 28277.93, -19869.69, -3018.87, 8906.19, -54467.80, -9072.35, 36603.35, 3765.51, -17262.83, 0.00, 0.00, 0.00, 0.00, 0.00, 0.00, 0.00
85, 1497.61, 64286.23, 3458.62, 28251.13, -19891.93, -3042.07, 8874.54, -54501.51, -9072.35, 36603.35, 3765.51, -17262.83, 0.00, 0.00, 0.00, 0.00, 0.10, 0.38, 0.94
86, 1497.61, 64286.23, 3458.62, 28251.13, -19891.93, -3042.07, 8874.54, -54501.51, -9070.70, 36597.70, 3763.43, -17264.02, 0.00, 0.00, 0.00, 0.00, 0.00, 0.00, 0.00
87, 1519.09, 64305.56, 3484.88, 28287.27, -19868.49, -3014.78, 8910.21, -54468.83, -9070.70, 36597.70, 3763.43, -17264.02, 0.00, 0.00, 0.00, 0.00, 0.00, 0.00, 0.00
88, 1519.09, 64305.56, 3484.88, 28287.27, -19868.49, -3014.78, 8910.21, -54468.83, -9066.81, 36612.89, 3770.65, -17254.72, 0.00, 0.00, 0.00, 0.00, 0.00, 0.00, 0.00
89, 1494.04, 64269.51, 3453.03, 28253.81, -19892.76, -3040.31, 8877.55, -54498.25, -9066.81, 36612.89, 3770.65, -17254.72, 0.00, 0.00, 0.00, 0.00, 0.00, 0.00, 0.00
90, 1494.04, 64269.51, 3453.03, 28253.81, -19892.76, -3040.31, 8877.55, -54498.25, -9067.30, 36596.09, 3749.39, -17243.74, 0.00, 0.00, 0.00, 0.00, 0.00, 0.00, 0.00
91, 1505.59, 64292.15, 3469.42, 28281.93, -19874.37, -3018.60, 8906.75, -54472.74, -9067.30, 36596.09, 3749.39, -17243.74, 0.00, 0.00, 0.00, 0.00, 0.00, 0.00, 0.00
92, 1505.59, 64292.15, 3469.42, 28281.93, -19874.37, -3018.60, 8906.75, -54472.74, -9069.62, 36616.92, 3768.12, -17260.49, 0.00, 0.00, 0.00, 0.00, 0.00, 0.00, 0.00
93, 1482.30, 64260.48, 3443.24, 28247.98, -19894.88, -3044.98, 8877.38, -54498.96, -9069.62, 36616.92, 3768.12, -17260.49, 0.00, 0.00, 0.00, 0.00, 0.00, 0.00, 0.00
94, 1482.30, 64260.48, 3443.24, 28247.98, -19894.88, -3044.98, 8877.38, -54498.96, -9073.20, 36589.60, 3736.88, -17246.85, 0.00, 0.00, 0.00, 0.00, 0.12, 0.38, 0.94
95, 1489.45, 64284.91, 3460.72, 28273.01, -19878.52, -3022.85, 8904.78, -54476.34, -9073.20, 36589.60, 3736.88, -17246.85, 0.00, 0.00, 0.00, 0.00, 0.00, 0.00, 0.00
96, 1489.45, 64284.91, 3460.72, 28273.01, -19878.52, -3022.85, 8904.78, -54476.34, -9066.05, 36623.80, 3773.51, -17271.73, 0.00, 0.00, 0.00, 0.00, 0.00, 0.00, 0.00
97, 1471.24, 64258.96, 3440.00, 28243.87, -19892.36, -3045.11, 8882.43, -54495.70, -9066.05, 36623.80, 3773.51, -17271.73, 0.00, 0.00, 0.00, 0.00, 0.00, 0.00, 0.00
98, 1471.24, 64258.96, 3440.00, 28243.87, -19892.36, -3045.11, 8882.43, -54495.70, -9065.51, 36593.52, 3747.00, -17230.51, 0.00, 0.00, 0.00, 0.00, 0.00, 0.00, 0.00
99, 1488.45, 64282.48, 3458.89, 28267.69, -19880.29, -3028.44, 8902.79, -54477.97, -9065.51, 36593.52, 3747.00, -17230.51, 0.00, 0.00, 0.00, 0.00, 0.00, 0.00, 0.00
100, 1488.45, 64282.48, 3458.89, 28267.69, -19880.29, -3028.44, 8902.79, -54477.97, -9059.32, 36631.58, 3785.47, -17258.70, 0.00, 0.00, 0.00, 0.00, 0.00, 0.00, 0.00
101, 1476.91, 64271.01, 3448.14, 28245.59, -19885.86, -3042.16, 8890.27, -54487.05, -9059.32, 36631.58, 3785.47, -17258.70, 0.00, 0.00, 0.00, 0.00, 0.00, 0.00, 0.00
102, 1476.91, 64271.01, 3448.14, 28245.59, -19885.86, -3042.16, 8890.27, -54487.05, -9061.89, 36592.55, 3753.55, -17233.98, 0.00, 0.00, 0.00, 0.00, 0.00, 0.00, 0.00
103, 1488.31, 64287.14, 3457.08, 28258.19, -19882.19, -3034.34, 8902.36, -54481.95, -9061.89, 36592.55, 3753.55, -17233.98, 0.00, 0.00, 0.00, 0.00, 0.00, 0.00, 0.00
104, 1488.31, 64287.14, 3457.08, 28258.19, -19882.19, -3034.34, 8902.36, -54481.95, -9062.04, 36626.24, 3790.52, -17270.39, 0.00, 0.00, 0.00, 0.00, 0.11, 0.38, 0.93
105, 1490.01, 64291.10, 3461.19, 28256.27, -19879.62, -3036.91, 8896.46, -54488.39, -9062.04, 36626.24, 3790.52, -17270.39, 0.00, 0.00, 0.00, 0.00, 0.00, 0.00, 0.00
106, 1490.01, 64291.10, 3461.19, 28256.27, -19879.62, -3036.91, 8896.46, -54488.39, -9064.10, 36589.40, 3759.34, -17225.28, 0.00, 0.00, 0.00, 0.00, 0.00, 0.00, 0.00
107, 1495.69, 64293.54, 3464.41, 28261.43, -19879.28, -3033.27, 8903.59, -54482.55, -9064.10, 36589.40, 3759.34, -17225.28, 0.00, 0.00, 0.00, 0.00, 0.00, 0.00, 0.00
108, 1495.69, 64293.54, 3464.41, 28261.43, -19879.28, -3033.27, 8903.59, -54482.55, -9050.71, 36638.49, 3802.12, -17254.54, 0.00, 0.00, 0.00, 0.00, 0.00, 0.00, 0.00
109, 1502.28, 64298.23, 3472.54, 28265.99, -19869.67, -3028.73, 8910.54, -54476.18, -9050.71, 36638.49, 3802.12, -17254.54, 0.00, 0.00, 0.00, 0.00, 0.00, 0.00, 0.00
110, 1502.28, 64298.23, 3472.54, 28265.99, -19869.67, -3028.73, 8910.54, -54476.18, -9054.69, 36597.11, 3765.96, -17223.94, 0.00, 0.00, 0.00, 0.00, 0.00, 0.00, 0.00
111, 1500.45, 64294.32, 3470.02, 28266.89, -19875.51, -3030.76, 8907.44, -54483.89, -9054.69, 36597.11, 3765.96, -17223.94, 0.00, 0.00, 0.00, 0.00, 0.00, 0.00, 0.00
112, 1500.45, 64294.32, 3470.02, 28266.89, -19875.51, -3030.76, 8907.44, -54483.89, -9054.02, 36635.11, 3794.77, -17257.02, 0.00, 0.00, 0.00, 0.00, 0.00, 0.00, 0.00
113, 1499.40, 64300.27, 3473.39, 28271.60, -19868.38, -3024.41, 8918.77, -54473.50, -9054.02, 36635.11, 3794.77, -17257.02, 0.00, 0.00, 0.00, 0.00, 0.00, 0.00, 0.00
114, 1499.40, 64300.27, 3473.39, 28271.60, -19868.38, -3024.41, 8918.77, -54473.50, -9053.06, 36602.05, 3764.77, -17228.21, 0.00, 0.00, 0.00, 0.00, 0.10, 0.38, 0.93
115, 1487.02, 64280.87, 3458.28, 28257.81, -19878.75, -3036.98, 8905.29, -54483.89, -9053.06, 36602.05, 3764.77, -17228.21, 0.00, 0.00, 0.00, 0.00, 0.00, 0.00, 0.00
116, 1487.02, 64280.87, 3458.28, 28257.81, -19878.75, -3036.98, 8905.29, -54483.89, -9045.44, 36633.57, 3798.08, -17253.96, 0.00, 0.00, 0.00, 0.00, 0.00, 0.00, 0.00
117, 1501.21, 64295.95, 3474.56, 28273.55, -19861.67, -3023.21, 8924.45, -54467.54, -9045.44, 36633.57, 3798.08, -17253.96, 0.00, 0.00, 0.00, 0.00, 0.00, 0.00, 0.00
118, 1501.21, 64295.95, 3474.56, 28273.55, -19861.67, -3023.21, 8924.45, -54467.54, -9050.00, 36601.92, 3769.26, -17226.00, 0.00, 0.00, 0.00, 0.00, 0.00, 0.00, 0.00
119, 1479.26, 64273.38, 3450.95, 28249.63, -19880.18, -3041.25, 8904.22, -54487.09, -9050.00, 36601.92, 3769.26, -17226.00, 0.00, 0.00, 0.00, 0.00, 0.00, 0.00, 0.00
120, 1479.26, 64273.38, 3450.95, 28249.63, -19880.18, -3041.25, 8904.22, -54487.09, -9043.40, 36634.93, 3792.51, -17240.57, 0.00, 0.00, 0.00, 0.00, 0.00, 0.00, 0.00
121, 1495.02, 64297.63, 3468.59, 28272.90, -19862.41, -3020.35, 8932.34, -54465.61, -9043.40, 36634.93, 3792.51, -17240.57, 0.00, 0.00, 0.00, 0.00, 0.00, 0.00, 0.00
122, 1495.02, 64297.63, 3468.59, 28272.90, -19862.41, -3020.35, 8932.34, -54465.61, -9048.01, 36611.44, 3769.98, -17224.23, 0.00, 0.00, 0.00, 0.00, 0.00, 0.00, 0.00
123, 1472.47, 64273.02, 3446.37, 28245.05, -19882.66, -3043.53, 8902.14, -54485.88, -9048.01, 36611.44, 3769.98, -17224.23, 0.00, 0.00, 0.00, 0.00, 0.00, 0.00, 0.00
124, 1472.47, 64273.02, 3446.37, 28245.05, -19882.66, -3043.53, 8902.14, -54485.88, -9043.43, 36632.65, 3791.68, -17251.34, 0.00, 0.00, 0.00, 0.00, 0.10, 0.38, 0.94
125, 1496.49, 64294.77, 3464.81, 28268.70, -19865.25, -3024.77, 8927.53, -54466.84, -9043.43, 36632.65, 3791.68, -17251.34, 0.00, 0.00, 0.00, 0.00, 0.00, 0.00, 0.00
126, 1496.49, 64294.77, 3464.81, 28268.70, -19865.25, -3024.77, 8927.53, -54466.84, -9056.70, 36605.03, 3771.57, -17234.47, 0.00, 0.00, 0.00, 0.00, 0.00, 0.00, 0.00
127, 1473.58, 64270.67, 3442.10, 28240.06, -19892.49, -3050.72, 8895.59, -54499.09, -9056.70, 36605.03, 3771.57, -17234.47, 0.00, 0.00, 0.00, 0.00, 0.00, 0.00, 0.00
128, 1473.58, 64270.67, 3442.10, 28240.06, -19892.49, -3050.72, 8895.59, -54499.09, -9057.49, 36614.44, 3779.93, -17246.83, 0.00, 0.00, 0.00, 0.00, 0.00, 0.00, 0.00
129, 1499.98, 64305.52, 3474.42, 28278.20, -19865.36, -3019.41, 8933.99, -54465.95, -9057.49, 36614.44, 3779.93, -17246.83, 0.00, 0.00, 0.00, 0.00, 0.00, 0.00, 0.00
130, 1499.98, 64305.52, 3474.42, 28278.20, -19865.36, -3019.41, 8933.99, -54465.95, -9053.44, 36615.66, 3780.13, -17233.44, 0.00, 0.00, 0.00, 0.00, 0.00, 0.00, 0.00
131, 1476.38, 64270.61, 3443.91, 28240.71, -19891.49, -3050.07, 8897.65, -54498.89, -9053.44, 36615.66, 3780.13, -17233.44, 0.00, 0.00, 0.00, 0.00, 0.00, 0.00, 0.00
132, 1476.38, 64270.61, 3443.91, 28240.71, -19891.49, -3050.07, 8897.65, -54498.89, -9061.24, 36609.92, 3769.98, -17249.09, 0.00, 0.00, 0.00, 0.00, 0.00, 0.00, 0.00
133, 1505.77, 64301.36, 3469.57, 28278.38, -19870.95, -3021.51, 8929.01, -54473.08, -9061.24, 36609.92, 3769.98, -17249.09, 0.00, 0.00, 0.00, 0.00, 0.09, 0.38, 0.93
134, 1505.77, 64301.36, 3469.57, 28278.38, -19870.95, -3021.51, 8929.01, -54473.08, -9063.90, 36610.66, 3773.00, -17239.59, 0.00, 0.00, 0.00, 0.00, 0.00, 0.00, 0.00
135, 1483.06, 64268.28, 3443.67, 28246.77, -19890.84, -3048.29, 8897.98, -54500.66, -9063.90, 36610.66, 3773.00, -17239.59, 0.00, 0.00, 0.00, 0.00, 0.00, 0.00, 0.00
136, 1483.06, 64268.28, 3443.67, 28246.77, -19890.84, -3048.29, 8897.98, -54500.66, -9063.01, 36602.97, 3763.99, -17238.13, 0.00, 0.00, 0.00, 0.00, 0.00, 0.00, 0.00
137, 1500.29, 64300.00, 3468.72, 28278.02, -19871.82, -3023.57, 8932.34, -54474.53, -9063.01, 36602.97, 3763.99, -17238.13, 0.00, 0.00, 0.00, 0.00, 0.00, 0.00, 0.00
138, 1500.29, 64300.00, 3468.72, 28278.02, -19871.82, -3023.57, 8932.34, -54474.53, -9063.72, 36617.45, 3781.94, -17246.29, 0.00, 0.00, 0.00, 0.00, 0.00, 0.00, 0.00
139, 1481.03, 64273.33, 3446.37, 28250.84, -19892.63, -3047.68, 8900.73, -54502.74, -9063.72, 36617.45, 3781.94, -17246.29, 0.00, 0.00, 0.00, 0.00, 0.00, 0.00, 0.00
140, 1481.03, 64273.33, 3446.37, 28250.84, -19892.63, -3047.68, 8900.73, -54502.74, -9062.76, 36597.34, 3758.76, -17244.19, 0.00, 0.00, 0.00, 0.00, 0.00, 0.00, 0.00
141, 1499.09, 64297.09, 3465.41, 28275.56, -19871.46, -3026.07, 8932.38, -54475.63, -9062.76, 36597.34, 3758.76, -17244.19, 0.00, 0.00, 0.00, 0.00, 0.00, 0.00, 0.00
142, 1499.09, 64297.09, 3465.41, 28275.56, -19871.46, -3026.07, 8932.38, -54475.63, -9053.33, 36630.51, 3783.77, -17241.02, 0.00, 0.00, 0.00, 0.00, 0.00, 0.00, 0.00
143, 1475.98, 64268.89, 3441.81, 28249.72, -19886.64, -3045.00, 8905.81, -54496.03, -9053.33, 36630.51, 3783.77, -17241.02, 0.00, 0.00, 0.00, 0.00, 0.10, 0.38, 0.94
144, 1475.98, 64268.89, 3441.81, 28249.72, -19886.64, -3045.00, 8905.81, -54496.03, -9056.93, 36602.46, 3758.29, -17217.73, 0.00, 0.00, 0.00, 0.00, 0.00, 0.00, 0.00
145, 1492.74, 64289.02, 3462.49, 28276.99, -19868.02, -3023.21, 8935.31, -54469.88, -9056.93, 36602.46, 3758.29, -17217.73, 0.00, 0.00, 0.00, 0.00, 0.00, 0.00, 0.00
146, 1492.74, 64289.02, 3462.49, 28276.99, -19868.02, -3023.21, 8935.31, -54469.88, -9045.75, 36642.29, 3794.32, -17239.12, 0.00, 0.00, 0.00, 0.00, 0.00, 0.00, 0.00
147, 1478.79, 64275.57, 3449.57, 28256.36, -19875.35, -3035.88, 8921.56, -54480.81, -9045.75, 36642.29, 3794.32, -17239.12, 0.00, 0.00, 0.00, 0.00, 0.00, 0.00, 0.00
148, 1478.79, 64275.57, 3449.57, 28256.36, -19875.35, -3035.88, 8921.56, -54480.81, -9053.13, 36607.35, 3758.02, -17212.85, 0.00, 0.00, 0.00, 0.00, 0.00, 0.00, 0.00
149, 1489.16, 64290.32, 3457.35, 28272.45, -19873.81, -3026.47, 8932.92, -54475.82, -9053.13, 36607.35, 3758.02, -17212.85, 0.00, 0.00, 0.00, 0.00, 0.00, 0.00, 0.00
150, 1489.16, 64290.32, 3457.35, 28272.45, -19873.81, -3026.47, 8932.92, -54475.82, -9049.68, 36641.48, 3795.44, -17252.73, 0.00, 0.00, 0.00, 0.00, 0.00, 0.00, 0.00
151, 1480.15, 64282.32, 3448.74, 28256.94, -19881.29, -3038.94, 8916.42, -54487.94, -9049.68, 36641.48, 3795.44, -17252.73, 0.00, 0.00, 0.00, 0.00, 0.00, 0.00, 0.00
152, 1480.15, 64282.32, 3448.74, 28256.94, -19881.29, -3038.94, 8916.42, -54487.94, -9057.93, 36595.55, 3759.72, -17210.17, 0.00, 0.00, 0.00, 0.00, 0.00, 0.00, 0.00
153, 1484.76, 64290.54, 3457.97, 28269.37, -19875.93, -3031.88, 8928.27, -54480.05, -9057.93, 36595.55, 3759.72, -17210.17, 0.00, 0.00, 0.00, 0.00, 0.10, 0.39, 0.94
154, 1484.76, 64290.54, 3457.97, 28269.37, -19875.93, -3031.88, 8928.27, -54480.05, -9052.41, 36641.26, 3798.39, -17242.72, 0.00, 0.00, 0.00, 0.00, 0.00, 0.00, 0.00
155, 1487.75, 64281.07, 3453.90, 28262.21, -19876.40, -3037.89, 8921.74, -54481.30, -9052.41, 36641.26, 3798.39, -17242.72, 0.00, 0.00, 0.00, 0.00, 0.00, 0.00, 0.00
156, 1487.75, 64281.07, 3453.90, 28262.21, -19876.40, -3037.89, 8921.74, -54481.30, -9059.21, 36598.70, 3757.71, -17215.76, 0.00, 0.00, 0.00, 0.00, 0.00, 0.00, 0.00
157, 1483.02, 64282.72, 3452.54, 28267.45, -19882.03, -3036.44, 8924.13, -54483.74, -9059.21, 36598.70, 3757.71, -17215.76, 0.00, 0.00, 0.00, 0.00, 0.00, 0.00, 0.00
158, 1483.02, 64282.72, 3452.54, 28267.45, -19882.03, -3036.44, 8924.13, -54483.74, -9061.96, 36633.41, 3788.91, -17250.52, 0.00, 0.00, 0.00, 0.00, 0.00, 0.00, 0.00
159, 1484.38, 64282.32, 3451.78, 28267.63, -19881.25, -3034.43, 8923.84, -54486.40, -9061.96, 36633.41, 3788.91, -17250.52, 0.00, 0.00, 0.00, 0.00, 0.00, 0.00, 0.00
160, 1484.38, 64282.32, 3451.78, 28267.63, -19881.25, -3034.43, 8923.84, -54486.40, -9069.71, 36588.98, 3751.43, -17228.57, 0.00, 0.00, 0.00, 0.00, 0.00, 0.00, 0.00
161, 1478.68, 64273.80, 3445.21, 28264.09, -19885.86, -3039.35, 8919.91, -54489.26, -9069.71, 36588.98, 3751.43, -17228.57, 0.00, 0.00, 0.00, 0.00, 0.00, 0.00, 0.00
162, 1478.68, 64273.80, 3445.21, 28264.09, -19885.86, -3039.35, 8919.91, -54489.26, -9063.07, 36629.95, 3779.66, -17247.83, 0.00, 0.00, 0.00, 0.00, 0.00, 0.00, 0.00
163, 1482.90, 64276.06, 3451.94, 28274.55, -19877.38, -3030.09, 8929.30, -54480.72, -9063.07, 36629.95, 3779.66, -17247.83, 0.00, 0.00, 0.00, 0.00, 0.11, 0.38, 0.94
164, 1482.90, 64276.06, 3451.94, 28274.55, -19877.38, -3030.09, 8929.30, -54480.72, -9064.62, 36597.45, 3751.67, -17213.10, 0.00, 0.00, 0.00, 0.00, 0.00, 0.00, 0.00
165, 1467.97, 64260.97, 3439.75, 28261.48, -19889.36, -3039.35, 8916.22, -54489.75, -9064.62, 36597.45, 3751.67, -17213.10, 0.00, 0.00, 0.00, 0.00, 0.00, 0.00, 0.00
166, 1467.97, 64260.97, 3439.75, 28261.48, -19889.36, -3039.35, 8916.22, -54489.75, -9053.66, 36637.68, 3781.11, -17234.54, 0.00, 0.00, 0.00, 0.00, 0.00, 0.00, 0.00
167, 1485.83, 64284.46, 3459.40, 28285.46, -19866.34, -3020.39, 8940.52, -54468.99, -9053.66, 36637.68, 3781.11, -17234.54, 0.00, 0.00, 0.00, 0.00, 0.00, 0.00, 0.00
168, 1485.83, 64284.46, 3459.40, 28285.46, -19866.34, -3020.39, 8940.52, -54468.99, -9061.42, 36599.73, 3754.71, -17224.19, 0.00, 0.00, 0.00, 0.00, 0.00, 0.00, 0.00
169, 1467.73, 64263.27, 3439.62, 28259.49, -19885.29, -3042.79, 8914.61, -54492.72, -9061.42, 36599.73, 3754.71, -17224.19, 0.00, 0.00, 0.00, 0.00, 0.00, 0.00, 0.00
170, 1467.73, 64263.27, 3439.62, 28259.49, -19885.29, -3042.79, 8914.61, -54492.72, -9052.23, 36631.11, 3783.01, -17238.60, 0.00, 0.00, 0.00, 0.00, 0.00, 0.00, 0.00
171, 1492.31, 64294.48, 3465.53, 28285.55, -19859.61, -3018.47, 8945.73, -54464.70, -9052.23, 36631.11, 3783.01, -17238.60, 0.00, 0.00, 0.00, 0.00, 0.00, 0.00, 0.00
172, 1492.31, 64294.48, 3465.53, 28285.55, -19859.61, -3018.47, 8945.73, -54464.70, -9052.01, 36614.23, 3770.65, -17224.39, 0.00, 0.00, 0.00, 0.00, 0.11, 0.38, 0.94
173, 1468.51, 64270.18, 3442.86, 28257.61, -19882.10, -3042.12, 8921.50, -54484.01, -9052.01, 36614.23, 3770.65, -17224.39, 0.00, 0.00, 0.00, 0.00, 0.00, 0.00, 0.00
174, 1468.51, 64270.18, 3442.86, 28257.61, -19882.10, -3042.12, 8921.50, -54484.01, -9045.82, 36636.32, 3785.69, -17215.87, 0.00, 0.00, 0.00, 0.00, 0.00, 0.00, 0.00
175, 1487.46, 64296.36, 3463.49, 28284.32, -19863.10, -3019.56, 8947.47, -54461.57, -9045.82, 36636.32, 3785.69, -17215.87, 0.00, 0.00, 0.00, 0.00, 0.00, 0.00, 0.00
176, 1487.46, 64296.36, 3463.49, 28284.32, -19863.10, -3019.56, 8947.47, -54461.57, -9053.55, 36619.02, 3771.83, -17211.96, 0.00, 0.00, 0.00, 0.00, 0.00, 0.00, 0.00
177, 1472.09, 64269.62, 3438.86, 28254.39, -19885.34, -3044.91, 8916.36, -54488.10, -9053.55, 36619.02, 3771.83, -17211.96, 0.00, 0.00, 0.00, 0.00, 0.00, 0.00, 0.00
178, 1472.09, 64269.62, 3438.86, 28254.39, -19885.34, -3044.91, 8916.36, -54488.10, -9054.78, 36622.66, 3776.06, -17224.23, 0.00, 0.00, 0.00, 0.00, 0.00, 0.00, 0.00
179, 1492.92, 64303.71, 3466.17, 28286.13, -19862.47, -3021.17, 8948.74, -54459.84, -9054.78, 36622.66, 3776.06, -17224.23, 0.00, 0.00, 0.00, 0.00, 0.00, 0.00, 0.00
180, 1492.92, 64303.71, 3466.17, 28286.13, -19862.47, -3021.17, 8948.74, -54459.84, -9059.63, 36627.89, 3781.38, -17221.35, 0.00, 0.00, 0.00, 0.00, 0.00, 0.00, 0.00
181, 1476.27, 64280.02, 3445.72, 28258.15, -19882.55, -3043.91, 8919.49, -54484.79, -9059.63, 36627.89, 3781.38, -17221.35, 0.00, 0.00, 0.00, 0.00, 0.00, 0.00, 0.00
182, 1476.27, 64280.02, 3445.72, 28258.15, -19882.55, -3043.91, 8919.49, -54484.79, -9064.28, 36620.20, 3770.96, -17209.32, 0.00, 0.00, 0.00, 0.00, 0.11, 0.38, 0.94
183, 1492.65, 64302.50, 3464.36, 28287.45, -19864.38, -3020.01, 8949.91, -54458.73, -9064.28, 36620.20, 3770.96, -17209.32, 0.00, 0.00, 0.00, 0.00, 0.00, 0.00, 0.00
184, 1492.65, 64302.50, 3464.36, 28287.45, -19864.38, -3020.01, 8949.91, -54458.73, -9062.56, 36633.37, 3785.40, -17219.40, 0.00, 0.00, 0.00, 0.00, 0.00, 0.00, 0.00
185, 1479.82, 64278.72, 3445.14, 28262.10, -19878.79, -3041.33, 8922.57, -54482.42, -9062.56, 36633.37, 3785.40, -17219.40, 0.00, 0.00, 0.00, 0.00, 0.00, 0.00, 0.00
186, 1479.82, 64278.72, 3445.14, 28262.10, -19878.79, -3041.33, 8922.57, -54482.42, -9065.44, 36617.21, 3771.72, -17212.38, 0.00, 0.00, 0.00, 0.00, 0.00, 0.00, 0.00
187, 1497.79, 64305.72, 3468.43, 28291.45, -19859.86, -3020.01, 8951.63, -54459.60, -9065.44, 36617.21, 3771.72, -17212.38, 0.00, 0.00, 0.00, 0.00, 0.00, 0.00, 0.00
188, 1497.79, 64305.72, 3468.43, 28291.45, -19859.86, -3020.01, 8951.63, -54459.60, -9068.08, 36634.24, 3785.04, -17239.79, 0.00, 0.00, 0.00, 0.00, 0.00, 0.00, 0.00
189, 1468.44, 64268.82, 3441.56, 28262.37, -19881.45, -3043.50, 8919.93, -54486.44, -9068.08, 36634.24, 3785.04, -17239.79, 0.00, 0.00, 0.00, 0.00, 0.00, 0.00, 0.00
190, 1468.44, 64268.82, 3441.56, 28262.37, -19881.45, -3043.50, 8919.93, -54486.44, -9071.52, 36608.80, 3762.18, -17203.47, 0.00, 0.00, 0.00, 0.00, 0.00, 0.00, 0.00
191, 1493.25, 64295.28, 3461.97, 28293.44, -19860.98, -3016.35, 8954.89, -54458.70, -9071.52, 36608.80, 3762.18, -17203.47, 0.00, 0.00, 0.00, 0.00, 0.00, 0.00, 0.00
192, 1493.25, 64295.28, 3461.97, 28293.44, -19860.98, -3016.35, 8954.89, -54458.70, -9067.92, 36640.39, 3782.36, -17221.93, 0.00, 0.00, 0.00, 0.00, 0.10, 0.38, 0.93
193, 1470.45, 64269.11, 3441.34, 28269.23, -19878.12, -3038.07, 8927.51, -54481.82, -9067.92, 36640.39, 3782.36, -17221.93, 0.00, 0.00, 0.00, 0.00, 0.00, 0.00, 0.00
194, 1470.45, 64269.11, 3441.34, 28269.23, -19878.12, -3038.07, 8927.51, -54481.82, -9074.32, 36606.86, 3753.84, -17205.70, 0.00, 0.00, 0.00, 0.00, 0.00, 0.00, 0.00
195, 1472.13, 64285.25, 3452.47, 28286.82, -19865.67, -3021.42, 8953.01, -54462.44, -9074.32, 36606.86, 3753.84, -17205.70, 0.00, 0.00, 0.00, 0.00, 0.00, 0.00, 0.00
196, 1472.13, 64285.25, 3452.47, 28286.82, -19865.67, -3021.42, 8953.01, -54462.44, -9064.44, 36648.79, 3787.91, -17226.80, 0.00, 0.00, 0.00, 0.00, 0.00, 0.00, 0.00
197, 1458.03, 64257.51, 3433.76, 28267.13, -19876.42, -3036.17, 8933.37, -54477.26, -9064.44, 36648.79, 3787.91, -17226.80, 0.00, 0.00, 0.00, 0.00, 0.00, 0.00, 0.00
198, 1458.03, 64257.51, 3433.76, 28267.13, -19876.42, -3036.17, 8933.37, -54477.26, -9070.94, 36609.07, 3747.92, -17204.03, 0.00, 0.00, 0.00, 0.00, 0.00, 0.00, 0.00
199, 1458.59, 64271.41, 3442.59, 28280.34, -19867.62, -3025.11, 8950.67, -54459.42, -9070.94, 36609.07, 3747.92, -17204.03, 0.00, 0.00, 0.00, 0.00, 0.00, 0.00, 0.00
200, 1458.59, 64271.41, 3442.59, 28280.34, -19867.62, -3025.11, 8950.67, -54459.42, -9055.34, 36658.40, 3789.92, -17211.60, 0.00, 0.00, 0.00, 0.00, 0.00, 0.00, 0.00
201, 1455.84, 64261.96, 3437.88, 28272.43, -19871.10, -3030.90, 8942.91, -54464.81, -9055.34, 36658.40, 3789.92, -17211.60, 0.00, 0.00, 0.00, 0.00, 0.00, 0.00, 0.00
202, 1455.84, 64261.96, 3437.88, 28272.43, -19871.10, -3030.90, 8942.91, -54464.81, -9065.78, 36612.69, 3745.12, -17191.17, 0.00, 0.00, 0.00, 0.00, 0.10, 0.38, 0.94
203, 1459.97, 64273.22, 3440.89, 28278.51, -19871.50, -3028.17, 8947.98, -54463.18, -9065.78, 36612.69, 3745.12, -17191.17, 0.00, 0.00, 0.00, 0.00, 0.00, 0.00, 0.00
204, 1459.97, 64273.22, 3440.89, 28278.51, -19871.50, -3028.17, 8947.98, -54463.18, -9051.63, 36663.59, 3799.91, -17217.44, 0.00, 0.00, 0.00, 0.00, 0.00, 0.00, 0.00
205, 1470.97, 64276.29, 3449.23, 28283.00, -19861.47, -3023.72, 8953.53, -54458.53, -9051.63, 36663.59, 3799.91, -17217.44, 0.00, 0.00, 0.00, 0.00, 0.00, 0.00, 0.00
206, 1470.97, 64276.29, 3449.23, 28283.00, -19861.47, -3023.72, 8953.53, -54458.53, -9058.13, 36617.03, 3762.71, -17194.17, 0.00, 0.00, 0.00, 0.00, 0.00, 0.00, 0.00
207, 1468.06, 64278.56, 3451.35, 28283.11, -19865.43, -3027.30, 8952.72, -54461.72, -9058.13, 36617.03, 3762.71, -17194.17, 0.00, 0.00, 0.00, 0.00, 0.00, 0.00, 0.00
208, 1468.06, 64278.56, 3451.35, 28283.11, -19865.43, -3027.30, 8952.72, -54461.72, -9053.48, 36660.05, 3805.21, -17203.71, 0.00, 0.00, 0.00, 0.00, 0.00, 0.00, 0.00
209, 1482.86, 64292.42, 3461.97, 28293.31, -19855.57, -3019.59, 8961.28, -54454.28, -9053.48, 36660.05, 3805.21, -17203.71, 0.00, 0.00, 0.00, 0.00, 0.00, 0.00, 0.00
210, 1482.86, 64292.42, 3461.97, 28293.31, -19855.57, -3019.59, 8961.28, -54454.28, -9060.46, 36617.66, 3770.60, -17181.07, 0.00, 0.00, 0.00, 0.00, 0.00, 0.00, 0.00
211, 1472.04, 64276.82, 3449.99, 28283.31, -19866.01, -3027.25, 8952.39, -54465.79, -9060.46, 36617.66, 3770.60, -17181.07, 0.00, 0.00, 0.00, 0.00, 0.10, 0.38, 0.93
212, 1472.04, 64276.82, 3449.99, 28283.31, -19866.01, -3027.25, 8952.39, -54465.79, -9052.01, 36654.42, 3795.73, -17214.96, 0.00, 0.00, 0.00, 0.00, 0.00, 0.00, 0.00
213, 1478.17, 64290.61, 3458.40, 28292.44, -19857.58, -3018.42, 8965.06, -54452.89, -9052.01, 36654.42, 3795.73, -17214.96, 0.00, 0.00, 0.00, 0.00, 0.00, 0.00, 0.00
214, 1478.17, 64290.61, 3458.40, 28292.44, -19857.58, -3018.42, 8965.06, -54452.89, -9062.31, 36619.35, 3767.16, -17190.84, 0.00, 0.00, 0.00, 0.00, 0.00, 0.00, 0.00
215, 1466.59, 64273.38, 3441.90, 28275.65, -19873.58, -3032.51, 8950.22, -54469.66, -9062.31, 36619.35, 3767.16, -17190.84, 0.00, 0.00, 0.00, 0.00, 0.00, 0.00, 0.00
216, 1466.59, 64273.38, 3441.90, 28275.65, -19873.58, -3032.51, 8950.22, -54469.66, -9056.84, 36647.52, 3787.19, -17222.82, 0.00, 0.00, 0.00, 0.00, 0.00, 0.00, 0.00
217, 1479.62, 64288.20, 3455.15, 28294.74, -19860.80, -3017.08, 8968.32, -54454.17, -9056.84, 36647.52, 3787.19, -17222.82, 0.00, 0.00, 0.00, 0.00, 0.00, 0.00, 0.00
218, 1479.62, 64288.20, 3455.15, 28294.74, -19860.80, -3017.08, 8968.32, -54454.17, -9068.37, 36617.61, 3766.02, -17192.07, 0.00, 0.00, 0.00, 0.00, 0.00, 0.00, 0.00
219, 1462.52, 64266.34, 3435.66, 28269.84, -19878.39, -3039.28, 8944.21, -54477.23, -9068.37, 36617.61, 3766.02, -17192.07, 0.00, 0.00, 0.00, 0.00, 0.00, 0.00, 0.00
220, 1462.52, 64266.34, 3435.66, 28269.84, -19878.39, -3039.28, 8944.21, -54477.23, -9061.73, 36639.80, 3781.80, -17204.61, 0.00, 0.00, 0.00, 0.00, 0.00, 0.00, 0.00
221, 1479.01, 64294.61, 3460.45, 28296.64, -19859.23, -3017.91, 8973.67, -54452.45, -9061.73, 36639.80, 3781.80, -17204.61, 0.00, 0.00, 0.00, 0.00, 0.10, 0.39, 0.93
222, 1479.01, 64294.61, 3460.45, 28296.64, -19859.23, -3017.91, 8973.67, -54452.45, -9062.85, 36625.57, 3788.02, -17193.14, 0.00, 0.00, 0.00, 0.00, 0.00, 0.00, 0.00
223, 1486.61, 64291.48, 3469.53, 28294.51, -19853.00, -3022.34, 8967.52, -54459.53, -9062.85, 36625.57, 3788.02, -17193.14, 0.00, 0.00, 0.00, 0.00, 0.00, 0.00, 0.00
224, 1486.61, 64291.48, 3469.53, 28294.51, -19853.00, -3022.34, 8967.52, -54459.53, -9055.34, 36641.71, 3806.77, -17204.81, 0.00, 0.00, 0.00, 0.00, 0.00, 0.00, 0.00
225, 1483.91, 64284.17, 3447.56, 28277.12, -19878.75, -3030.83, 8964.70, -54462.88, -9055.34, 36641.71, 3806.77, -17204.81, 0.00, 0.00, 0.00, 0.00, 0.00, 0.00, 0.00
226, 1483.91, 64284.17, 3447.56, 28277.12, -19878.75, -3030.83, 8964.70, -54462.88, -9083.95, 36613.16, 3755.88, -17219.49, 0.00, 0.00, 0.00, 0.00, 0.00, 0.00, 0.00
227, 1478.55, 64271.46, 3441.21, 28255.35, -19895.91, -3051.84, 8937.55, -54489.93, -9083.95, 36613.16, 3755.88, -17219.49, 0.00, 0.00, 0.00, 0.00, 0.00, 0.00, 0.00
228, 1478.55, 64271.46, 3441.21, 28255.35, -19895.91, -3051.84, 8937.55, -54489.93, -9074.70, 36624.02, 3795.75, -17203.67, 0.00, 0.00, 0.00, 0.00, 0.00, 0.00, 0.00
229, 1509.61, 64316.38, 3482.67, 28294.16, -19866.83, -3018.92, 8977.80, -54454.88, -9074.70, 36624.02, 3795.75, -17203.67, 0.00, 0.00, 0.00, 0.00, 0.00, 0.00, 0.00
230, 1509.61, 64316.38, 3482.67, 28294.16, -19866.83, -3018.92, 8977.80, -54454.88, -9071.57, 36625.97, 3810.39, -17206.86, 0.00, 0.00, 0.00, 0.00, 0.00, 0.00, 0.00
231, 1480.51, 64287.57, 3460.25, 28257.34, -19883.02, -3048.42, 8947.76, -54481.37, -9071.57, 36625.97, 3810.39, -17206.86, 0.00, 0.00, 0.00, 0.00, 0.11, 0.38, 0.93
232, 1480.51, 64287.57, 3460.25, 28257.34, -19883.02, -3048.42, 8947.76, -54481.37, -9068.91, 36620.79, 3805.52, -17202.77, 0.00, 0.00, 0.00, 0.00, 0.00, 0.00, 0.00
233, 1503.11, 64312.29, 3480.68, 28281.15, -19864.08, -3024.73, 8984.84, -54451.64, -9068.91, 36620.79, 3805.52, -17202.77, 0.00, 0.00, 0.00, 0.00, 0.00, 0.00, 0.00
234, 1503.11, 64312.29, 3480.68, 28281.15, -19864.08, -3024.73, 8984.84, -54451.64, -9071.21, 36634.60, 3817.90, -17218.69, 0.00, 0.00, 0.00, 0.00, 0.00, 0.00, 0.00
235, 1478.01, 64281.38, 3456.23, 28253.14, -19885.41, -3047.08, 8956.23, -54479.38, -9071.21, 36634.60, 3817.90, -17218.69, 0.00, 0.00, 0.00, 0.00, 0.00, 0.00, 0.00
236, 1478.01, 64281.38, 3456.23, 28253.14, -19885.41, -3047.08, 8956.23, -54479.38, -9072.57, 36615.49, 3800.02, -17191.20, 0.00, 0.00, 0.00, 0.00, 0.00, 0.00, 0.00
237, 1494.75, 64310.35, 3477.66, 28280.79, -19866.07, -3025.91, 8988.55, -54452.85, -9072.57, 36615.49, 3800.02, -17191.20, 0.00, 0.00, 0.00, 0.00, 0.00, 0.00, 0.00
238, 1494.75, 64310.35, 3477.66, 28280.79, -19866.07, -3025.91, 8988.55, -54452.85, -9073.00, 36638.42, 3818.68, -17210.04, 0.00, 0.00, 0.00, 0.00, 0.00, 0.00, 0.00
239, 1476.89, 64279.37, 3452.63, 28255.71, -19887.67, -3047.55, 8960.63, -54478.91, -9073.00, 36638.42, 3818.68, -17210.04, 0.00, 0.00, 0.00, 0.00, 0.00, 0.00, 0.00
240, 1476.89, 64279.37, 3452.63, 28255.71, -19887.67, -3047.55, 8960.63, -54478.91, -9075.25, 36608.73, 3795.01, -17197.81, 0.00, 0.00, 0.00, 0.00, 0.00, 0.00, 0.00
241, 1496.72, 64307.64, 3475.74, 28283.40, -19866.63, -3027.03, 8991.03, -54454.46, -9075.25, 36608.73, 3795.01, -17197.81, 0.00, 0.00, 0.00, 0.00, 0.11, 0.38, 0.93
242, 1496.72, 64307.64, 3475.74, 28283.40, -19866.63, -3027.03, 8991.03, -54454.46, -9069.58, 36644.72, 3833.19, -17213.81, 0.00, 0.00, 0.00, 0.00, 0.00, 0.00, 0.00
243, 1493.48, 64292.64, 3464.59, 28265.57, -19878.86, -3041.45, 8973.00, -54469.55, -9069.58, 36644.72, 3833.19, -17213.81, 0.00, 0.00, 0.00, 0.00, 0.00, 0.00, 0.00
244, 1493.48, 64292.64, 3464.59, 28265.57, -19878.86, -3041.45, 8973.00, -54469.55, -9074.16, 36608.82, 3802.21, -17191.33, 0.00, 0.00, 0.00, 0.00, 0.00, 0.00, 0.00
245, 1504.61, 64316.61, 3481.42, 28285.48, -19867.71, -3025.71, 8997.29, -54452.87, -9074.16, 36608.82, 3802.21, -17191.33, 0.00, 0.00, 0.00, 0.00, 0.00, 0.00, 0.00
246, 1504.61, 64316.61, 3481.42, 28285.48, -19867.71, -3025.71, 8997.29, -54452.87, -9062.67, 36654.54, 3840.79, -17199.00, 0.00, 0.00, 0.00, 0.00, 0.00, 0.00, 0.00
247, 1496.14, 64300.82, 3469.66, 28272.47, -19878.79, -3035.90, 8983.79, -54465.43, -9062.67, 36654.54, 3840.79, -17199.00, 0.00, 0.00, 0.00, 0.00, 0.00, 0.00, 0.00
248, 1496.14, 64300.82, 3469.66, 28272.47, -19878.79, -3035.90, 8983.79, -54465.43, -9077.31, 36604.27, 3798.84, -17189.94, 0.00, 0.00, 0.00, 0.00, 0.00, 0.00, 0.00
249, 1499.33, 64310.14, 3476.03, 28280.88, -19872.78, -3031.01, 8997.14, -54458.21, -9077.31, 36604.27, 3798.84, -17189.94, 0.00, 0.00, 0.00, 0.00, 0.00, 0.00, 0.00
250, 1499.33, 64310.14, 3476.03, 28280.88, -19872.78, -3031.01, 8997.14, -54458.21, -9067.50, 36647.76, 3838.44, -17211.87, 0.00, 0.00, 0.00, 0.00, 0.10, 0.38, 0.94
251, 1499.42, 64302.14, 3470.49, 28273.90, -19872.44, -3037.27, 8992.82, -54463.84, -9067.50, 36647.76, 3838.44, -17211.87, 0.00, 0.00, 0.00, 0.00, 0.00, 0.00, 0.00
252, 1499.42, 64302.14, 3470.49, 28273.90, -19872.44, -3037.27, 8992.82, -54463.84, -9074.27, 36606.43, 3798.48, -17196.94, 0.00, 0.00, 0.00, 0.00, 0.00, 0.00, 0.00
253, 1501.66, 64307.11, 3475.03, 28281.04, -19872.91, -3030.65, 9002.10, -54458.39, -9074.27, 36606.43, 3798.48, -17196.94, 0.00, 0.00, 0.00, 0.00, 0.00, 0.00, 0.00
254, 1501.66, 64307.11, 3475.03, 28281.04, -19872.91, -3030.65, 9002.10, -54458.39, -9061.38, 36649.57, 3844.79, -17203.58, 0.00, 0.00, 0.00, 0.00, 0.00, 0.00, 0.00
255, 1501.14, 64311.18, 3480.81, 28284.90, -19864.71, -3026.16, 9012.83, -54452.20, -9061.38, 36649.57, 3844.79, -17203.58, 0.00, 0.00, 0.00, 0.00, 0.00, 0.00, 0.00
0, 1501.14, 64311.18, 3480.81, 28284.90, -19864.71, -3026.16, 9012.83, -54452.20, -9063.43, 36614.30, 3811.06, -17173.69, 0.00, 0.00, 0.00, 0.00, 0.00, 0.00, 0.00
1, 1494.64, 64304.25, 3473.86, 28277.48, -19872.20, -3034.00, 9006.30, -54458.39, -9063.43, 36614.30, 3811.06, -17173.69, 0.00, 0.00, 0.00, 0.00, 0.00, 0.00, 0.00
2, 1494.64, 64304.25, 3473.86, 28277.48, -19872.20, -3034.00, 9006.30, -54458.39, -9060.21, 36649.55, 3845.51, -17212.05, 0.00, 0.00, 0.00, 0.00, 0.00, 0.00, 0.00
3, 1506.31, 64309.81, 3481.24, 28287.47, -19866.28, -3026.36, 9017.05, -54452.54, -9060.21, 36649.55, 3845.51, -17212.05, 0.00, 0.00, 0.00, 0.00, 0.00, 0.00, 0.00
4, 1506.31, 64309.81, 3481.24, 28287.47, -19866.28, -3026.36, 9017.05, -54452.54, -9077.94, 36603.89, 3798.37, -17188.45, 0.00, 0.00, 0.00, 0.00, 0.10, 0.39, 0.94
5, 1492.52, 64293.27, 3463.69, 28270.20, -19883.02, -3040.87, 9005.67, -54466.59, -9077.94, 36603.89, 3798.37, -17188.45, 0.00, 0.00, 0.00, 0.00, 0.00, 0.00, 0.00
6, 1492.52, 64293.27, 3463.69, 28270.20, -19883.02, -3040.87, 9005.67, -54466.59, -9067.59, 36649.15, 3831.54, -17202.75, 0.00, 0.00, 0.00, 0.00, 0.00, 0.00, 0.00
7, 1508.41, 64311.13, 3478.07, 28289.48, -19869.31, -3024.41, 9026.15, -54450.10, -9067.59, 36649.15, 3831.54, -17202.75, 0.00, 0.00, 0.00, 0.00, 0.00, 0.00, 0.00
8, 1508.41, 64311.13, 3478.07, 28289.48, -19869.31, -3024.41, 9026.15, -54450.10, -9076.08, 36608.67, 3798.50, -17188.78, 0.00, 0.00, 0.00, 0.00, 0.00, 0.00, 0.00
9, 1489.99, 64292.40, 3461.10, 28269.48, -19881.92, -3040.98, 9010.79, -54466.30, -9076.08, 36608.67, 3798.50, -17188.78, 0.00, 0.00, 0.00, 0.00, 0.00, 0.00, 0.00
10, 1489.99, 64292.40, 3461.10, 28269.48, -19881.92, -3040.98, 9010.79, -54466.30, -9065.29, 36643.63, 3830.24, -17204.54, 0.00, 0.00, 0.00, 0.00, 0.00, 0.00, 0.00
11, 1509.01, 64320.54, 3485.96, 28296.08, -19860.22, -3018.54, 9042.33, -54443.86, -9065.29, 36643.63, 3830.24, -17204.54, 0.00, 0.00, 0.00, 0.00, 0.00, 0.00, 0.00
12, 1509.01, 64320.54, 3485.96, 28296.08, -19860.22, -3018.54, 9042.33, -54443.86, -9071.41, 36618.88, 3816.40, -17185.25, 0.00, 0.00, 0.00, 0.00, 0.00, 0.00, 0.00
13, 1499.02, 64300.63, 3468.99, 28274.13, -19878.39, -3039.14, 9022.75, -54463.22, -9071.41, 36618.88, 3816.40, -17185.25, 0.00, 0.00, 0.00, 0.00, 0.00, 0.00, 0.00
14, 1499.02, 64300.63, 3468.99, 28274.13, -19878.39, -3039.14, 9022.75, -54463.22, -9059.05, 36644.30, 3837.03, -17204.92, 0.00, 0.00, 0.00, 0.00, 0.10, 0.38, 0.94
15, 1520.25, 64327.16, 3490.56, 28301.69, -19859.57, -3015.79, 9055.58, -54437.85, -9059.05, 36644.30, 3837.03, -17204.92, 0.00, 0.00, 0.00, 0.00, 0.00, 0.00, 0.00
16, 1520.25, 64327.16, 3490.56, 28301.69, -19859.57, -3015.79, 9055.58, -54437.85, -9068.62, 36626.19, 3824.63, -17184.67, 0.00, 0.00, 0.00, 0.00, 0.00, 0.00, 0.00
17, 1494.53, 64297.23, 3465.53, 28269.28, -19877.90, -3041.83, 9027.13, -54465.21, -9068.62, 36626.19, 3824.63, -17184.67, 0.00, 0.00, 0.00, 0.00, 0.00, 0.00, 0.00
18, 1494.53, 64297.23, 3465.53, 28269.28, -19877.90, -3041.83, 9027.13, -54465.21, -9065.71, 36634.73, 3826.64, -17197.23, 0.00, 0.00, 0.00, 0.00, 0.00, 0.00, 0.00
19, 1512.92, 64327.80, 3489.17, 28302.83, -19859.81, -3017.40, 9062.76, -54440.46, -9065.71, 36634.73, 3826.64, -17197.23, 0.00, 0.00, 0.00, 0.00, 0.00, 0.00, 0.00
20, 1512.92, 64327.80, 3489.17, 28302.83, -19859.81, -3017.40, 9062.76, -54440.46, -9063.63, 36633.01, 3826.19, -17187.06, 0.00, 0.00, 0.00, 0.00, 0.00, 0.00, 0.00
21, 1493.57, 64291.01, 3463.63, 28269.72, -19879.46, -3043.01, 9034.71, -54464.94, -9063.63, 36633.01, 3826.19, -17187.06, 0.00, 0.00, 0.00, 0.00, 0.00, 0.00, 0.00
22, 1493.57, 64291.01, 3463.63, 28269.72, -19879.46, -3043.01, 9034.71, -54464.94, -9061.55, 36628.23, 3825.61, -17203.40, 0.00, 0.00, 0.00, 0.00, 0.00, 0.00, 0.00
23, 1511.13, 64319.07, 3487.23, 28303.63, -19858.79, -3017.89, 9069.56, -54440.87, -9061.55, 36628.23, 3825.61, -17203.40, 0.00, 0.00, 0.00, 0.00, 0.00, 0.00, 0.00
24, 1511.13, 64319.07, 3487.23, 28303.63, -19858.79, -3017.89, 9069.56, -54440.87, -9063.36, 36638.84, 3829.88, -17184.51, 0.00, 0.00, 0.00, 0.00, 0.10, 0.38, 0.93
25, 1488.02, 64286.07, 3456.32, 28268.36, -19884.36, -3045.02, 9041.59, -54469.52, -9063.36, 36638.84, 3829.88, -17184.51, 0.00, 0.00, 0.00, 0.00, 0.00, 0.00, 0.00
26, 1488.02, 64286.07, 3456.32, 28268.36, -19884.36, -3045.02, 9041.59, -54469.52, -9067.77, 36622.95, 3811.24, -17185.92, 0.00, 0.00, 0.00, 0.00, 0.00, 0.00, 0.00
27, 1505.70, 64317.46, 3480.50, 28296.21, -19864.33, -3022.27, 9075.84, -54444.64, -9067.77, 36622.95, 3811.24, -17185.92, 0.00, 0.00, 0.00, 0.00, 0.00, 0.00, 0.00
28, 1505.70, 64317.46, 3480.50, 28296.21, -19864.33, -3022.27, 9075.84, -54444.64, -9071.66, 36635.25, 3828.81, -17203.56, 0.00, 0.00, 0.00, 0.00, 0.00, 0.00, 0.00
29, 1492.34, 64290.77, 3456.72, 28267.11, -19888.83, -3046.19, 9045.44, -54472.54, -9071.66, 36635.25, 3828.81, -17203.56, 0.00, 0.00, 0.00, 0.00, 0.00, 0.00, 0.00
30, 1492.34, 64290.77, 3456.72, 28267.11, -19888.83, -3046.19, 9045.44, -54472.54, -9076.69, 36612.45, 3800.13, -17201.19, 0.00, 0.00, 0.00, 0.00, 0.00, 0.00, 0.00
31, 1502.17, 64309.39, 3475.54, 28292.41, -19872.69, -3025.33, 9078.76, -54447.98, -9076.69, 36612.45, 3800.13, -17201.19, 0.00, 0.00, 0.00, 0.00, 0.00, 0.00, 0.00
32, 1502.17, 64309.39, 3475.54, 28292.41, -19872.69, -3025.33, 9078.76, -54447.98, -9066.43, 36643.70, 3831.71, -17201.99, 0.00, 0.00, 0.00, 0.00, 0.00, 0.00, 0.00
33, 1489.14, 64289.76, 3460.50, 28272.23, -19880.94, -3041.33, 9061.51, -54465.99, -9066.43, 36643.70, 3831.71, -17201.99, 0.00, 0.00, 0.00, 0.00, 0.10, 0.38, 0.94
34, 1489.14, 64289.76, 3460.50, 28272.23, -19880.94, -3041.33, 9061.51, -54465.99, -9067.77, 36609.05, 3801.27, -17176.35, 0.00, 0.00, 0.00, 0.00, 0.00, 0.00, 0.00
35, 1502.08, 64313.03, 3476.59, 28293.44, -19867.06, -3025.13, 9090.12, -54446.01, -9067.77, 36609.05, 3801.27, -17176.35, 0.00, 0.00, 0.00, 0.00, 0.00, 0.00, 0.00
36, 1502.08, 64313.03, 3476.59, 28293.44, -19867.06, -3025.13, 9090.12, -54446.01, -9062.18, 36646.36, 3836.25, -17201.83, 0.00, 0.00, 0.00, 0.00, 0.00, 0.00, 0.00
37, 1496.32, 64298.86, 3461.86, 28276.65, -19882.28, -3040.71, 9072.08, -54464.14, -9062.18, 36646.36, 3836.25, -17201.83, 0.00, 0.00, 0.00, 0.00, 0.00, 0.00, 0.00
38, 1496.32, 64298.86, 3461.86, 28276.65, -19882.28, -3040.71, 9072.08, -54464.14, -9066.78, 36612.94, 3804.00, -17187.62, 0.00, 0.00, 0.00, 0.00, 0.00, 0.00, 0.00
39, 1506.44, 64320.54, 3480.55, 28296.03, -19867.46, -3023.97, 9098.46, -54442.88, -9066.78, 36612.94, 3804.00, -17187.62, 0.00, 0.00, 0.00, 0.00, 0.00, 0.00, 0.00
40, 1506.44, 64320.54, 3480.55, 28296.03, -19867.46, -3023.97, 9098.46, -54442.88, -9056.03, 36655.59, 3844.46, -17192.76, 0.00, 0.00, 0.00, 0.00, 0.00, 0.00, 0.00
41, 1498.46, 64297.50, 3467.63, 28283.43, -19872.87, -3032.44, 9089.38, -54452.85, -9056.03, 36655.59, 3844.46, -17192.76, 0.00, 0.00, 0.00, 0.00, 0.00, 0.00, 0.00
42, 1498.46, 64297.50, 3467.63, 28283.43, -19872.87, -3032.44, 9089.38, -54452.85, -9068.57, 36605.47, 3803.22, -17172.64, 0.00, 0.00, 0.00, 0.00, 0.00, 0.00, 0.00
43, 1499.22, 64303.57, 3470.53, 28287.94, -19873.25, -3032.77, 9099.60, -54453.23, -9068.57, 36605.47, 3803.22, -17172.64, 0.00, 0.00, 0.00, 0.00, 0.10, 0.38, 0.94
44, 1499.22, 64303.57, 3470.53, 28287.94, -19873.25, -3032.77, 9099.60, -54453.23, -9061.84, 36645.89, 3838.55, -17209.90, 0.00, 0.00, 0.00, 0.00, 0.00, 0.00, 0.00
45, 1497.68, 64300.56, 3468.39, 28286.00, -19870.81, -3030.65, 9102.32, -54451.13, -9061.84, 36645.89, 3838.55, -17209.90, 0.00, 0.00, 0.00, 0.00, 0.00, 0.00, 0.00
46, 1497.68, 64300.56, 3468.39, 28286.00, -19870.81, -3030.65, 9102.32, -54451.13, -9067.88, 36608.96, 3801.45, -17176.69, 0.00, 0.00, 0.00, 0.00, 0.00, 0.00, 0.00
47, 1488.72, 64298.43, 3465.73, 28286.56, -19875.64, -3031.57, 9106.70, -54452.07, -9067.88, 36608.96, 3801.45, -17176.69, 0.00, 0.00, 0.00, 0.00, 0.00, 0.00, 0.00
48, 1488.72, 64298.43, 3465.73, 28286.56, -19875.64, -3031.57, 9106.70, -54452.07, -9059.59, 36655.16, 3838.51, -17195.71, 0.00, 0.00, 0.00, 0.00, 0.00, 0.00, 0.00
49, 1494.66, 64302.52, 3470.82, 28292.32, -19867.86, -3026.54, 9120.43, -54443.30, -9059.59, 36655.16, 3838.51, -17195.71, 0.00, 0.00, 0.00, 0.00, 0.00, 0.00, 0.00
50, 1494.66, 64302.52, 3470.82, 28292.32, -19867.86, -3026.54, 9120.43, -54443.30, -9061.67, 36618.97, 3801.50, -17160.04, 0.00, 0.00, 0.00, 0.00, 0.00, 0.00, 0.00
51, 1491.02, 64295.84, 3464.10, 28280.68, -19874.21, -3033.94, 9114.35, -54447.95, -9061.67, 36618.97, 3801.50, -17160.04, 0.00, 0.00, 0.00, 0.00, 0.00, 0.00, 0.00
52, 1491.02, 64295.84, 3464.10, 28280.68, -19874.21, -3033.94, 9114.35, -54447.95, -9059.16, 36657.22, 3837.57, -17187.78, 0.00, 0.00, 0.00, 0.00, 0.00, 0.00, 0.00
53, 1493.72, 64305.07, 3471.16, 28294.11, -19866.90, -3024.82, 9128.25, -54442.41, -9059.16, 36657.22, 3837.57, -17187.78, 0.00, 0.00, 0.00, 0.00, 0.10, 0.38, 0.94
54, 1493.72, 64305.07, 3471.16, 28294.11, -19866.90, -3024.82, 9128.25, -54442.41, -9071.32, 36611.06, 3801.90, -17179.64, 0.00, 0.00, 0.00, 0.00, 0.00, 0.00, 0.00
55, 1482.28, 64290.34, 3458.13, 28275.40, -19879.62, -3039.88, 9116.96, -54458.73, -9071.32, 36611.06, 3801.90, -17179.64, 0.00, 0.00, 0.00, 0.00, 0.00, 0.00, 0.00
56, 1482.28, 64290.34, 3458.13, 28275.40, -19879.62, -3039.88, 9116.96, -54458.73, -9053.89, 36650.00, 3837.01, -17191.73, 0.00, 0.00, 0.00, 0.00, 0.00, 0.00, 0.00
57, 1498.19, 64315.31, 3480.28, 28298.92, -19857.42, -3020.08, 9145.69, -54431.82, -9053.89, 36650.00, 3837.01, -17191.73, 0.00, 0.00, 0.00, 0.00, 0.00, 0.00, 0.00
58, 1498.19, 64315.31, 3480.28, 28298.92, -19857.42, -3020.08, 9145.69, -54431.82, -9062.40, 36621.48, 3810.15, -17169.74, 0.00, 0.00, 0.00, 0.00, 0.00, 0.00, 0.00
59, 1479.39, 64289.67, 3453.41, 28271.67, -19884.02, -3044.04, 9121.81, -54459.71, -9062.40, 36621.48, 3810.15, -17169.74, 0.00, 0.00, 0.00, 0.00, 0.00, 0.00, 0.00
60, 1479.39, 64289.67, 3453.41, 28271.67, -19884.02, -3044.04, 9121.81, -54459.71, -9056.03, 36643.47, 3827.58, -17193.95, 0.00, 0.00, 0.00, 0.00, 0.00, 0.00, 0.00
61, 1502.24, 64319.29, 3478.42, 28299.68, -19859.30, -3019.94, 9154.40, -54433.76, -9056.03, 36643.47, 3827.58, -17193.95, 0.00, 0.00, 0.00, 0.00, 0.00, 0.00, 0.00
62, 1502.24, 64319.29, 3478.42, 28299.68, -19859.30, -3019.94, 9154.40, -54433.76, -9060.75, 36620.92, 3809.52, -17171.06, 0.00, 0.00, 0.00, 0.00, 0.00, 0.00, 0.00
63, 1482.01, 64291.62, 3455.42, 28270.04, -19881.68, -3044.11, 9131.31, -54457.27, -9060.75, 36620.92, 3809.52, -17171.06, 0.00, 0.00, 0.00, 0.00, 0.10, 0.39, 0.94
64, 1482.01, 64291.62, 3455.42, 28270.04, -19881.68, -3044.11, 9131.31, -54457.27, -9054.47, 36639.76, 3827.07, -17182.99, 0.00, 0.00, 0.00, 0.00, 0.00, 0.00, 0.00
65, 1500.14, 64316.32, 3480.95, 28305.11, -19856.53, -3017.62, 9169.27, -54431.05, -9054.47, 36639.76, 3827.07, -17182.99, 0.00, 0.00, 0.00, 0.00, 0.00, 0.00, 0.00
66, 1500.14, 64316.32, 3480.95, 28305.11, -19856.53, -3017.62, 9169.27, -54431.05, -9064.50, 36625.66, 3814.12, -17182.97, 0.00, 0.00, 0.00, 0.00, 0.00, 0.00, 0.00
67, 1484.13, 64287.44, 3455.33, 28273.59, -19878.84, -3042.43, 9139.20, -54456.52, -9064.50, 36625.66, 3814.12, -17182.97, 0.00, 0.00, 0.00, 0.00, 0.00, 0.00, 0.00
68, 1484.13, 64287.44, 3455.33, 28273.59, -19878.84, -3042.43, 9139.20, -54456.52, -9057.17, 36634.91, 3818.75, -17182.12, 0.00, 0.00, 0.00, 0.00, 0.00, 0.00, 0.00
69, 1502.42, 64312.43, 3475.72, 28303.21, -19860.49, -3019.79, 9171.95, -54433.69, -9057.17, 36634.91, 3818.75, -17182.12, 0.00, 0.00, 0.00, 0.00, 0.00, 0.00, 0.00
70, 1502.42, 64312.43, 3475.72, 28303.21, -19860.49, -3019.79, 9171.95, -54433.69, -9066.54, 36633.03, 3821.68, -17192.18, 0.00, 0.00, 0.00, 0.00, 0.00, 0.00, 0.00
71, 1476.27, 64286.03, 3454.06, 28273.88, -19879.19, -3041.65, 9150.60, -54456.67, -9066.54, 36633.03, 3821.68, -17192.18, 0.00, 0.00, 0.00, 0.00, 0.00, 0.00, 0.00
72, 1476.27, 64286.03, 3454.06, 28273.88, -19879.19, -3041.65, 9150.60, -54456.67, -9061.40, 36628.92, 3811.15, -17169.92, 0.00, 0.00, 0.00, 0.00, 0.10, 0.39, 0.94
73, 1493.05, 64309.97, 3475.88, 28302.47, -19858.94, -3020.10, 9185.18, -54429.31, -9061.40, 36628.92, 3811.15, -17169.92, 0.00, 0.00, 0.00, 0.00, 0.00, 0.00, 0.00
74, 1493.05, 64309.97, 3475.88, 28302.47, -19858.94, -3020.10, 9185.18, -54429.31, -9057.40, 36639.70, 3829.55, -17182.10, 0.00, 0.00, 0.00, 0.00, 0.00, 0.00, 0.00
75, 1471.35, 64278.38, 3448.78, 28267.54, -19882.59, -3046.90, 9154.89, -54458.35, -9057.40, 36639.70, 3829.55, -17182.10, 0.00, 0.00, 0.00, 0.00, 0.00, 0.00, 0.00
76, 1471.35, 64278.38, 3448.78, 28267.54, -19882.59, -3046.90, 9154.89, -54458.35, -9066.22, 36617.45, 3803.80, -17179.80, 0.00, 0.00, 0.00, 0.00, 0.00, 0.00, 0.00
77, 1485.03, 64301.72, 3467.00, 28296.82, -19866.14, -3022.38, 9188.89, -54436.49, -9066.22, 36617.45, 3803.80, -17179.80, 0.00, 0.00, 0.00, 0.00, 0.00, 0.00, 0.00
78, 1485.03, 64301.72, 3467.00, 28296.82, -19866.14, -3022.38, 9188.89, -54436.49, -9060.53, 36643.74, 3827.56, -17192.11, 0.00, 0.00, 0.00, 0.00, 0.00, 0.00, 0.00
79, 1460.64, 64271.01, 3445.07, 28266.84, -19883.26, -3045.22, 9165.80, -54457.30, -9060.53, 36643.74, 3827.56, -17192.11, 0.00, 0.00, 0.00, 0.00, 0.00, 0.00, 0.00
80, 1460.64, 64271.01, 3445.07, 28266.84, -19883.26, -3045.22, 9165.80, -54457.30, -9068.35, 36613.32, 3796.85, -17166.29, 0.00, 0.00, 0.00, 0.00, 0.00, 0.00, 0.00
81, 1476.69, 64292.31, 3461.03, 28293.44, -19871.15, -3025.69, 9193.23, -54438.72, -9068.35, 36613.32, 3796.85, -17166.29, 0.00, 0.00, 0.00, 0.00, 0.00, 0.00, 0.00
82, 1476.69, 64292.31, 3461.03, 28293.44, -19871.15, -3025.69, 9193.23, -54438.72, -9062.29, 36647.76, 3825.57, -17187.71, 0.00, 0.00, 0.00, 0.00, 0.10, 0.38, 0.94
83, 1470.86, 64278.21, 3449.41, 28274.15, -19877.47, -3039.10, 9180.73, -54448.80, -9062.29, 36647.76, 3825.57, -17187.71, 0.00, 0.00, 0.00, 0.00, 0.00, 0.00, 0.00
84, 1470.86, 64278.21, 3449.41, 28274.15, -19877.47, -3039.10, 9180.73, -54448.80, -9063.25, 36616.22, 3799.93, -17167.55, 0.00, 0.00, 0.00, 0.00, 0.00, 0.00, 0.00
85, 1482.77, 64298.95, 3466.11, 28294.13, -19866.74, -3026.78, 9202.19, -54433.96, -9063.25, 36616.22, 3799.93, -17167.55, 0.00, 0.00, 0.00, 0.00, 0.00, 0.00, 0.00
86, 1482.77, 64298.95, 3466.11, 28294.13, -19866.74, -3026.78, 9202.19, -54433.96, -9055.38, 36653.69, 3833.08, -17200.92, 0.00, 0.00, 0.00, 0.00, 0.00, 0.00, 0.00
87, 1469.00, 64286.30, 3454.62, 28280.79, -19875.28, -3035.28, 9193.45, -54444.38, -9055.38, 36653.69, 3833.08, -17200.92, 0.00, 0.00, 0.00, 0.00, 0.00, 0.00, 0.00
88, 1469.00, 64286.30, 3454.62, 28280.79, -19875.28, -3035.28, 9193.45, -54444.38, -9059.43, 36619.35, 3803.78, -17154.76, 0.00, 0.00, 0.00, 0.00, 0.00, 0.00, 0.00
89, 1478.72, 64300.80, 3463.34, 28291.18, -19869.45, -3027.07, 9211.13, -54434.77, -9059.43, 36619.35, 3803.78, -17154.76, 0.00, 0.00, 0.00, 0.00, 0.00, 0.00, 0.00
90, 1478.72, 64300.80, 3463.34, 28291.18, -19869.45, -3027.07, 9211.13, -54434.77, -9051.85, 36655.90, 3842.02, -17188.89, 0.00, 0.00, 0.00, 0.00, 0.00, 0.00, 0.00
91, 1476.42, 64295.33, 3460.77, 28282.78, -19866.74, -3032.01, 9208.45, -54437.43, -9051.85, 36655.90, 3842.02, -17188.89, 0.00, 0.00, 0.00, 0.00, 0.00, 0.00, 0.00
92, 1476.42, 64295.33, 3460.77, 28282.78, -19866.74, -3032.01, 9208.45, -54437.43, -9058.18, 36616.67, 3808.78, -17161.27, 0.00, 0.00, 0.00, 0.00, 0.10, 0.37, 0.94
93, 1481.41, 64300.42, 3466.76, 28288.63, -19867.77, -3028.88, 9217.66, -54434.63, -9058.18, 36616.67, 3808.78, -17161.27, 0.00, 0.00, 0.00, 0.00, 0.00, 0.00, 0.00
94, 1481.41, 64300.42, 3466.76, 28288.63, -19867.77, -3028.88, 9217.66, -54434.63, -9045.91, 36663.39, 3849.86, -17188.04, 0.00, 0.00, 0.00, 0.00, 0.00, 0.00, 0.00
95, 1481.16, 64297.56, 3464.65, 28287.88, -19864.96, -3026.16, 9222.51, -54429.65, -9045.91, 36663.39, 3849.86, -17188.04, 0.00, 0.00, 0.00, 0.00, 0.00, 0.00, 0.00
96, 1481.16, 64297.56, 3464.65, 28287.88, -19864.96, -3026.16, 9222.51, -54429.65, -9054.20, 36622.97, 3808.54, -17145.31, 0.00, 0.00, 0.00, 0.00, 0.00, 0.00, 0.00
97, 1470.54, 64289.36, 3457.86, 28283.47, -19873.54, -3033.02, 9217.48, -54438.70, -9054.20, 36622.97, 3808.54, -17145.31, 0.00, 0.00, 0.00, 0.00, 0.00, 0.00, 0.00
98, 1470.54, 64289.36, 3457.86, 28283.47, -19873.54, -3033.02, 9217.48, -54438.70, -9047.11, 36663.01, 3845.22, -17182.46, 0.00, 0.00, 0.00, 0.00, 0.00, 0.00, 0.00
99, 1484.11, 64298.48, 3465.68, 28294.33, -19863.32, -3023.57, 9232.14, -54429.87, -9047.11, 36663.01, 3845.22, -17182.46, 0.00, 0.00, 0.00, 0.00, 0.00, 0.00, 0.00
100, 1484.11, 64298.48, 3465.68, 28294.33, -19863.32, -3023.57, 9232.14, -54429.87, -9064.15, 36615.29, 3800.38, -17159.52, 0.00, 0.00, 0.00, 0.00, 0.00, 0.00, 0.00
101, 1467.03, 64282.30, 3449.08, 28278.15, -19878.23, -3038.79, 9220.45, -54446.39, -9064.15, 36615.29, 3800.38, -17159.52, 0.00, 0.00, 0.00, 0.00, 0.00, 0.00, 0.00
102, 1467.03, 64282.30, 3449.08, 28278.15, -19878.23, -3038.79, 9220.45, -54446.39, -9055.92, 36653.57, 3835.49, -17189.81, 0.00, 0.00, 0.00, 0.00, 0.10, 0.38, 0.94
103, 1482.68, 64296.20, 3464.01, 28296.59, -19864.62, -3021.53, 9241.49, -54429.07, -9055.92, 36653.57, 3835.49, -17189.81, 0.00, 0.00, 0.00, 0.00, 0.00, 0.00, 0.00
104, 1482.68, 64296.20, 3464.01, 28296.59, -19864.62, -3021.53, 9241.49, -54429.07, -9060.61, 36620.61, 3802.97, -17155.59, 0.00, 0.00, 0.00, 0.00, 0.00, 0.00, 0.00
105, 1471.57, 64280.89, 3450.28, 28281.21, -19877.76, -3036.51, 9227.94, -54442.50, -9060.61, 36620.61, 3802.97, -17155.59, 0.00, 0.00, 0.00, 0.00, 0.00, 0.00, 0.00
106, 1471.57, 64280.89, 3450.28, 28281.21, -19877.76, -3036.51, 9227.94, -54442.50, -9051.25, 36659.12, 3832.25, -17167.70, 0.00, 0.00, 0.00, 0.00, 0.00, 0.00, 0.00
107, 1490.73, 64307.55, 3471.16, 28302.98, -19861.42, -3017.02, 9255.54, -54423.05, -9051.25, 36659.12, 3832.25, -17167.70, 0.00, 0.00, 0.00, 0.00, 0.00, 0.00, 0.00
108, 1490.73, 64307.55, 3471.16, 28302.98, -19861.42, -3017.02, 9255.54, -54423.05, -9058.31, 36627.49, 3808.51, -17161.69, 0.00, 0.00, 0.00, 0.00, 0.00, 0.00, 0.00
109, 1470.07, 64282.43, 3448.85, 28276.10, -19877.65, -3040.17, 9233.24, -54443.42, -9058.31, 36627.49, 3808.51, -17161.69, 0.00, 0.00, 0.00, 0.00, 0.00, 0.00, 0.00
110, 1470.07, 64282.43, 3448.85, 28276.10, -19877.65, -3040.17, 9233.24, -54443.42, -9049.68, 36652.72, 3830.73, -17181.54, 0.00, 0.00, 0.00, 0.00, 0.00, 0.00, 0.00
111, 1489.48, 64303.91, 3469.68, 28303.21, -19859.68, -3017.04, 9261.29, -54422.76, -9049.68, 36652.72, 3830.73, -17181.54, 0.00, 0.00, 0.00, 0.00, 0.10, 0.38, 0.93
112, 1489.48, 64303.91, 3469.68, 28303.21, -19859.68, -3017.04, 9261.29, -54422.76, -9055.07, 36631.45, 3812.87, -17158.16, 0.00, 0.00, 0.00, 0.00, 0.00, 0.00, 0.00
113, 1456.10, 64272.95, 3443.44, 28272.94, -19878.37, -3040.17, 9237.10, -54442.10, -9055.07, 36631.45, 3812.87, -17158.16, 0.00, 0.00, 0.00, 0.00, 0.00, 0.00, 0.00
114, 1456.10, 64272.95, 3443.44, 28272.94, -19878.37, -3040.17, 9237.10, -54442.10, -9049.37, 36647.45, 3823.27, -17166.21, 0.00, 0.00, 0.00, 0.00, 0.00, 0.00, 0.00
115, 1482.81, 64300.42, 3466.82, 28303.72, -19856.71, -3015.50, 9272.44, -54416.77, -9049.37, 36647.45, 3823.27, -17166.21, 0.00, 0.00, 0.00, 0.00, 0.00, 0.00, 0.00
116, 1482.81, 64300.42, 3466.82, 28303.72, -19856.71, -3015.50, 9272.44, -54416.77, -9052.10, 36640.77, 3833.30, -17161.67, 0.00, 0.00, 0.00, 0.00, 0.00, 0.00, 0.00
117, 1473.00, 64283.61, 3458.49, 28286.13, -19864.64, -3031.52, 9254.43, -54436.73, -9052.10, 36640.77, 3833.30, -17161.67, 0.00, 0.00, 0.00, 0.00, 0.00, 0.00, 0.00
118, 1473.00, 64283.61, 3458.49, 28286.13, -19864.64, -3031.52, 9254.43, -54436.73, -9043.81, 36642.49, 3845.13, -17164.46, 0.00, 0.00, 0.00, 0.00, 0.00, 0.00, 0.00
119, 1489.56, 64315.80, 3479.88, 28300.10, -19854.49, -3018.45, 9279.26, -54414.63, -9043.81, 36642.49, 3845.13, -17164.46, 0.00, 0.00, 0.00, 0.00, 0.00, 0.00, 0.00
120, 1489.56, 64315.80, 3479.88, 28300.10, -19854.49, -3018.45, 9279.26, -54414.63, -9054.27, 36635.67, 3830.71, -17176.58, 0.00, 0.00, 0.00, 0.00, 0.00, 0.00, 0.00
121, 1463.73, 64279.59, 3444.29, 28249.05, -19893.32, -3054.95, 9237.33, -54454.10, -9054.27, 36635.67, 3830.71, -17176.58, 0.00, 0.00, 0.00, 0.00, 0.10, 0.39, 0.93
122, 1463.73, 64279.59, 3444.29, 28249.05, -19893.32, -3054.95, 9237.33, -54454.10, -9058.56, 36625.12, 3830.31, -17167.73, 0.00, 0.00, 0.00, 0.00, 0.00, 0.00, 0.00
123, 1500.70, 64320.43, 3480.48, 28280.59, -19870.81, -3028.86, 9273.98, -54425.51, -9058.56, 36625.12, 3830.31, -17167.73, 0.00, 0.00, 0.00, 0.00, 0.00, 0.00, 0.00
124, 1500.70, 64320.43, 3480.48, 28280.59, -19870.81, -3028.86, 9273.98, -54425.51, -9055.85, 36643.23, 3866.92, -17179.46, 0.00, 0.00, 0.00, 0.00, 0.00, 0.00, 0.00
125, 1485.34, 64294.23, 3461.10, 28248.65, -19888.38, -3051.21, 9247.83, -54448.13, -9055.85, 36643.23, 3866.92, -17179.46, 0.00, 0.00, 0.00, 0.00, 0.00, 0.00, 0.00
126, 1485.34, 64294.23, 3461.10, 28248.65, -19888.38, -3051.21, 9247.83, -54448.13, -9058.36, 36623.73, 3845.57, -17156.62, 0.00, 0.00, 0.00, 0.00, 0.00, 0.00, 0.00
127, 1503.07, 64323.20, 3487.39, 28276.10, -19867.15, -3027.68, 9282.34, -54424.73, -9058.36, 36623.73, 3845.57, -17156.62, 0.00, 0.00, 0.00, 0.00, 0.00, 0.00, 0.00
128, 1503.07, 64323.20, 3487.39, 28276.10, -19867.15, -3027.68, 9282.34, -54424.73, -9056.57, 36646.40, 3873.49, -17179.33, 0.00, 0.00, 0.00, 0.00, 0.00, 0.00, 0.00
129, 1488.49, 64300.80, 3466.60, 28254.26, -19883.35, -3048.64, 9257.87, -54446.61, -9056.57, 36646.40, 3873.49, -17179.33, 0.00, 0.00, 0.00, 0.00, 0.00, 0.00, 0.00
130, 1488.49, 64300.80, 3466.60, 28254.26, -19883.35, -3048.64, 9257.87, -54446.61, -9053.98, 36622.17, 3843.20, -17165.36, 0.00, 0.00, 0.00, 0.00, 0.00, 0.00, 0.00
131, 1503.67, 64324.99, 3483.70, 28275.04, -19867.01, -3028.93, 9288.02, -54421.96, -9053.98, 36622.17, 3843.20, -17165.36, 0.00, 0.00, 0.00, 0.00, 0.10, 0.38, 0.93
132, 1503.67, 64324.99, 3483.70, 28275.04, -19867.01, -3028.93, 9288.02, -54421.96, -9045.82, 36655.88, 3881.58, -17171.86, 0.00, 0.00, 0.00, 0.00, 0.00, 0.00, 0.00
133, 1487.20, 64302.26, 3466.80, 28254.88, -19880.76, -3045.72, 9265.92, -54441.58, -9045.82, 36655.88, 3881.58, -17171.86, 0.00, 0.00, 0.00, 0.00, 0.00, 0.00, 0.00
134, 1487.20, 64302.26, 3466.80, 28254.88, -19880.76, -3045.72, 9265.92, -54441.58, -9056.28, 36614.44, 3845.68, -17158.34, 0.00, 0.00, 0.00, 0.00, 0.00, 0.00, 0.00
135, 1496.52, 64323.31, 3479.99, 28271.29, -19871.68, -3034.00, 9284.36, -54429.40, -9056.28, 36614.44, 3845.68, -17158.34, 0.00, 0.00, 0.00, 0.00, 0.00, 0.00, 0.00
136, 1496.52, 64323.31, 3479.99, 28271.29, -19871.68, -3034.00, 9284.36, -54429.40, -9053.60, 36651.92, 3879.84, -17182.23, 0.00, 0.00, 0.00, 0.00, 0.00, 0.00, 0.00
137, 1488.31, 64309.16, 3471.02, 28259.09, -19877.47, -3043.44, 9276.06, -54436.66, -9053.60, 36651.92, 3879.84, -17182.23, 0.00, 0.00, 0.00, 0.00, 0.00, 0.00, 0.00
138, 1488.31, 64309.16, 3471.02, 28259.09, -19877.47, -3043.44, 9276.06, -54436.66, -9058.36, 36616.34, 3841.06, -17158.49, 0.00, 0.00, 0.00, 0.00, 0.00, 0.00, 0.00
139, 1489.99, 64312.52, 3476.99, 28271.22, -19871.21, -3034.16, 9291.42, -54430.39, -9058.36, 36616.34, 3841.06, -17158.49, 0.00, 0.00, 0.00, 0.00, 0.00, 0.00, 0.00
140, 1489.99, 64312.52, 3476.99, 28271.22, -19871.21, -3034.16, 9291.42, -54430.39, -9049.95, 36654.47, 3880.35, -17182.34, 0.00, 0.00, 0.00, 0.00, 0.00, 0.00, 0.00
141, 1486.19, 64301.56, 3470.09, 28263.62, -19873.96, -3038.41, 9284.09, -54434.05, -9049.95, 36654.47, 3880.35, -17182.34, 0.00, 0.00, 0.00, 0.00, 0.10, 0.38, 0.93
142, 1486.19, 64301.56, 3470.09, 28263.62, -19873.96, -3038.41, 9284.09, -54434.05, -9060.57, 36611.87, 3837.03, -17152.33, 0.00, 0.00, 0.00, 0.00, 0.00, 0.00, 0.00
143, 1485.27, 64307.24, 3472.66, 28267.51, -19874.63, -3037.78, 9287.33, -54433.83, -9060.57, 36611.87, 3837.03, -17152.33, 0.00, 0.00, 0.00, 0.00, 0.00, 0.00, 0.00
144, 1485.27, 64307.24, 3472.66, 28267.51, -19874.63, -3037.78, 9287.33, -54433.83, -9051.90, 36650.85, 3879.12, -17186.21, 0.00, 0.00, 0.00, 0.00, 0.00, 0.00, 0.00
145, 1495.69, 64315.04, 3479.79, 28272.09, -19867.06, -3034.00, 9294.95, -54425.96, -9051.90, 36650.85, 3879.12, -17186.21, 0.00, 0.00, 0.00, 0.00, 0.00, 0.00, 0.00
146, 1495.69, 64315.04, 3479.79, 28272.09, -19867.06, -3034.00, 9294.95, -54425.96, -9054.47, 36616.76, 3842.64, -17162.34, 0.00, 0.00, 0.00, 0.00, 0.00, 0.00, 0.00
147, 1488.56, 64309.39, 3472.03, 28264.79, -19873.94, -3040.49, 9290.82, -54430.83, -9054.47, 36616.76, 3842.64, -17162.34, 0.00, 0.00, 0.00, 0.00, 0.00, 0.00, 0.00
148, 1488.56, 64309.39, 3472.03, 28264.79, -19873.94, -3040.49, 9290.82, -54430.83, -9044.01, 36658.63, 3879.82, -17165.56, 0.00, 0.00, 0.00, 0.00, 0.00, 0.00, 0.00
149, 1492.38, 64320.56, 3481.28, 28275.58, -19864.87, -3029.33, 9301.19, -54423.12, -9044.01, 36658.63, 3879.82, -17165.56, 0.00, 0.00, 0.00, 0.00, 0.00, 0.00, 0.00
150, 1492.38, 64320.56, 3481.28, 28275.58, -19864.87, -3029.33, 9301.19, -54423.12, -9056.46, 36615.42, 3845.95, -17161.45, 0.00, 0.00, 0.00, 0.00, 0.00, 0.00, 0.00
151, 1474.50, 64300.87, 3462.93, 28256.40, -19881.63, -3044.58, 9287.82, -54438.25, -9056.46, 36615.42, 3845.95, -17161.45, 0.00, 0.00, 0.00, 0.00, 0.10, 0.38, 0.94
152, 1474.50, 64300.87, 3462.93, 28256.40, -19881.63, -3044.58, 9287.82, -54438.25, -9052.17, 36648.07, 3871.95, -17172.44, 0.00, 0.00, 0.00, 0.00, 0.00, 0.00, 0.00
153, 1499.65, 64320.65, 3481.26, 28280.37, -19864.35, -3028.53, 9307.20, -54421.63, -9052.17, 36648.07, 3871.95, -17172.44, 0.00, 0.00, 0.00, 0.00, 0.00, 0.00, 0.00
154, 1499.65, 64320.65, 3481.26, 28280.37, -19864.35, -3028.53, 9307.20, -54421.63, -9056.43, 36618.23, 3848.50, -17157.67, 0.00, 0.00, 0.00, 0.00, 0.00, 0.00, 0.00
155, 1477.52, 64298.86, 3460.81, 28254.26, -19883.51, -3048.53, 9284.18, -54441.88, -9056.43, 36618.23, 3848.50, -17157.67, 0.00, 0.00, 0.00, 0.00, 0.00, 0.00, 0.00
156, 1477.52, 64298.86, 3460.81, 28254.26, -19883.51, -3048.53, 9284.18, -54441.88, -9053.10, 36643.92, 3863.86, -17178.43, 0.00, 0.00, 0.00, 0.00, 0.00, 0.00, 0.00
157, 1486.64, 64317.77, 3478.49, 28276.16, -19866.61, -3030.61, 9308.07, -54422.50, -9053.10, 36643.92, 3863.86, -17178.43, 0.00, 0.00, 0.00, 0.00, 0.00, 0.00, 0.00
158, 1486.64, 64317.77, 3478.49, 28276.16, -19866.61, -3030.61, 9308.07, -54422.50, -9057.89, 36621.14, 3846.62, -17165.07, 0.00, 0.00, 0.00, 0.00, 0.00, 0.00, 0.00
159, 1471.73, 64292.93, 3456.72, 28251.22, -19883.98, -3050.19, 9286.01, -54440.49, -9057.89, 36621.14, 3846.62, -17165.07, 0.00, 0.00, 0.00, 0.00, 0.00, 0.00, 0.00
160, 1471.73, 64292.93, 3456.72, 28251.22, -19883.98, -3050.19, 9286.01, -54440.49, -9046.35, 36641.04, 3863.39, -17172.80, 0.00, 0.00, 0.00, 0.00, 0.10, 0.38, 0.94
161, 1498.04, 64326.11, 3482.58, 28278.85, -19860.44, -3025.82, 9314.75, -54415.05, -9046.35, 36641.04, 3863.39, -17172.80, 0.00, 0.00, 0.00, 0.00, 0.00, 0.00, 0.00
162, 1498.04, 64326.11, 3482.58, 28278.85, -19860.44, -3025.82, 9314.75, -54415.05, -9051.09, 36626.19, 3858.02, -17156.42, 0.00, 0.00, 0.00, 0.00, 0.00, 0.00, 0.00
163, 1477.45, 64300.45, 3461.86, 28252.29, -19880.22, -3049.45, 9285.99, -54439.30, -9051.09, 36626.19, 3858.02, -17156.42, 0.00, 0.00, 0.00, 0.00, 0.00, 0.00, 0.00
164, 1477.45, 64300.45, 3461.86, 28252.29, -19880.22, -3049.45, 9285.99, -54439.30, -9047.92, 36638.44, 3865.71, -17163.41, 0.00, 0.00, 0.00, 0.00, 0.00, 0.00, 0.00
165, 1496.96, 64332.92, 3489.24, 28284.72, -19855.17, -3021.89, 9322.31, -54407.81, -9047.92, 36638.44, 3865.71, -17163.41, 0.00, 0.00, 0.00, 0.00, 0.00, 0.00, 0.00
166, 1496.96, 64332.92, 3489.24, 28284.72, -19855.17, -3021.89, 9322.31, -54407.81, -9054.00, 36639.54, 3858.34, -17167.97, 0.00, 0.00, 0.00, 0.00, 0.00, 0.00, 0.00
167, 1477.76, 64293.32, 3454.93, 28251.04, -19881.34, -3048.91, 9286.97, -54434.83, -9054.00, 36639.54, 3858.34, -17167.97, 0.00, 0.00, 0.00, 0.00, 0.00, 0.00, 0.00
168, 1477.76, 64293.32, 3454.93, 28251.04, -19881.34, -3048.91, 9286.97, -54434.83, -9050.51, 36633.50, 3855.21, -17161.58, 0.00, 0.00, 0.00, 0.00, 0.00, 0.00, 0.00
169, 1494.24, 64324.74, 3480.95, 28280.83, -19861.76, -3025.24, 9318.02, -54409.80, -9050.51, 36633.50, 3855.21, -17161.58, 0.00, 0.00, 0.00, 0.00, 0.00, 0.00, 0.00
170, 1494.24, 64324.74, 3480.95, 28280.83, -19861.76, -3025.24, 9318.02, -54409.80, -9049.06, 36643.76, 3863.79, -17155.79, 0.00, 0.00, 0.00, 0.00, 0.10, 0.38, 0.94
171, 1473.52, 64290.92, 3455.22, 28253.83, -19882.61, -3048.33, 9288.07, -54435.79, -9049.06, 36643.76, 3863.79, -17155.79, 0.00, 0.00, 0.00, 0.00, 0.00, 0.00, 0.00
172, 1473.52, 64290.92, 3455.22, 28253.83, -19882.61, -3048.33, 9288.07, -54435.79, -9052.32, 36626.30, 3847.14, -17155.88, 0.00, 0.00, 0.00, 0.00, 0.00, 0.00, 0.00
173, 1489.92, 64319.78, 3477.80, 28279.61, -19863.26, -3027.52, 9316.77, -54414.18, -9052.32, 36626.30, 3847.14, -17155.88, 0.00, 0.00, 0.00, 0.00, 0.00, 0.00, 0.00
174, 1489.92, 64319.78, 3477.80, 28279.61, -19863.26, -3027.52, 9316.77, -54414.18, -9048.41, 36643.38, 3865.35, -17177.45, 0.00, 0.00, 0.00, 0.00, 0.00, 0.00, 0.00
175, 1479.69, 64299.44, 3461.57, 28259.29, -19877.79, -3044.98, 9289.32, -54435.26, -9048.41, 36643.38, 3865.35, -17177.45, 0.00, 0.00, 0.00, 0.00, 0.00, 0.00, 0.00
176, 1479.69, 64299.44, 3461.57, 28259.29, -19877.79, -3044.98, 9289.32, -54435.26, -9047.87, 36623.73, 3843.47, -17143.83, 0.00, 0.00, 0.00, 0.00, 0.00, 0.00, 0.00
177, 1497.61, 64320.47, 3479.81, 28282.76, -19859.81, -3023.43, 9318.33, -54410.96, -9047.87, 36623.73, 3843.47, -17143.83, 0.00, 0.00, 0.00, 0.00, 0.00, 0.00, 0.00
178, 1497.61, 64320.47, 3479.81, 28282.76, -19859.81, -3023.43, 9318.33, -54410.96, -9045.97, 36653.11, 3870.74, -17168.38, 0.00, 0.00, 0.00, 0.00, 0.00, 0.00, 0.00
179, 1476.89, 64293.63, 3458.33, 28256.78, -19879.48, -3044.11, 9290.01, -54436.31, -9045.97, 36653.11, 3870.74, -17168.38, 0.00, 0.00, 0.00, 0.00, 0.00, 0.00, 0.00
180, 1476.89, 64293.63, 3458.33, 28256.78, -19879.48, -3044.11, 9290.01, -54436.31, -9056.32, 36614.04, 3838.40, -17160.93, 0.00, 0.00, 0.00, 0.00, 0.10, 0.39, 0.94
181, 1481.05, 64307.33, 3469.57, 28271.04, -19869.72, -3031.03, 9305.39, -54417.93, -9056.32, 36614.04, 3838.40, -17160.93, 0.00, 0.00, 0.00, 0.00, 0.00, 0.00, 0.00
182, 1481.05, 64307.33, 3469.57, 28271.04, -19869.72, -3031.03, 9305.39, -54417.93, -9051.05, 36653.11, 3864.46, -17166.68, 0.00, 0.00, 0.00, 0.00, 0.00, 0.00, 0.00
183, 1468.91, 64289.11, 3455.33, 28257.28, -19884.09, -3042.65, 9285.18, -54435.68, -9051.05, 36653.11, 3864.46, -17166.68, 0.00, 0.00, 0.00, 0.00, 0.00, 0.00, 0.00
184, 1468.91, 64289.11, 3455.33, 28257.28, -19884.09, -3042.65, 9285.18, -54435.68, -9061.98, 36607.62, 3826.66, -17147.27, 0.00, 0.00, 0.00, 0.00, 0.00, 0.00, 0.00
185, 1480.69, 64302.52, 3462.35, 28264.58, -19877.29, -3036.48, 9296.43, -54424.08, -9061.98, 36607.62, 3826.66, -17147.27, 0.00, 0.00, 0.00, 0.00, 0.00, 0.00, 0.00
186, 1480.69, 64302.52, 3462.35, 28264.58, -19877.29, -3036.48, 9296.43, -54424.08, -9048.61, 36652.81, 3868.66, -17171.28, 0.00, 0.00, 0.00, 0.00, 0.00, 0.00, 0.00
187, 1476.35, 64301.14, 3461.75, 28262.84, -19877.09, -3040.66, 9286.05, -54428.98, -9048.61, 36652.81, 3868.66, -17171.28, 0.00, 0.00, 0.00, 0.00, 0.00, 0.00, 0.00
188, 1476.35, 64301.14, 3461.75, 28262.84, -19877.09, -3040.66, 9286.05, -54428.98, -9056.19, 36610.43, 3833.75, -17154.90, 0.00, 0.00, 0.00, 0.00, 0.00, 0.00, 0.00
189, 1480.58, 64302.01, 3462.82, 28266.78, -19879.06, -3035.90, 9288.89, -54426.68, -9056.19, 36610.43, 3833.75, -17154.90, 0.00, 0.00, 0.00, 0.00, 0.00, 0.00, 0.00
190, 1480.58, 64302.01, 3462.82, 28266.78, -19879.06, -3035.90, 9288.89, -54426.68, -9047.32, 36657.11, 3873.56, -17176.18, 0.00, 0.00, 0.00, 0.00, 0.10, 0.39, 0.93
191, 1484.13, 64307.29, 3468.21, 28270.42, -19871.53, -3032.33, 9287.24, -54420.73, -9047.32, 36657.11, 3873.56, -17176.18, 0.00, 0.00, 0.00, 0.00, 0.00, 0.00, 0.00
192, 1484.13, 64307.29, 3468.21, 28270.42, -19871.53, -3032.33, 9287.24, -54420.73, -9055.50, 36609.23, 3833.97, -17144.57, 0.00, 0.00, 0.00, 0.00, 0.00, 0.00, 0.00
193, 1475.13, 64294.43, 3455.85, 28259.06, -19882.90, -3042.12, 9276.13, -54430.54, -9055.50, 36609.23, 3833.97, -17144.57, 0.00, 0.00, 0.00, 0.00, 0.00, 0.00, 0.00
194, 1475.13, 64294.43, 3455.85, 28259.06, -19882.90, -3042.12, 9276.13, -54430.54, -9048.83, 36652.28, 3870.83, -17171.64, 0.00, 0.00, 0.00, 0.00, 0.00, 0.00, 0.00
195, 1479.69, 64304.31, 3467.78, 28271.89, -19870.34, -3031.86, 9280.78, -54418.89, -9048.83, 36652.28, 3870.83, -17171.64, 0.00, 0.00, 0.00, 0.00, 0.00, 0.00, 0.00
196, 1479.69, 64304.31, 3467.78, 28271.89, -19870.34, -3031.86, 9280.78, -54418.89, -9060.06, 36612.22, 3832.32, -17149.84, 0.00, 0.00, 0.00, 0.00, 0.00, 0.00, 0.00
197, 1473.25, 64289.70, 3452.70, 28255.09, -19883.75, -3044.69, 9263.75, -54430.70, -9060.06, 36612.22, 3832.32, -17149.84, 0.00, 0.00, 0.00, 0.00, 0.00, 0.00, 0.00
198, 1473.25, 64289.70, 3452.70, 28255.09, -19883.75, -3044.69, 9263.75, -54430.70, -9048.68, 36650.69, 3868.08, -17165.33, 0.00, 0.00, 0.00, 0.00, 0.00, 0.00, 0.00
199, 1484.31, 64310.14, 3470.91, 28274.91, -19866.50, -3028.21, 9277.67, -54412.53, -9048.68, 36650.69, 3868.08, -17165.33, 0.00, 0.00, 0.00, 0.00, 0.10, 0.39, 0.94
200, 1484.31, 64310.14, 3470.91, 28274.91, -19866.50, -3028.21, 9277.67, -54412.53, -9048.57, 36621.59, 3846.27, -17138.69, 0.00, 0.00, 0.00, 0.00, 0.00, 0.00, 0.00
201, 1471.73, 64299.66, 3461.50, 28261.86, -19876.31, -3037.89, 9259.32, -54423.07, -9048.57, 36621.59, 3846.27, -17138.69, 0.00, 0.00, 0.00, 0.00, 0.00, 0.00, 0.00
202, 1471.73, 64299.66, 3461.50, 28261.86, -19876.31, -3037.89, 9259.32, -54423.07, -9041.59, 36658.49, 3874.92, -17161.96, 0.00, 0.00, 0.00, 0.00, 0.00, 0.00, 0.00
203, 1490.70, 64325.52, 3481.31, 28281.24, -19856.48, -3018.45, 9279.73, -54400.34, -9041.59, 36658.49, 3874.92, -17161.96, 0.00, 0.00, 0.00, 0.00, 0.00, 0.00, 0.00
204, 1490.70, 64325.52, 3481.31, 28281.24, -19856.48, -3018.45, 9279.73, -54400.34, -9048.17, 36629.97, 3853.37, -17144.62, 0.00, 0.00, 0.00, 0.00, 0.00, 0.00, 0.00
205, 1471.33, 64296.47, 3457.52, 28257.23, -19876.82, -3040.69, 9244.99, -54421.96, -9048.17, 36629.97, 3853.37, -17144.62, 0.00, 0.00, 0.00, 0.00, 0.00, 0.00, 0.00
206, 1471.33, 64296.47, 3457.52, 28257.23, -19876.82, -3040.69, 9244.99, -54421.96, -9044.83, 36647.63, 3872.26, -17150.11, 0.00, 0.00, 0.00, 0.00, 0.00, 0.00, 0.00
207, 1486.32, 64317.63, 3478.40, 28280.95, -19859.79, -3019.85, 9264.40, -54404.70, -9044.83, 36647.63, 3872.26, -17150.11, 0.00, 0.00, 0.00, 0.00, 0.00, 0.00, 0.00
208, 1486.32, 64317.63, 3478.40, 28280.95, -19859.79, -3019.85, 9264.40, -54404.70, -9054.87, 36626.13, 3855.72, -17147.72, 0.00, 0.00, 0.00, 0.00, 0.00, 0.00, 0.00
209, 1464.96, 64291.97, 3455.74, 28253.16, -19881.52, -3045.38, 9228.19, -54430.12, -9054.87, 36626.13, 3855.72, -17147.72, 0.00, 0.00, 0.00, 0.00, 0.11, 0.38, 0.93
210, 1464.96, 64291.97, 3455.74, 28253.16, -19881.52, -3045.38, 9228.19, -54430.12, -9049.28, 36637.30, 3865.47, -17162.81, 0.00, 0.00, 0.00, 0.00, 0.00, 0.00, 0.00
211, 1484.94, 64321.79, 3480.35, 28283.45, -19859.21, -3020.91, 9253.26, -54404.57, -9049.28, 36637.30, 3865.47, -17162.81, 0.00, 0.00, 0.00, 0.00, 0.00, 0.00, 0.00
212, 1484.94, 64321.79, 3480.35, 28283.45, -19859.21, -3020.91, 9253.26, -54404.57, -9052.39, 36631.22, 3861.82, -17169.63, 0.00, 0.00, 0.00, 0.00, 0.00, 0.00, 0.00
213, 1467.95, 64288.60, 3454.84, 28253.01, -19880.18, -3044.04, 9217.79, -54428.22, -9052.39, 36631.22, 3861.82, -17169.63, 0.00, 0.00, 0.00, 0.00, 0.00, 0.00, 0.00
214, 1467.95, 64288.60, 3454.84, 28253.01, -19880.18, -3044.04, 9217.79, -54428.22, -9050.24, 36637.57, 3861.71, -17143.43, 0.00, 0.00, 0.00, 0.00, 0.00, 0.00, 0.00
215, 1487.82, 64323.02, 3481.62, 28283.61, -19858.68, -3017.60, 9245.71, -54399.14, -9050.24, 36637.57, 3861.71, -17143.43, 0.00, 0.00, 0.00, 0.00, 0.00, 0.00, 0.00
216, 1487.82, 64323.02, 3481.62, 28283.61, -19858.68, -3017.60, 9245.71, -54399.14, -9053.62, 36638.06, 3859.03, -17152.01, 0.00, 0.00, 0.00, 0.00, 0.00, 0.00, 0.00
217, 1468.13, 64291.28, 3455.62, 28256.11, -19878.95, -3042.54, 9206.21, -54427.46, -9053.62, 36638.06, 3859.03, -17152.01, 0.00, 0.00, 0.00, 0.00, 0.00, 0.00, 0.00
218, 1468.13, 64291.28, 3455.62, 28256.11, -19878.95, -3042.54, 9206.21, -54427.46, -9055.34, 36623.60, 3852.77, -17161.91, 0.00, 0.00, 0.00, 0.00, 0.00, 0.00, 0.00
219, 1482.12, 64315.29, 3475.72, 28280.16, -19863.03, -3022.18, 9230.76, -54402.65, -9055.34, 36623.60, 3852.77, -17161.91, 0.00, 0.00, 0.00, 0.00, 0.11, 0.39, 0.93
220, 1482.12, 64315.29, 3475.72, 28280.16, -19863.03, -3022.18, 9230.76, -54402.65, -9054.20, 36638.55, 3860.53, -17152.66, 0.00, 0.00, 0.00, 0.00, 0.00, 0.00, 0.00
221, 1464.17, 64288.67, 3450.75, 28249.12, -19885.59, -3046.97, 9192.31, -54431.23, -9054.20, 36638.55, 3860.53, -17152.66, 0.00, 0.00, 0.00, 0.00, 0.00, 0.00, 0.00
222, 1464.17, 64288.67, 3450.75, 28249.12, -19885.59, -3046.97, 9192.31, -54431.23, -9049.95, 36622.30, 3849.10, -17145.22, 0.00, 0.00, 0.00, 0.00, 0.00, 0.00, 0.00
223, 1485.81, 64324.29, 3482.20, 28282.27, -19856.87, -3021.04, 9223.96, -54398.63, -9049.95, 36622.30, 3849.10, -17145.22, 0.00, 0.00, 0.00, 0.00, 0.00, 0.00, 0.00
224, 1485.81, 64324.29, 3482.20, 28282.27, -19856.87, -3021.04, 9223.96, -54398.63, -9040.97, 36650.64, 3876.46, -17157.69, 0.00, 0.00, 0.00, 0.00, 0.00, 0.00, 0.00
225, 1472.73, 64301.83, 3461.84, 28258.10, -19876.22, -3041.11, 9187.97, -54423.75, -9040.97, 36650.64, 3876.46, -17157.69, 0.00, 0.00, 0.00, 0.00, 0.00, 0.00, 0.00
226, 1472.73, 64301.83, 3461.84, 28258.10, -19876.22, -3041.11, 9187.97, -54423.75, -9050.74, 36613.50, 3850.18, -17154.34, 0.00, 0.00, 0.00, 0.00, 0.00, 0.00, 0.00
227, 1488.11, 64321.03, 3480.26, 28282.82, -19860.71, -3024.08, 9207.42, -54404.99, -9050.74, 36613.50, 3850.18, -17154.34, 0.00, 0.00, 0.00, 0.00, 0.00, 0.00, 0.00
228, 1488.11, 64321.03, 3480.26, 28282.82, -19860.71, -3024.08, 9207.42, -54404.99, -9044.45, 36651.76, 3882.30, -17170.52, 0.00, 0.00, 0.00, 0.00, 0.00, 0.00, 0.00
229, 1481.76, 64306.10, 3468.14, 28264.36, -19868.60, -3035.99, 9184.13, -54416.91, -9044.45, 36651.76, 3882.30, -17170.52, 0.00, 0.00, 0.00, 0.00, 0.10, 0.38, 0.94
230, 1481.76, 64306.10, 3468.14, 28264.36, -19868.60, -3035.99, 9184.13, -54416.91, -9045.68, 36619.46, 3850.02, -17129.53, 0.00, 0.00, 0.00, 0.00, 0.00, 0.00, 0.00
231, 1492.43, 64326.29, 3480.30, 28284.52, -19861.27, -3020.19, 9192.42, -54402.82, -9045.68, 36619.46, 3850.02, -17129.53, 0.00, 0.00, 0.00, 0.00, 0.00, 0.00, 0.00
232, 1492.43, 64326.29, 3480.30, 28284.52, -19861.27, -3020.19, 9192.42, -54402.82, -9043.69, 36653.82, 3884.51, -17166.85, 0.00, 0.00, 0.00, 0.00, 0.00, 0.00, 0.00
233, 1477.43, 64303.02, 3466.29, 28265.39, -19870.77, -3033.60, 9169.33, -54417.64, -9043.69, 36653.82, 3884.51, -17166.85, 0.00, 0.00, 0.00, 0.00, 0.00, 0.00, 0.00
234, 1477.43, 64303.02, 3466.29, 28265.39, -19870.77, -3033.60, 9169.33, -54417.64, -9053.19, 36615.62, 3840.99, -17137.51, 0.00, 0.00, 0.00, 0.00, 0.00, 0.00, 0.00
235, 1474.95, 64310.28, 3470.18, 28273.46, -19869.47, -3026.87, 9177.51, -54412.21, -9053.19, 36615.62, 3840.99, -17137.51, 0.00, 0.00, 0.00, 0.00, 0.00, 0.00, 0.00
236, 1474.95, 64310.28, 3470.18, 28273.46, -19869.47, -3026.87, 9177.51, -54412.21, -9047.02, 36656.86, 3876.82, -17160.44, 0.00, 0.00, 0.00, 0.00, 0.00, 0.00, 0.00
237, 1480.29, 64305.63, 3466.58, 28270.60, -19867.86, -3030.76, 9169.85, -54410.20, -9047.02, 36656.86, 3876.82, -17160.44, 0.00, 0.00, 0.00, 0.00, 0.00, 0.00, 0.00
238, 1480.29, 64305.63, 3466.58, 28270.60, -19867.86, -3030.76, 9169.85, -54410.20, -9052.39, 36609.25, 3837.84, -17130.29, 0.00, 0.00, 0.00, 0.00, 0.10, 0.38, 0.94
239, 1478.12, 64311.60, 3467.98, 28267.29, -19865.89, -3035.68, 9167.05, -54408.10, -9052.39, 36609.25, 3837.84, -17130.29, 0.00, 0.00, 0.00, 0.00, 0.00, 0.00, 0.00
240, 1478.12, 64311.60, 3467.98, 28267.29, -19865.89, -3035.68, 9167.05, -54408.10, -9041.24, 36659.18, 3882.25, -17157.76, 0.00, 0.00, 0.00, 0.00, 0.00, 0.00, 0.00
241, 1481.27, 64318.91, 3474.49, 28272.97, -19862.61, -3029.02, 9163.57, -54408.46, -9041.24, 36659.18, 3882.25, -17157.76, 0.00, 0.00, 0.00, 0.00, 0.00, 0.00, 0.00
242, 1481.27, 64318.91, 3474.49, 28272.97, -19862.61, -3029.02, 9163.57, -54408.46, -9051.74, 36617.12, 3848.64, -17135.83, 0.00, 0.00, 0.00, 0.00, 0.00, 0.00, 0.00
243, 1472.42, 64310.62, 3470.56, 28267.49, -19868.02, -3032.28, 9156.41, -54410.78, -9051.74, 36617.12, 3848.64, -17135.83, 0.00, 0.00, 0.00, 0.00, 0.00, 0.00, 0.00
244, 1472.42, 64310.62, 3470.56, 28267.49, -19868.02, -3032.28, 9156.41, -54410.78, -9040.54, 36658.18, 3885.63, -17152.66, 0.00, 0.00, 0.00, 0.00, 0.00, 0.00, 0.00
245, 1488.60, 64321.61, 3478.67, 28280.14, -19856.66, -3022.76, 9160.39, -54400.95, -9040.54, 36658.18, 3885.63, -17152.66, 0.00, 0.00, 0.00, 0.00, 0.00, 0.00, 0.00
246, 1488.60, 64321.61, 3478.67, 28280.14, -19856.66, -3022.76, 9160.39, -54400.95, -9055.45, 36613.74, 3847.63, -17133.17, 0.00, 0.00, 0.00, 0.00, 0.00, 0.00, 0.00
247, 1475.66, 64306.41, 3466.62, 28264.74, -19872.18, -3037.09, 9139.18, -54417.27, -9055.45, 36613.74, 3847.63, -17133.17, 0.00, 0.00, 0.00, 0.00, 0.00, 0.00, 0.00
248, 1475.66, 64306.41, 3466.62, 28264.74, -19872.18, -3037.09, 9139.18, -54417.27, -9047.96, 36649.06, 3881.13, -17157.13, 0.00, 0.00, 0.00, 0.00, 0.11, 0.38, 0.93
249, 1480.09, 64323.11, 3479.36, 28278.69, -19858.79, -3022.65, 9152.59, -54399.99, -9047.96, 36649.06, 3881.13, -17157.13, 0.00, 0.00, 0.00, 0.00, 0.00, 0.00, 0.00
250, 1480.09, 64323.11, 3479.36, 28278.69, -19858.79, -3022.65, 9152.59, -54399.99, -9056.30, 36622.06, 3851.43, -17146.16, 0.00, 0.00, 0.00, 0.00, 0.00, 0.00, 0.00
251, 1468.46, 64302.48, 3460.88, 28257.74, -19877.58, -3042.34, 9124.45, -54420.13, -9056.30, 36622.06, 3851.43, -17146.16, 0.00, 0.00, 0.00, 0.00, 0.00, 0.00, 0.00
252, 1468.46, 64302.48, 3460.88, 28257.74, -19877.58, -3042.34, 9124.45, -54420.13, -9045.13, 36649.48, 3875.26, -17147.68, 0.00, 0.00, 0.00, 0.00, 0.00, 0.00, 0.00
253, 1488.54, 64327.02, 3483.70, 28281.15, -19855.59, -3021.55, 9147.05, -54399.00, -9045.13, 36649.48, 3875.26, -17147.68, 0.00, 0.00, 0.00, 0.00, 0.00, 0.00, 0.00
254, 1488.54, 64327.02, 3483.70, 28281.15, -19855.59, -3021.55, 9147.05, -54399.00, -9050.98, 36621.99, 3860.64, -17135.52, 0.00, 0.00, 0.00, 0.00, 0.00, 0.00, 0.00
255, 1464.62, 64299.35, 3460.36, 28255.11, -19877.03, -3042.27, 9116.32, -54422.05, -9050.98, 36621.99, 3860.64, -17135.52, 0.00, 0.00, 0.00, 0.00, 0.00, 0.00, 0.00
0, 1464.62, 64299.35, 3460.36, 28255.11, -19877.03, -3042.27, 9116.32, -54422.05, -9040.10, 36646.73, 3875.35, -17155.61, 0.00, 0.00, 0.00, 0.00, 0.00, 0.00, 0.00
1, 1485.50, 64328.07, 3485.42, 28286.22, -19849.76, -3016.95, 9145.80, -54391.79, -9040.10, 36646.73, 3875.35, -17155.61, 0.00, 0.00, 0.00, 0.00, 0.00, 0.00, 0.00
2, 1485.50, 64328.07, 3485.42, 28286.22, -19849.76, -3016.95, 9145.80, -54391.79, -9041.01, 36636.92, 3863.48, -17127.54, 0.00, 0.00, 0.00, 0.00, 0.11, 0.39, 0.93
3, 1460.28, 64299.15, 3460.36, 28255.96, -19873.14, -3041.02, 9110.46, -54414.96, -9041.01, 36636.92, 3863.48, -17127.54, 0.00, 0.00, 0.00, 0.00, 0.00, 0.00, 0.00
4, 1460.28, 64299.15, 3460.36, 28255.96, -19873.14, -3041.02, 9110.46, -54414.96, -9039.67, 36650.96, 3869.31, -17133.19, 0.00, 0.00, 0.00, 0.00, 0.00, 0.00, 0.00
5, 1480.96, 64322.33, 3480.03, 28282.29, -19857.04, -3019.72, 9134.33, -54392.90, -9039.67, 36650.96, 3869.31, -17133.19, 0.00, 0.00, 0.00, 0.00, 0.00, 0.00, 0.00
6, 1480.96, 64322.33, 3480.03, 28282.29, -19857.04, -3019.72, 9134.33, -54392.90, -9051.18, 36635.13, 3864.19, -17139.56, 0.00, 0.00, 0.00, 0.00, 0.00, 0.00, 0.00
7, 1466.81, 64299.66, 3460.68, 28255.06, -19875.51, -3045.96, 9101.50, -54419.14, -9051.18, 36635.13, 3864.19, -17139.56, 0.00, 0.00, 0.00, 0.00, 0.00, 0.00, 0.00
8, 1466.81, 64299.66, 3460.68, 28255.06, -19875.51, -3045.96, 9101.50, -54419.14, -9039.02, 36640.72, 3869.06, -17140.77, 0.00, 0.00, 0.00, 0.00, 0.00, 0.00, 0.00
9, 1489.21, 64335.23, 3489.84, 28286.38, -19848.57, -3016.35, 9135.05, -54387.13, -9039.02, 36640.72, 3869.06, -17140.77, 0.00, 0.00, 0.00, 0.00, 0.00, 0.00, 0.00
10, 1489.21, 64335.23, 3489.84, 28286.38, -19848.57, -3016.35, 9135.05, -54387.13, -9037.84, 36648.25, 3882.12, -17136.50, 0.00, 0.00, 0.00, 0.00, 0.00, 0.00, 0.00
11, 1468.42, 64302.34, 3459.58, 28254.01, -19875.08, -3043.73, 9093.90, -54418.92, -9037.84, 36648.25, 3882.12, -17136.50, 0.00, 0.00, 0.00, 0.00, 0.00, 0.00, 0.00
12, 1468.42, 64302.34, 3459.58, 28254.01, -19875.08, -3043.73, 9093.90, -54418.92, -9041.82, 36631.58, 3866.16, -17137.35, 0.00, 0.00, 0.00, 0.00, 0.10, 0.39, 0.93
13, 1486.64, 64329.14, 3481.06, 28278.89, -19856.87, -3023.39, 9119.89, -54394.46, -9041.82, 36631.58, 3866.16, -17137.35, 0.00, 0.00, 0.00, 0.00, 0.00, 0.00, 0.00
14, 1486.64, 64329.14, 3481.06, 28278.89, -19856.87, -3023.39, 9119.89, -54394.46, -9044.16, 36645.64, 3878.81, -17151.39, 0.00, 0.00, 0.00, 0.00, 0.00, 0.00, 0.00
15, 1472.89, 64306.05, 3462.26, 28255.60, -19875.97, -3044.80, 9088.22, -54420.48, -9044.16, 36645.64, 3878.81, -17151.39, 0.00, 0.00, 0.00, 0.00, 0.00, 0.00, 0.00
16, 1472.89, 64306.05, 3462.26, 28255.60, -19875.97, -3044.80, 9088.22, -54420.48, -9049.46, 36625.19, 3853.62, -17124.77, 0.00, 0.00, 0.00, 0.00, 0.00, 0.00, 0.00
17, 1484.71, 64329.12, 3481.62, 28280.92, -19861.36, -3024.01, 9112.34, -54396.81, -9049.46, 36625.19, 3853.62, -17124.77, 0.00, 0.00, 0.00, 0.00, 0.00, 0.00, 0.00
18, 1484.71, 64329.12, 3481.62, 28280.92, -19861.36, -3024.01, 9112.34, -54396.81, -9046.85, 36654.82, 3885.76, -17148.50, 0.00, 0.00, 0.00, 0.00, 0.00, 0.00, 0.00
19, 1474.70, 64309.18, 3469.80, 28260.43, -19871.95, -3042.99, 9086.54, -54418.89, -9046.85, 36654.82, 3885.76, -17148.50, 0.00, 0.00, 0.00, 0.00, 0.00, 0.00, 0.00
20, 1474.70, 64309.18, 3469.80, 28260.43, -19871.95, -3042.99, 9086.54, -54418.89, -9049.95, 36618.30, 3856.91, -17125.86, 0.00, 0.00, 0.00, 0.00, 0.00, 0.00, 0.00
21, 1487.31, 64323.36, 3480.61, 28278.33, -19861.11, -3027.92, 9103.78, -54403.74, -9049.95, 36618.30, 3856.91, -17125.86, 0.00, 0.00, 0.00, 0.00, 0.10, 0.39, 0.94
22, 1487.31, 64323.36, 3480.61, 28278.33, -19861.11, -3027.92, 9103.78, -54403.74, -9049.62, 36646.02, 3885.87, -17167.99, 0.00, 0.00, 0.00, 0.00, 0.00, 0.00, 0.00
23, 1476.20, 64309.10, 3470.62, 28263.20, -19871.17, -3041.92, 9081.78, -54418.52, -9049.62, 36646.02, 3885.87, -17167.99, 0.00, 0.00, 0.00, 0.00, 0.00, 0.00, 0.00
24, 1476.20, 64309.10, 3470.62, 28263.20, -19871.17, -3041.92, 9081.78, -54418.52, -9054.36, 36610.55, 3851.45, -17126.13, 0.00, 0.00, 0.00, 0.00, 0.00, 0.00, 0.00
25, 1474.28, 64323.78, 3480.59, 28277.88, -19862.03, -3029.00, 9099.17, -54402.36, -9054.36, 36610.55, 3851.45, -17126.13, 0.00, 0.00, 0.00, 0.00, 0.00, 0.00, 0.00
26, 1474.28, 64323.78, 3480.59, 28277.88, -19862.03, -3029.00, 9099.17, -54402.36, -9037.39, 36660.44, 3894.52, -17143.90, 0.00, 0.00, 0.00, 0.00, 0.00, 0.00, 0.00
27, 1480.42, 64315.27, 3476.05, 28273.01, -19858.99, -3032.04, 9090.97, -54403.83, -9037.39, 36660.44, 3894.52, -17143.90, 0.00, 0.00, 0.00, 0.00, 0.00, 0.00, 0.00
28, 1480.42, 64315.27, 3476.05, 28273.01, -19858.99, -3032.04, 9090.97, -54403.83, -9044.12, 36619.11, 3850.47, -17133.80, 0.00, 0.00, 0.00, 0.00, 0.00, 0.00, 0.00
29, 1469.02, 64307.69, 3469.64, 28273.01, -19866.16, -3033.20, 9090.30, -54407.09, -9044.12, 36619.11, 3850.47, -17133.80, 0.00, 0.00, 0.00, 0.00, 0.00, 0.00, 0.00
30, 1469.02, 64307.69, 3469.64, 28273.01, -19866.16, -3033.20, 9090.30, -54407.09, -9043.31, 36651.11, 3883.30, -17148.75, 0.00, 0.00, 0.00, 0.00, 0.00, 0.00, 0.00
31, 1462.88, 64302.82, 3466.55, 28264.16, -19868.17, -3039.59, 9080.75, -54410.18, -9043.31, 36651.11, 3883.30, -17148.75, 0.00, 0.00, 0.00, 0.00, 0.10, 0.38, 0.94
32, 1462.88, 64302.82, 3466.55, 28264.16, -19868.17, -3039.59, 9080.75, -54410.18, -9052.77, 36604.96, 3844.34, -17130.13, 0.00, 0.00, 0.00, 0.00, 0.00, 0.00, 0.00
33, 1467.59, 64300.04, 3462.26, 28264.05, -19873.54, -3043.12, 9076.22, -54410.85, -9052.77, 36604.96, 3844.34, -17130.13, 0.00, 0.00, 0.00, 0.00, 0.00, 0.00, 0.00
34, 1467.59, 64300.04, 3462.26, 28264.05, -19873.54, -3043.12, 9076.22, -54410.85, -9041.01, 36653.73, 3882.05, -17154.90, 0.00, 0.00, 0.00, 0.00, 0.00, 0.00, 0.00
35, 1476.78, 64312.09, 3471.76, 28272.56, -19862.47, -3033.58, 9084.31, -54402.49, -9041.01, 36653.73, 3882.05, -17154.90, 0.00, 0.00, 0.00, 0.00, 0.00, 0.00, 0.00
36, 1476.78, 64312.09, 3471.76, 28272.56, -19862.47, -3033.58, 9084.31, -54402.49, -9045.06, 36617.14, 3849.46, -17115.27, 0.00, 0.00, 0.00, 0.00, 0.00, 0.00, 0.00
37, 1467.50, 64305.32, 3465.57, 28266.84, -19869.89, -3040.17, 9075.77, -54409.87, -9045.06, 36617.14, 3849.46, -17115.27, 0.00, 0.00, 0.00, 0.00, 0.00, 0.00, 0.00
38, 1467.50, 64305.32, 3465.57, 28266.84, -19869.89, -3040.17, 9075.77, -54409.87, -9038.46, 36656.39, 3888.56, -17146.60, 0.00, 0.00, 0.00, 0.00, 0.00, 0.00, 0.00
39, 1475.28, 64314.32, 3473.46, 28277.71, -19860.20, -3029.60, 9083.86, -54399.14, -9038.46, 36656.39, 3888.56, -17146.60, 0.00, 0.00, 0.00, 0.00, 0.00, 0.00, 0.00
40, 1475.28, 64314.32, 3473.46, 28277.71, -19860.20, -3029.60, 9083.86, -54399.14, -9050.82, 36612.34, 3846.65, -17123.80, 0.00, 0.00, 0.00, 0.00, 0.00, 0.00, 0.00
41, 1458.52, 64291.17, 3453.93, 28257.72, -19878.10, -3047.39, 9060.88, -54420.10, -9050.82, 36612.34, 3846.65, -17123.80, 0.00, 0.00, 0.00, 0.00, 0.10, 0.39, 0.94
42, 1458.52, 64291.17, 3453.93, 28257.72, -19878.10, -3047.39, 9060.88, -54420.10, -9043.18, 36644.66, 3874.79, -17159.81, 0.00, 0.00, 0.00, 0.00, 0.00, 0.00, 0.00
43, 1472.62, 64311.84, 3473.01, 28277.66, -19858.09, -3030.65, 9081.96, -54398.60, -9043.18, 36644.66, 3874.79, -17159.81, 0.00, 0.00, 0.00, 0.00, 0.00, 0.00, 0.00
44, 1472.62, 64311.84, 3473.01, 28277.66, -19858.09, -3030.65, 9081.96, -54398.60, -9046.04, 36618.88, 3854.47, -17115.98, 0.00, 0.00, 0.00, 0.00, 0.00, 0.00, 0.00
45, 1456.48, 64290.32, 3455.51, 28257.70, -19874.43, -3046.59, 9060.01, -54419.32, -9046.04, 36618.88, 3854.47, -17115.98, 0.00, 0.00, 0.00, 0.00, 0.00, 0.00, 0.00
46, 1456.48, 64290.32, 3455.51, 28257.70, -19874.43, -3046.59, 9060.01, -54419.32, -9040.14, 36646.93, 3874.23, -17139.70, 0.00, 0.00, 0.00, 0.00, 0.00, 0.00, 0.00
47, 1466.36, 64310.46, 3470.73, 28278.82, -19858.56, -3028.50, 9082.85, -54395.85, -9040.14, 36646.93, 3874.23, -17139.70, 0.00, 0.00, 0.00, 0.00, 0.00, 0.00, 0.00
48, 1466.36, 64310.46, 3470.73, 28278.82, -19858.56, -3028.50, 9082.85, -54395.85, -9041.21, 36626.73, 3857.96, -17127.52, 0.00, 0.00, 0.00, 0.00, 0.00, 0.00, 0.00
49, 1458.23, 64291.04, 3453.95, 28252.58, -19871.44, -3048.82, 9057.04, -54415.88, -9041.21, 36626.73, 3857.96, -17127.52, 0.00, 0.00, 0.00, 0.00, 0.00, 0.00, 0.00
50, 1458.23, 64291.04, 3453.95, 28252.58, -19871.44, -3048.82, 9057.04, -54415.88, -9032.59, 36645.35, 3873.98, -17143.43, 0.00, 0.00, 0.00, 0.00, 0.00, 0.00, 0.00
51, 1474.05, 64316.32, 3475.88, 28280.77, -19854.76, -3026.18, 9082.88, -54390.00, -9032.59, 36645.35, 3873.98, -17143.43, 0.00, 0.00, 0.00, 0.00, 0.10, 0.39, 0.94
52, 1474.05, 64316.32, 3475.88, 28280.77, -19854.76, -3026.18, 9082.88, -54390.00, -9035.16, 36636.77, 3869.24, -17119.58, 0.00, 0.00, 0.00, 0.00, 0.00, 0.00, 0.00
53, 1458.90, 64294.50, 3454.51, 28252.22, -19871.57, -3048.60, 9055.09, -54415.52, -9035.16, 36636.77, 3869.24, -17119.58, 0.00, 0.00, 0.00, 0.00, 0.00, 0.00, 0.00
54, 1458.90, 64294.50, 3454.51, 28252.22, -19871.57, -3048.60, 9055.09, -54415.52, -9031.27, 36642.82, 3872.15, -17128.45, 0.00, 0.00, 0.00, 0.00, 0.00, 0.00, 0.00
55, 1480.02, 64327.94, 3480.99, 28283.90, -19848.53, -3026.31, 9085.09, -54388.54, -9031.27, 36642.82, 3872.15, -17128.45, 0.00, 0.00, 0.00, 0.00, 0.00, 0.00, 0.00
56, 1480.02, 64327.94, 3480.99, 28283.90, -19848.53, -3026.31, 9085.09, -54388.54, -9032.23, 36643.16, 3875.26, -17129.84, 0.00, 0.00, 0.00, 0.00, 0.00, 0.00, 0.00
57, 1452.24, 64286.66, 3448.45, 28246.01, -19875.93, -3053.52, 9047.99, -54418.07, -9032.23, 36643.16, 3875.26, -17129.84, 0.00, 0.00, 0.00, 0.00, 0.00, 0.00, 0.00
58, 1452.24, 64286.66, 3448.45, 28246.01, -19875.93, -3053.52, 9047.99, -54418.07, -9034.58, 36634.80, 3861.17, -17120.01, 0.00, 0.00, 0.00, 0.00, 0.00, 0.00, 0.00
59, 1475.37, 64317.43, 3477.17, 28281.13, -19850.92, -3027.32, 9083.41, -54387.98, -9034.58, 36634.80, 3861.17, -17120.01, 0.00, 0.00, 0.00, 0.00, 0.00, 0.00, 0.00
60, 1475.37, 64317.43, 3477.17, 28281.13, -19850.92, -3027.32, 9083.41, -54387.98, -9031.45, 36648.05, 3877.22, -17131.31, 0.00, 0.00, 0.00, 0.00, 0.10, 0.39, 0.94
61, 1456.01, 64290.12, 3452.27, 28251.06, -19874.41, -3052.42, 9050.80, -54417.13, -9031.45, 36648.05, 3877.22, -17131.31, 0.00, 0.00, 0.00, 0.00, 0.00, 0.00, 0.00
62, 1456.01, 64290.12, 3452.27, 28251.06, -19874.41, -3052.42, 9050.80, -54417.13, -9038.26, 36628.63, 3856.97, -17125.41, 0.00, 0.00, 0.00, 0.00, 0.00, 0.00, 0.00
63, 1475.04, 64318.66, 3474.24, 28277.95, -19851.41, -3029.80, 9079.66, -54390.71, -9038.26, 36628.63, 3856.97, -17125.41, 0.00, 0.00, 0.00, 0.00, 0.00, 0.00, 0.00
64, 1475.04, 64318.66, 3474.24, 28277.95, -19851.41, -3029.80, 9079.66, -54390.71, -9032.43, 36655.74, 3875.90, -17120.29, 0.00, 0.00, 0.00, 0.00, 0.00, 0.00, 0.00
65, 1456.93, 64287.04, 3447.13, 28249.43, -19872.94, -3052.58, 9048.25, -54416.73, -9032.43, 36655.74, 3875.90, -17120.29, 0.00, 0.00, 0.00, 0.00, 0.00, 0.00, 0.00
66, 1456.93, 64287.04, 3447.13, 28249.43, -19872.94, -3052.58, 9048.25, -54416.73, -9035.87, 36625.03, 3850.04, -17117.30, 0.00, 0.00, 0.00, 0.00, 0.00, 0.00, 0.00
67, 1471.35, 64313.21, 3470.80, 28275.31, -19856.37, -3034.20, 9072.73, -54398.20, -9035.87, 36625.03, 3850.04, -17117.30, 0.00, 0.00, 0.00, 0.00, 0.00, 0.00, 0.00
68, 1471.35, 64313.21, 3470.80, 28275.31, -19856.37, -3034.20, 9072.73, -54398.20, -9032.92, 36652.64, 3878.81, -17139.23, 0.00, 0.00, 0.00, 0.00, 0.00, 0.00, 0.00
69, 1449.53, 64285.87, 3446.57, 28248.02, -19874.25, -3054.25, 9046.51, -54418.00, -9032.92, 36652.64, 3878.81, -17139.23, 0.00, 0.00, 0.00, 0.00, 0.00, 0.00, 0.00
70, 1449.53, 64285.87, 3446.57, 28248.02, -19874.25, -3054.25, 9046.51, -54418.00, -9042.98, 36617.12, 3835.45, -17126.35, 0.00, 0.00, 0.00, 0.00, 0.10, 0.39, 0.94
71, 1460.95, 64299.86, 3458.93, 28266.08, -19865.04, -3043.77, 9063.03, -54404.41, -9042.98, 36617.12, 3835.45, -17126.35, 0.00, 0.00, 0.00, 0.00, 0.00, 0.00, 0.00
72, 1460.95, 64299.86, 3458.93, 28266.08, -19865.04, -3043.77, 9063.03, -54404.41, -9040.54, 36649.11, 3868.82, -17143.29, 0.00, 0.00, 0.00, 0.00, 0.00, 0.00, 0.00
73, 1454.63, 64286.61, 3450.13, 28254.50, -19871.48, -3051.21, 9048.34, -54414.87, -9040.54, 36649.11, 3868.82, -17143.29, 0.00, 0.00, 0.00, 0.00, 0.00, 0.00, 0.00
74, 1454.63, 64286.61, 3450.13, 28254.50, -19871.48, -3051.21, 9048.34, -54414.87, -9039.11, 36617.01, 3839.47, -17107.62, 0.00, 0.00, 0.00, 0.00, 0.00, 0.00, 0.00
75, 1456.51, 64298.97, 3458.51, 28265.59, -19863.55, -3040.71, 9064.15, -54403.03, -9039.11, 36617.01, 3839.47, -17107.62, 0.00, 0.00, 0.00, 0.00, 0.00, 0.00, 0.00
76, 1456.51, 64298.97, 3458.51, 28265.59, -19863.55, -3040.71, 9064.15, -54403.03, -9031.09, 36660.52, 3876.33, -17137.39, 0.00, 0.00, 0.00, 0.00, 0.00, 0.00, 0.00
77, 1457.83, 64295.46, 3456.97, 28259.38, -19865.60, -3046.34, 9056.05, -54408.55, -9031.09, 36660.52, 3876.33, -17137.39, 0.00, 0.00, 0.00, 0.00, 0.00, 0.00, 0.00
78, 1457.83, 64295.46, 3456.97, 28259.38, -19865.60, -3046.34, 9056.05, -54408.55, -9035.58, 36620.23, 3839.76, -17115.89, 0.00, 0.00, 0.00, 0.00, 0.00, 0.00, 0.00
79, 1463.17, 64305.16, 3464.05, 28265.41, -19863.41, -3044.42, 9062.98, -54402.31, -9035.58, 36620.23, 3839.76, -17115.89, 0.00, 0.00, 0.00, 0.00, 0.00, 0.00, 0.00
80, 1463.17, 64305.16, 3464.05, 28265.41, -19863.41, -3044.42, 9062.98, -54402.31, -9025.21, 36665.00, 3885.52, -17125.75, 0.00, 0.00, 0.00, 0.00, 0.10, 0.38, 0.94
81, 1462.23, 64306.08, 3465.48, 28263.76, -19857.51, -3043.86, 9061.22, -54401.48, -9025.21, 36665.00, 3885.52, -17125.75, 0.00, 0.00, 0.00, 0.00, 0.00, 0.00, 0.00
82, 1462.23, 64306.08, 3465.48, 28263.76, -19857.51, -3043.86, 9061.22, -54401.48, -9037.59, 36617.30, 3847.54, -17107.94, 0.00, 0.00, 0.00, 0.00, 0.00, 0.00, 0.00
83, 1458.07, 64300.29, 3457.77, 28257.54, -19865.76, -3050.61, 9055.07, -54410.09, -9037.59, 36617.30, 3847.54, -17107.94, 0.00, 0.00, 0.00, 0.00, 0.00, 0.00, 0.00
84, 1458.07, 64300.29, 3457.77, 28257.54, -19865.76, -3050.61, 9055.07, -54410.09, -9029.57, 36660.37, 3883.59, -17143.56, 0.00, 0.00, 0.00, 0.00, 0.00, 0.00, 0.00
85, 1462.05, 64305.79, 3463.67, 28263.73, -19858.05, -3042.01, 9063.43, -54401.28, -9029.57, 36660.37, 3883.59, -17143.56, 0.00, 0.00, 0.00, 0.00, 0.00, 0.00, 0.00
86, 1462.05, 64305.79, 3463.67, 28263.73, -19858.05, -3042.01, 9063.43, -54401.28, -9036.61, 36622.19, 3847.52, -17099.80, 0.00, 0.00, 0.00, 0.00, 0.00, 0.00, 0.00
87, 1452.13, 64293.90, 3454.60, 28251.44, -19870.99, -3053.72, 9051.50, -54414.85, -9036.61, 36622.19, 3847.52, -17099.80, 0.00, 0.00, 0.00, 0.00, 0.00, 0.00, 0.00
88, 1452.13, 64293.90, 3454.60, 28251.44, -19870.99, -3053.72, 9051.50, -54414.85, -9031.94, 36656.32, 3877.60, -17129.17, 0.00, 0.00, 0.00, 0.00, 0.00, 0.00, 0.00
89, 1464.11, 64310.62, 3470.00, 28268.96, -19856.66, -3039.70, 9066.11, -54398.58, -9031.94, 36656.32, 3877.60, -17129.17, 0.00, 0.00, 0.00, 0.00, 0.00, 0.00, 0.00
90, 1464.11, 64310.62, 3470.00, 28268.96, -19856.66, -3039.70, 9066.11, -54398.58, -9041.57, 36620.18, 3846.60, -17113.01, 0.00, 0.00, 0.00, 0.00, 0.10, 0.39, 0.94
91, 1454.20, 64285.22, 3448.05, 28247.11, -19876.42, -3058.86, 9043.58, -54419.30, -9041.57, 36620.18, 3846.60, -17113.01, 0.00, 0.00, 0.00, 0.00, 0.00, 0.00, 0.00
92, 1454.20, 64285.22, 3448.05, 28247.11, -19876.42, -3058.86, 9043.58, -54419.30, -9030.15, 36655.83, 3866.29, -17132.77, 0.00, 0.00, 0.00, 0.00, 0.00, 0.00, 0.00
93, 1464.42, 64307.09, 3467.14, 28269.17, -19858.25, -3040.84, 9065.17, -54400.88, -9030.15, 36655.83, 3866.29, -17132.77, 0.00, 0.00, 0.00, 0.00, 0.00, 0.00, 0.00
94, 1464.42, 64307.09, 3467.14, 28269.17, -19858.25, -3040.84, 9065.17, -54400.88, -9046.40, 36615.33, 3839.11, -17114.22, 0.00, 0.00, 0.00, 0.00, 0.00, 0.00, 0.00
95, 1442.98, 64280.95, 3442.19, 28238.50, -19883.15, -3067.67, 9035.00, -54428.38, -9046.40, 36615.33, 3839.11, -17114.22, 0.00, 0.00, 0.00, 0.00, 0.00, 0.00, 0.00
96, 1442.98, 64280.95, 3442.19, 28238.50, -19883.15, -3067.67, 9035.00, -54428.38, -9033.19, 36645.73, 3861.17, -17130.13, 0.00, 0.00, 0.00, 0.00, 0.00, 0.00, 0.00
97, 1460.51, 64306.48, 3464.88, 28266.82, -19860.53, -3043.08, 9066.63, -54399.11, -9033.19, 36645.73, 3861.17, -17130.13, 0.00, 0.00, 0.00, 0.00, 0.00, 0.00, 0.00
98, 1460.51, 64306.48, 3464.88, 28266.82, -19860.53, -3043.08, 9066.63, -54399.11, -9039.58, 36626.80, 3843.47, -17123.98, 0.00, 0.00, 0.00, 0.00, 0.00, 0.00, 0.00
99, 1439.50, 64275.48, 3437.41, 28236.04, -19881.59, -3065.77, 9037.17, -54425.96, -9039.58, 36626.80, 3843.47, -17123.98, 0.00, 0.00, 0.00, 0.00, 0.10, 0.38, 0.93
100, 1439.50, 64275.48, 3437.41, 28236.04, -19881.59, -3065.77, 9037.17, -54425.96, -9038.71, 36641.01, 3844.43, -17115.71, 0.00, 0.00, 0.00, 0.00, 0.00, 0.00, 0.00
101, 1457.45, 64296.96, 3458.93, 28267.78, -19862.81, -3041.16, 9064.28, -54402.07, -9038.71, 36641.01, 3844.43, -17115.71, 0.00, 0.00, 0.00, 0.00, 0.00, 0.00, 0.00
102, 1457.45, 64296.96, 3458.93, 28267.78, -19862.81, -3041.16, 9064.28, -54402.07, -9042.76, 36633.66, 3843.74, -17120.03, 0.00, 0.00, 0.00, 0.00, 0.00, 0.00, 0.00
103, 1439.74, 64267.99, 3436.51, 28238.08, -19882.26, -3064.00, 9035.27, -54426.34, -9042.76, 36633.66, 3843.74, -17120.03, 0.00, 0.00, 0.00, 0.00, 0.00, 0.00, 0.00
104, 1439.74, 64267.99, 3436.51, 28238.08, -19882.26, -3064.00, 9035.27, -54426.34, -9034.28, 36639.45, 3846.42, -17110.62, 0.00, 0.00, 0.00, 0.00, 0.00, 0.00, 0.00
105, 1463.06, 64307.46, 3469.04, 28274.33, -19853.42, -3033.80, 9073.40, -54392.03, -9034.28, 36639.45, 3846.42, -17110.62, 0.00, 0.00, 0.00, 0.00, 0.00, 0.00, 0.00
106, 1463.06, 64307.46, 3469.04, 28274.33, -19853.42, -3033.80, 9073.40, -54392.03, -9033.93, 36652.14, 3855.30, -17122.44, 0.00, 0.00, 0.00, 0.00, 0.00, 0.00, 0.00
107, 1443.34, 64274.81, 3443.24, 28242.57, -19875.64, -3059.95, 9039.34, -54418.07, -9033.93, 36652.14, 3855.30, -17122.44, 0.00, 0.00, 0.00, 0.00, 0.00, 0.00, 0.00
108, 1443.34, 64274.81, 3443.24, 28242.57, -19875.64, -3059.95, 9039.34, -54418.07, -9038.02, 36635.18, 3842.38, -17106.77, 0.00, 0.00, 0.00, 0.00, 0.00, 0.00, 0.00
109, 1465.49, 64305.52, 3465.77, 28268.92, -19858.63, -3039.30, 9070.02, -54398.00, -9038.02, 36635.18, 3842.38, -17106.77, 0.00, 0.00, 0.00, 0.00, 0.10, 0.38, 0.94
110, 1465.49, 64305.52, 3465.77, 28268.92, -19858.63, -3039.30, 9070.02, -54398.00, -9040.72, 36643.80, 3860.77, -17118.93, 0.00, 0.00, 0.00, 0.00, 0.00, 0.00, 0.00
111, 1449.58, 64284.15, 3449.21, 28240.29, -19874.70, -3064.07, 9036.50, -54424.02, -9040.72, 36643.80, 3860.77, -17118.93, 0.00, 0.00, 0.00, 0.00, 0.00, 0.00, 0.00
112, 1449.58, 64284.15, 3449.21, 28240.29, -19874.70, -3064.07, 9036.50, -54424.02, -9039.69, 36621.12, 3849.26, -17109.66, 0.00, 0.00, 0.00, 0.00, 0.00, 0.00, 0.00
113, 1466.34, 64316.05, 3472.61, 28269.26, -19856.95, -3041.40, 9066.69, -54399.14, -9039.69, 36621.12, 3849.26, -17109.66, 0.00, 0.00, 0.00, 0.00, 0.00, 0.00, 0.00
114, 1466.34, 64316.05, 3472.61, 28269.26, -19856.95, -3041.40, 9066.69, -54399.14, -9036.18, 36649.75, 3870.90, -17134.20, 0.00, 0.00, 0.00, 0.00, 0.00, 0.00, 0.00
115, 1453.58, 64293.27, 3452.70, 28243.93, -19870.72, -3061.09, 9041.48, -54416.24, -9036.18, 36649.75, 3870.90, -17134.20, 0.00, 0.00, 0.00, 0.00, 0.00, 0.00, 0.00
116, 1453.58, 64293.27, 3452.70, 28243.93, -19870.72, -3061.09, 9041.48, -54416.24, -9037.97, 36626.19, 3844.28, -17102.44, 0.00, 0.00, 0.00, 0.00, 0.00, 0.00, 0.00
117, 1462.90, 64312.23, 3470.06, 28261.81, -19858.56, -3046.88, 9063.95, -54398.85, -9037.97, 36626.19, 3844.28, -17102.44, 0.00, 0.00, 0.00, 0.00, 0.00, 0.00, 0.00
118, 1462.90, 64312.23, 3470.06, 28261.81, -19858.56, -3046.88, 9063.95, -54398.85, -9034.19, 36654.16, 3877.71, -17117.88, 0.00, 0.00, 0.00, 0.00, 0.00, 0.00, 0.00
119, 1451.34, 64289.83, 3452.85, 28241.90, -19871.64, -3063.78, 9040.99, -54418.76, -9034.19, 36654.16, 3877.71, -17117.88, 0.00, 0.00, 0.00, 0.00, 0.10, 0.38, 0.94
120, 1451.34, 64289.83, 3452.85, 28241.90, -19871.64, -3063.78, 9040.99, -54418.76, -9038.13, 36618.32, 3840.92, -17108.92, 0.00, 0.00, 0.00, 0.00, 0.00, 0.00, 0.00
121, 1463.08, 64310.59, 3466.76, 28257.61, -19862.41, -3051.62, 9060.79, -54402.29, -9038.13, 36618.32, 3840.92, -17108.92, 0.00, 0.00, 0.00, 0.00, 0.00, 0.00, 0.00
122, 1463.08, 64310.59, 3466.76, 28257.61, -19862.41, -3051.62, 9060.79, -54402.29, -9030.89, 36657.15, 3882.43, -17129.28, 0.00, 0.00, 0.00, 0.00, 0.00, 0.00, 0.00
123, 1456.01, 64297.36, 3455.29, 28242.61, -19866.77, -3062.95, 9044.16, -54415.14, -9030.89, 36657.15, 3882.43, -17129.28, 0.00, 0.00, 0.00, 0.00, 0.00, 0.00, 0.00
124, 1456.01, 64297.36, 3455.29, 28242.61, -19866.77, -3062.95, 9044.16, -54415.14, -9035.11, 36618.21, 3845.53, -17090.34, 0.00, 0.00, 0.00, 0.00, 0.00, 0.00, 0.00
125, 1454.18, 64307.00, 3462.42, 28250.01, -19861.78, -3056.67, 9056.05, -54405.26, -9035.11, 36618.21, 3845.53, -17090.34, 0.00, 0.00, 0.00, 0.00, 0.00, 0.00, 0.00
126, 1454.18, 64307.00, 3462.42, 28250.01, -19861.78, -3056.67, 9056.05, -54405.26, -9022.57, 36667.54, 3888.56, -17117.32, 0.00, 0.00, 0.00, 0.00, 0.00, 0.00, 0.00
127, 1455.03, 64302.55, 3459.02, 28245.94, -19863.88, -3059.01, 9050.40, -54409.46, -9022.57, 36667.54, 3888.56, -17117.32, 0.00, 0.00, 0.00, 0.00, 0.00, 0.00, 0.00
128, 1455.03, 64302.55, 3459.02, 28245.94, -19863.88, -3059.01, 9050.40, -54409.46, -9036.47, 36616.96, 3842.58, -17104.00, 0.00, 0.00, 0.00, 0.00, 0.00, 0.00, 0.00
129, 1449.29, 64296.85, 3453.59, 28242.01, -19873.38, -3064.96, 9045.77, -54418.05, -9036.47, 36616.96, 3842.58, -17104.00, 0.00, 0.00, 0.00, 0.00, 0.10, 0.38, 0.94
130, 1449.29, 64296.85, 3453.59, 28242.01, -19873.38, -3064.96, 9045.77, -54418.05, -9027.56, 36656.93, 3883.28, -17122.44, 0.00, 0.00, 0.00, 0.00, 0.00, 0.00, 0.00
131, 1460.60, 64307.42, 3463.98, 28249.63, -19863.14, -3057.65, 9051.76, -54409.71, -9027.56, 36656.93, 3883.28, -17122.44, 0.00, 0.00, 0.00, 0.00, 0.00, 0.00, 0.00
132, 1460.60, 64307.42, 3463.98, 28249.63, -19863.14, -3057.65, 9051.76, -54409.71, -9039.78, 36615.55, 3843.67, -17089.70, 0.00, 0.00, 0.00, 0.00, 0.00, 0.00, 0.00
133, 1450.02, 64299.02, 3456.07, 28242.05, -19873.38, -3066.32, 9044.86, -54416.30, -9039.78, 36615.55, 3843.67, -17089.70, 0.00, 0.00, 0.00, 0.00, 0.00, 0.00, 0.00
134, 1450.02, 64299.02, 3456.07, 28242.05, -19873.38, -3066.32, 9044.86, -54416.30, -9021.83, 36660.57, 3886.32, -17120.50, 0.00, 0.00, 0.00, 0.00, 0.00, 0.00, 0.00
135, 1469.22, 64316.52, 3472.86, 28260.47, -19853.71, -3052.31, 9061.20, -54398.18, -9021.83, 36660.57, 3886.32, -17120.50, 0.00, 0.00, 0.00, 0.00, 0.00, 0.00, 0.00
136, 1469.22, 64316.52, 3472.86, 28260.47, -19853.71, -3052.31, 9061.20, -54398.18, -9028.50, 36624.11, 3851.88, -17101.54, 0.00, 0.00, 0.00, 0.00, 0.00, 0.00, 0.00
137, 1453.53, 64295.30, 3451.58, 28237.03, -19873.45, -3068.47, 9041.48, -54418.11, -9028.50, 36624.11, 3851.88, -17101.54, 0.00, 0.00, 0.00, 0.00, 0.00, 0.00, 0.00
138, 1453.53, 64295.30, 3451.58, 28237.03, -19873.45, -3068.47, 9041.48, -54418.11, -9029.50, 36656.26, 3877.42, -17122.64, 0.00, 0.00, 0.00, 0.00, 0.10, 0.39, 0.94
139, 1462.50, 64314.71, 3469.91, 28256.61, -19856.51, -3052.64, 9061.15, -54403.43, -9029.50, 36656.26, 3877.42, -17122.64, 0.00, 0.00, 0.00, 0.00, 0.00, 0.00, 0.00
140, 1462.50, 64314.71, 3469.91, 28256.61, -19856.51, -3052.64, 9061.15, -54403.43, -9039.42, 36616.94, 3849.17, -17095.17, 0.00, 0.00, 0.00, 0.00, 0.00, 0.00, 0.00
141, 1451.75, 64290.72, 3451.24, 28236.06, -19875.66, -3072.76, 9036.59, -54424.11, -9039.42, 36616.94, 3849.17, -17095.17, 0.00, 0.00, 0.00, 0.00, 0.00, 0.00, 0.00
142, 1451.75, 64290.72, 3451.24, 28236.06, -19875.66, -3072.76, 9036.59, -54424.11, -9026.75, 36650.80, 3879.48, -17120.45, 0.00, 0.00, 0.00, 0.00, 0.00, 0.00, 0.00
143, 1465.67, 64321.32, 3474.49, 28261.03, -19851.43, -3050.34, 9065.29, -54396.79, -9026.75, 36650.80, 3879.48, -17120.45, 0.00, 0.00, 0.00, 0.00, 0.00, 0.00, 0.00
144, 1465.67, 64321.32, 3474.49, 28261.03, -19851.43, -3050.34, 9065.29, -54396.79, -9031.96, 36627.91, 3859.27, -17111.71, 0.00, 0.00, 0.00, 0.00, 0.00, 0.00, 0.00
145, 1446.85, 64293.34, 3448.29, 28228.02, -19874.37, -3074.62, 9037.44, -54422.63, -9031.96, 36627.91, 3859.27, -17111.71, 0.00, 0.00, 0.00, 0.00, 0.00, 0.00, 0.00
146, 1446.85, 64293.34, 3448.29, 28228.02, -19874.37, -3074.62, 9037.44, -54422.63, -9025.48, 36651.09, 3870.47, -17098.59, 0.00, 0.00, 0.00, 0.00, 0.00, 0.00, 0.00
147, 1465.98, 64317.21, 3471.27, 28258.59, -19855.10, -3051.46, 9068.86, -54396.59, -9025.48, 36651.09, 3870.47, -17098.59, 0.00, 0.00, 0.00, 0.00, 0.00, 0.00, 0.00
148, 1465.98, 64317.21, 3471.27, 28258.59, -19855.10, -3051.46, 9068.86, -54396.59, -9034.89, 36632.43, 3862.16, -17103.46, 0.00, 0.00, 0.00, 0.00, 0.10, 0.38, 0.94
149, 1443.65, 64289.23, 3449.50, 28228.26, -19875.75, -3078.42, 9035.80, -54427.48, -9034.89, 36632.43, 3862.16, -17103.46, 0.00, 0.00, 0.00, 0.00, 0.00, 0.00, 0.00
150, 1443.65, 64289.23, 3449.50, 28228.26, -19875.75, -3078.42, 9035.80, -54427.48, -9033.10, 36641.91, 3866.94, -17115.51, 0.00, 0.00, 0.00, 0.00, 0.00, 0.00, 0.00
151, 1461.04, 64317.37, 3474.65, 28260.27, -19851.50, -3050.97, 9071.14, -54397.91, -9033.10, 36641.91, 3866.94, -17115.51, 0.00, 0.00, 0.00, 0.00, 0.00, 0.00, 0.00
152, 1461.04, 64317.37, 3474.65, 28260.27, -19851.50, -3050.97, 9071.14, -54397.91, -9033.88, 36643.31, 3862.87, -17105.01, 0.00, 0.00, 0.00, 0.00, 0.00, 0.00, 0.00
153, 1441.80, 64281.07, 3441.30, 28226.18, -19879.10, -3079.02, 9035.20, -54429.29, -9033.88, 36643.31, 3862.87, -17105.01, 0.00, 0.00, 0.00, 0.00, 0.00, 0.00, 0.00
154, 1441.80, 64281.07, 3441.30, 28226.18, -19879.10, -3079.02, 9035.20, -54429.29, -9034.11, 36635.80, 3857.22, -17095.17, 0.00, 0.00, 0.00, 0.00, 0.00, 0.00, 0.00
155, 1460.46, 64312.40, 3467.65, 28258.24, -19856.60, -3054.19, 9067.75, -54401.71, -9034.11, 36635.80, 3857.22, -17095.17, 0.00, 0.00, 0.00, 0.00, 0.00, 0.00, 0.00
156, 1460.46, 64312.40, 3467.65, 28258.24, -19856.60, -3054.19, 9067.75, -54401.71, -9029.97, 36655.14, 3870.25, -17101.56, 0.00, 0.00, 0.00, 0.00, 0.00, 0.00, 0.00
157, 1443.61, 64291.24, 3449.03, 28229.60, -19871.73, -3072.92, 9044.70, -54419.43, -9029.97, 36655.14, 3870.25, -17101.56, 0.00, 0.00, 0.00, 0.00, 0.00, 0.00, 0.00
158, 1443.61, 64291.24, 3449.03, 28229.60, -19871.73, -3072.92, 9044.70, -54419.43, -9033.17, 36636.09, 3854.80, -17098.17, 0.00, 0.00, 0.00, 0.00, 0.10, 0.38, 0.94
159, 1463.53, 64315.96, 3469.10, 28255.89, -19856.89, -3057.56, 9067.03, -54401.98, -9033.17, 36636.09, 3854.80, -17098.17, 0.00, 0.00, 0.00, 0.00, 0.00, 0.00, 0.00
160, 1463.53, 64315.96, 3469.10, 28255.89, -19856.89, -3057.56, 9067.03, -54401.98, -9035.11, 36650.45, 3874.76, -17116.07, 0.00, 0.00, 0.00, 0.00, 0.00, 0.00, 0.00
161, 1444.10, 64284.80, 3447.13, 28229.38, -19873.96, -3077.32, 9039.89, -54424.04, -9035.11, 36650.45, 3874.76, -17116.07, 0.00, 0.00, 0.00, 0.00, 0.00, 0.00, 0.00
162, 1444.10, 64284.80, 3447.13, 28229.38, -19873.96, -3077.32, 9039.89, -54424.04, -9032.72, 36629.99, 3848.41, -17086.48, 0.00, 0.00, 0.00, 0.00, 0.00, 0.00, 0.00
163, 1453.85, 64306.39, 3465.12, 28251.44, -19857.58, -3058.23, 9068.44, -54401.53, -9032.72, 36629.99, 3848.41, -17086.48, 0.00, 0.00, 0.00, 0.00, 0.00, 0.00, 0.00
164, 1453.85, 64306.39, 3465.12, 28251.44, -19857.58, -3058.23, 9068.44, -54401.53, -9025.01, 36664.97, 3883.57, -17104.22, 0.00, 0.00, 0.00, 0.00, 0.00, 0.00, 0.00
165, 1435.61, 64287.37, 3447.58, 28228.60, -19871.04, -3076.52, 9044.32, -54422.32, -9025.01, 36664.97, 3883.57, -17104.22, 0.00, 0.00, 0.00, 0.00, 0.00, 0.00, 0.00
166, 1435.61, 64287.37, 3447.58, 28228.60, -19871.04, -3076.52, 9044.32, -54422.32, -9031.36, 36627.27, 3847.88, -17099.93, 0.00, 0.00, 0.00, 0.00, 0.00, 0.00, 0.00
167, 1451.34, 64305.56, 3462.22, 28245.68, -19860.55, -3063.11, 9064.46, -54408.61, -9031.36, 36627.27, 3847.88, -17099.93, 0.00, 0.00, 0.00, 0.00, 0.00, 0.00, 0.00
168, 1451.34, 64305.56, 3462.22, 28245.68, -19860.55, -3063.11, 9064.46, -54408.61, -9029.23, 36658.43, 3880.69, -17105.81, 0.00, 0.00, 0.00, 0.00, 0.10, 0.38, 0.94
169, 1436.84, 64285.89, 3447.60, 28230.36, -19873.74, -3077.79, 9042.91, -54424.48, -9029.23, 36658.43, 3880.69, -17105.81, 0.00, 0.00, 0.00, 0.00, 0.00, 0.00, 0.00
170, 1436.84, 64285.89, 3447.60, 28230.36, -19873.74, -3077.79, 9042.91, -54424.48, -9035.36, 36622.21, 3838.06, -17089.00, 0.00, 0.00, 0.00, 0.00, 0.00, 0.00, 0.00
171, 1439.54, 64293.45, 3454.33, 28239.42, -19866.12, -3069.10, 9057.40, -54408.91, -9035.36, 36622.21, 3838.06, -17089.00, 0.00, 0.00, 0.00, 0.00, 0.00, 0.00, 0.00
172, 1439.54, 64293.45, 3454.33, 28239.42, -19866.12, -3069.10, 9057.40, -54408.91, -9027.33, 36663.86, 3875.21, -17118.28, 0.00, 0.00, 0.00, 0.00, 0.00, 0.00, 0.00
173, 1434.83, 64283.82, 3443.91, 28226.77, -19874.52, -3079.06, 9043.49, -54424.44, -9027.33, 36663.86, 3875.21, -17118.28, 0.00, 0.00, 0.00, 0.00, 0.00, 0.00, 0.00
174, 1434.83, 64283.82, 3443.91, 28226.77, -19874.52, -3079.06, 9043.49, -54424.44, -9036.92, 36620.00, 3832.74, -17090.75, 0.00, 0.00, 0.00, 0.00, 0.00, 0.00, 0.00
175, 1436.39, 64287.82, 3450.04, 28234.12, -19871.71, -3074.82, 9050.51, -54419.16, -9036.92, 36620.00, 3832.74, -17090.75, 0.00, 0.00, 0.00, 0.00, 0.00, 0.00, 0.00
176, 1436.39, 64287.82, 3450.04, 28234.12, -19871.71, -3074.82, 9050.51, -54419.16, -9027.76, 36664.17, 3872.98, -17111.06, 0.00, 0.00, 0.00, 0.00, 0.00, 0.00, 0.00
177, 1435.43, 64289.94, 3446.73, 28230.79, -19873.52, -3076.20, 9046.18, -54423.10, -9027.76, 36664.17, 3872.98, -17111.06, 0.00, 0.00, 0.00, 0.00, 0.10, 0.38, 0.94
178, 1435.43, 64289.94, 3446.73, 28230.79, -19873.52, -3076.20, 9046.18, -54423.10, -9043.05, 36613.32, 3829.17, -17091.39, 0.00, 0.00, 0.00, 0.00, 0.00, 0.00, 0.00
179, 1434.80, 64285.98, 3446.77, 28229.18, -19872.87, -3079.04, 9045.06, -54423.88, -9043.05, 36613.32, 3829.17, -17091.39, 0.00, 0.00, 0.00, 0.00, 0.00, 0.00, 0.00
180, 1434.80, 64285.98, 3446.77, 28229.18, -19872.87, -3079.04, 9045.06, -54423.88, -9025.52, 36661.78, 3877.20, -17123.09, 0.00, 0.00, 0.00, 0.00, 0.00, 0.00, 0.00
181, 1445.53, 64296.45, 3455.71, 28241.67, -19863.75, -3069.56, 9054.20, -54416.64, -9025.52, 36661.78, 3877.20, -17123.09, 0.00, 0.00, 0.00, 0.00, 0.00, 0.00, 0.00
182, 1445.53, 64296.45, 3455.71, 28241.67, -19863.75, -3069.56, 9054.20, -54416.64, -9039.69, 36617.23, 3838.80, -17084.35, 0.00, 0.00, 0.00, 0.00, 0.00, 0.00, 0.00
183, 1438.63, 64290.14, 3449.54, 28229.22, -19871.10, -3079.87, 9044.88, -54426.03, -9039.69, 36617.23, 3838.80, -17084.35, 0.00, 0.00, 0.00, 0.00, 0.00, 0.00, 0.00
184, 1438.63, 64290.14, 3449.54, 28229.22, -19871.10, -3079.87, 9044.88, -54426.03, -9028.00, 36658.38, 3879.97, -17112.38, 0.00, 0.00, 0.00, 0.00, 0.00, 0.00, 0.00
185, 1449.47, 64302.66, 3461.23, 28244.91, -19861.80, -3067.53, 9059.85, -54416.24, -9028.00, 36658.38, 3879.97, -17112.38, 0.00, 0.00, 0.00, 0.00, 0.00, 0.00, 0.00
186, 1449.47, 64302.66, 3461.23, 28244.91, -19861.80, -3067.53, 9059.85, -54416.24, -9041.57, 36616.85, 3844.08, -17097.23, 0.00, 0.00, 0.00, 0.00, 0.00, 0.00, 0.00
187, 1438.80, 64289.98, 3446.64, 28226.59, -19878.19, -3082.80, 9040.10, -54431.37, -9041.57, 36616.85, 3844.08, -17097.23, 0.00, 0.00, 0.00, 0.00, 0.10, 0.38, 0.93
188, 1438.80, 64289.98, 3446.64, 28226.59, -19878.19, -3082.80, 9040.10, -54431.37, -9027.94, 36661.60, 3875.79, -17111.96, 0.00, 0.00, 0.00, 0.00, 0.00, 0.00, 0.00
189, 1452.68, 64307.60, 3463.34, 28246.75, -19860.49, -3066.06, 9060.10, -54415.07, -9027.94, 36661.60, 3875.79, -17111.96, 0.00, 0.00, 0.00, 0.00, 0.00, 0.00, 0.00
190, 1452.68, 64307.60, 3463.34, 28246.75, -19860.49, -3066.06, 9060.10, -54415.07, -9040.63, 36622.84, 3846.56, -17085.43, 0.00, 0.00, 0.00, 0.00, 0.00, 0.00, 0.00
191, 1428.01, 64280.29, 3437.94, 28216.04, -19881.83, -3091.29, 9033.64, -54438.70, -9040.63, 36622.84, 3846.56, -17085.43, 0.00, 0.00, 0.00, 0.00, 0.00, 0.00, 0.00
192, 1428.01, 64280.29, 3437.94, 28216.04, -19881.83, -3091.29, 9033.64, -54438.70, -9027.15, 36653.73, 3871.34, -17108.07, 0.00, 0.00, 0.00, 0.00, 0.00, 0.00, 0.00
193, 1449.49, 64309.97, 3464.92, 28248.89, -19854.96, -3062.88, 9066.54, -54408.01, -9027.15, 36653.73, 3871.34, -17108.07, 0.00, 0.00, 0.00, 0.00, 0.00, 0.00, 0.00
194, 1449.49, 64309.97, 3464.92, 28248.89, -19854.96, -3062.88, 9066.54, -54408.01, -9029.95, 36635.02, 3857.96, -17096.65, 0.00, 0.00, 0.00, 0.00, 0.00, 0.00, 0.00
195, 1428.43, 64283.04, 3441.48, 28218.09, -19877.49, -3089.68, 9036.23, -54435.97, -9029.95, 36635.02, 3857.96, -17096.65, 0.00, 0.00, 0.00, 0.00, 0.00, 0.00, 0.00
196, 1428.43, 64283.04, 3441.48, 28218.09, -19877.49, -3089.68, 9036.23, -54435.97, -9027.29, 36647.54, 3865.69, -17093.88, 0.00, 0.00, 0.00, 0.00, 0.00, 0.00, 0.00
197, 1455.19, 64312.34, 3465.50, 28248.51, -19856.80, -3063.93, 9067.90, -54408.70, -9027.29, 36647.54, 3865.69, -17093.88, 0.00, 0.00, 0.00, 0.00, 0.10, 0.38, 0.94
198, 1455.19, 64312.34, 3465.50, 28248.51, -19856.80, -3063.93, 9067.90, -54408.70, -9031.56, 36638.57, 3860.12, -17091.51, 0.00, 0.00, 0.00, 0.00, 0.00, 0.00, 0.00
199, 1434.94, 64282.56, 3440.25, 28218.38, -19878.68, -3089.35, 9035.42, -54434.99, -9031.56, 36638.57, 3860.12, -17091.51, 0.00, 0.00, 0.00, 0.00, 0.00, 0.00, 0.00
200, 1434.94, 64282.56, 3440.25, 28218.38, -19878.68, -3089.35, 9035.42, -54434.99, -9025.50, 36646.51, 3863.88, -17093.43, 0.00, 0.00, 0.00, 0.00, 0.00, 0.00, 0.00
201, 1455.01, 64317.39, 3470.80, 28253.68, -19853.40, -3061.16, 9071.12, -54405.73, -9025.50, 36646.51, 3863.88, -17093.43, 0.00, 0.00, 0.00, 0.00, 0.00, 0.00, 0.00
202, 1455.01, 64317.39, 3470.80, 28253.68, -19853.40, -3061.16, 9071.12, -54405.73, -9026.19, 36652.61, 3872.42, -17106.75, 0.00, 0.00, 0.00, 0.00, 0.00, 0.00, 0.00
203, 1439.01, 64286.95, 3444.76, 28219.75, -19874.77, -3090.15, 9036.18, -54434.99, -9026.19, 36652.61, 3872.42, -17106.75, 0.00, 0.00, 0.00, 0.00, 0.00, 0.00, 0.00
204, 1439.01, 64286.95, 3444.76, 28219.75, -19874.77, -3090.15, 9036.18, -54434.99, -9024.85, 36639.98, 3871.90, -17082.57, 0.00, 0.00, 0.00, 0.00, 0.00, 0.00, 0.00
205, 1469.22, 64326.75, 3475.36, 28254.59, -19850.58, -3061.90, 9071.48, -54407.52, -9024.85, 36639.98, 3871.90, -17082.57, 0.00, 0.00, 0.00, 0.00, 0.00, 0.00, 0.00
206, 1469.22, 64326.75, 3475.36, 28254.59, -19850.58, -3061.90, 9071.48, -54407.52, -9026.37, 36651.68, 3883.35, -17098.75, 0.00, 0.00, 0.00, 0.00, 0.00, 0.00, 0.00
207, 1443.57, 64295.21, 3450.71, 28223.17, -19873.40, -3086.93, 9037.57, -54436.33, -9026.37, 36651.68, 3883.35, -17098.75, 0.00, 0.00, 0.00, 0.00, 0.10, 0.38, 0.94
208, 1443.57, 64295.21, 3450.71, 28223.17, -19873.40, -3086.93, 9037.57, -54436.33, -9029.93, 36633.10, 3865.20, -17096.67, 0.00, 0.00, 0.00, 0.00, 0.00, 0.00, 0.00
209, 1470.74, 64326.57, 3476.05, 28254.19, -19850.85, -3061.56, 9070.07, -54407.72, -9029.93, 36633.10, 3865.20, -17096.67, 0.00, 0.00, 0.00, 0.00, 0.00, 0.00, 0.00
210, 1470.74, 64326.57, 3476.05, 28254.19, -19850.85, -3061.56, 9070.07, -54407.72, -9023.73, 36660.61, 3892.20, -17095.08, 0.00, 0.00, 0.00, 0.00, 0.00, 0.00, 0.00
211, 1456.39, 64307.31, 3457.28, 28225.71, -19866.86, -3084.00, 9044.61, -54429.63, -9023.73, 36660.61, 3892.20, -17095.08, 0.00, 0.00, 0.00, 0.00, 0.00, 0.00, 0.00
212, 1456.39, 64307.31, 3457.28, 28225.71, -19866.86, -3084.00, 9044.61, -54429.63, -9020.38, 36638.80, 3868.51, -17069.74, 0.00, 0.00, 0.00, 0.00, 0.00, 0.00, 0.00
213, 1469.74, 64332.16, 3482.04, 28252.98, -19848.19, -3063.82, 9072.73, -54407.34, -9020.38, 36638.80, 3868.51, -17069.74, 0.00, 0.00, 0.00, 0.00, 0.00, 0.00, 0.00
214, 1469.74, 64332.16, 3482.04, 28252.98, -19848.19, -3063.82, 9072.73, -54407.34, -9020.29, 36662.38, 3893.92, -17110.08, 0.00, 0.00, 0.00, 0.00, 0.00, 0.00, 0.00
215, 1448.57, 64307.75, 3462.08, 28232.76, -19862.54, -3081.61, 9048.21, -54426.38, -9020.29, 36662.38, 3893.92, -17110.08, 0.00, 0.00, 0.00, 0.00, 0.00, 0.00, 0.00
