%OpenBCI Raw EEG Data
%
%Sample Rate = 250.0 Hz
%First Column = SampleIndex
%Other Columns = EEG data in microvolts followed by Accel Data (in G) interleaved with Aux Data
0, 0.00, 0.00, 0.00, 0.00, 0.00, 0.00, 0.00, 0.00, -9817.96, 36038.36, 1749.27, -21138.25, 0.00, 0.00, 0.00, 0.00, 0.10, 0.37, 0.94
1, 1584.63, 63041.98, 3315.21, 28118.40, -20258.21, -2768.11, 9774.44, -52193.38, -9817.96, 36038.36, 1749.27, -21138.25, 0.00, 0.00, 0.00, 0.00, 0.00, 0.00, 0.00
2, 1584.63, 63041.98, 3315.21, 28118.40, -20258.21, -2768.11, 9774.44, -52193.38, -9582.30, 36275.67, 2432.27, -29363.44, 0.00, 0.00, 0.00, 0.00, 0.00, 0.00, 0.00
3, 1589.01, 63039.23, 3314.38, 28114.02, -20259.04, -2771.01, 9763.98, -52196.64, -9582.30, 36275.67, 2432.27, -29363.44, 0.00, 0.00, 0.00, 0.00, 0.00, 0.00, 0.00
4, 1589.01, 63039.23, 3314.38, 28114.02, -20259.04, -2771.01, 9763.98, -52196.64, -9581.75, 36255.33, 2416.18, -29339.35, 0.00, 0.00, 0.00, 0.00, 0.00, 0.00, 0.00
5, 1597.52, 63047.81, 3323.30, 28118.72, -20251.04, -2766.14, 9767.22, -52187.32, -9581.75, 36255.33, 2416.18, -29339.35, 0.00, 0.00, 0.00, 0.00, 0.00, 0.00, 0.00
6, 1597.52, 63047.81, 3323.30, 28118.72, -20251.04, -2766.14, 9767.22, -52187.32, -9571.58, 36284.19, 2447.61, -29366.86, 0.00, 0.00, 0.00, 0.00, 0.11, 0.37, 0.93
7, 1602.40, 63054.76, 3329.11, 28121.06, -20245.94, -2765.11, 9763.29, -52186.11, -9571.58, 36284.19, 2447.61, -29366.86, 0.00, 0.00, 0.00, 0.00, 0.00, 0.00, 0.00
8, 1602.40, 63054.76, 3329.11, 28121.06, -20245.94, -2765.11, 9763.29, -52186.11, -9576.60, 36260.18, 2430.06, -29342.77, 0.00, 0.00, 0.00, 0.00, 0.00, 0.00, 0.00
9, 1603.98, 63060.75, 3333.34, 28119.83, -20248.29, -2765.58, 9757.03, -52184.30, -9576.60, 36260.18, 2430.06, -29342.77, 0.00, 0.00, 0.00, 0.00, 0.00, 0.00, 0.00
10, 1603.98, 63060.75, 3333.34, 28119.83, -20248.29, -2765.58, 9757.03, -52184.30, -9564.36, 36288.84, 2462.76, -29348.29, 0.00, 0.00, 0.00, 0.00, 0.00, 0.00, 0.00
11, 1612.83, 63066.81, 3339.57, 28125.96, -20240.93, -2760.93, 9754.43, -52180.70, -9564.36, 36288.84, 2462.76, -29348.29, 0.00, 0.00, 0.00, 0.00, 0.00, 0.00, 0.00
12, 1612.83, 63066.81, 3339.57, 28125.96, -20240.93, -2760.93, 9754.43, -52180.70, -9572.33, 36256.74, 2435.62, -29307.32, 0.00, 0.00, 0.00, 0.00, 0.00, 0.00, 0.00
13, 1606.17, 63059.41, 3332.58, 28118.34, -20248.42, -2768.55, 9740.64, -52188.93, -9572.33, 36256.74, 2435.62, -29307.32, 0.00, 0.00, 0.00, 0.00, 0.00, 0.00, 0.00
14, 1606.17, 63059.41, 3332.58, 28118.34, -20248.42, -2768.55, 9740.64, -52188.93, -9573.59, 36280.32, 2455.45, -29346.39, 0.00, 0.00, 0.00, 0.00, 0.00, 0.00, 0.00
15, 1615.96, 63066.43, 3342.35, 28128.80, -20241.87, -2761.78, 9743.75, -52181.17, -9573.59, 36280.32, 2455.45, -29346.39, 0.00, 0.00, 0.00, 0.00, 0.00, 0.00, 0.00
16, 1615.96, 63066.43, 3342.35, 28128.80, -20241.87, -2761.78, 9743.75, -52181.17, -9574.28, 36257.14, 2438.55, -29326.00, 0.00, 0.00, 0.00, 0.00, 0.11, 0.37, 0.93
17, 1603.69, 63059.10, 3332.73, 28114.94, -20251.35, -2770.16, 9725.83, -52188.91, -9574.28, 36257.14, 2438.55, -29326.00, 0.00, 0.00, 0.00, 0.00, 0.00, 0.00, 0.00
18, 1603.69, 63059.10, 3332.73, 28114.94, -20251.35, -2770.16, 9725.83, -52188.91, -9578.82, 36273.28, 2453.95, -29328.59, 0.00, 0.00, 0.00, 0.00, 0.00, 0.00, 0.00
19, 1613.39, 63065.98, 3336.60, 28121.31, -20249.23, -2765.58, 9723.92, -52185.33, -9578.82, 36273.28, 2453.95, -29328.59, 0.00, 0.00, 0.00, 0.00, 0.00, 0.00, 0.00
20, 1613.39, 63065.98, 3336.60, 28121.31, -20249.23, -2765.58, 9723.92, -52185.33, -9584.72, 36252.05, 2433.05, -29327.30, 0.00, 0.00, 0.00, 0.00, 0.00, 0.00, 0.00
21, 1607.40, 63049.51, 3327.57, 28111.83, -20254.37, -2772.22, 9708.44, -52192.39, -9584.72, 36252.05, 2433.05, -29327.30, 0.00, 0.00, 0.00, 0.00, 0.00, 0.00, 0.00
22, 1607.40, 63049.51, 3327.57, 28111.83, -20254.37, -2772.22, 9708.44, -52192.39, -9568.09, 36273.32, 2464.01, -29331.28, 0.00, 0.00, 0.00, 0.00, 0.00, 0.00, 0.00
23, 1615.52, 63067.57, 3342.26, 28122.65, -20243.82, -2762.12, 9716.10, -52179.79, -9568.09, 36273.32, 2464.01, -29331.28, 0.00, 0.00, 0.00, 0.00, 0.00, 0.00, 0.00
24, 1615.52, 63067.57, 3342.26, 28122.65, -20243.82, -2762.12, 9716.10, -52179.79, -9574.95, 36259.54, 2447.69, -29291.40, 0.00, 0.00, 0.00, 0.00, 0.00, 0.00, 0.00
25, 1607.09, 63051.52, 3330.41, 28110.45, -20254.86, -2771.86, 9694.26, -52189.29, -9574.95, 36259.54, 2447.69, -29291.40, 0.00, 0.00, 0.00, 0.00, 0.00, 0.00, 0.00
26, 1607.09, 63051.52, 3330.41, 28110.45, -20254.86, -2771.86, 9694.26, -52189.29, -9568.42, 36283.65, 2456.90, -29307.54, 0.00, 0.00, 0.00, 0.00, 0.11, 0.37, 0.93
27, 1615.43, 63066.32, 3344.27, 28128.11, -20236.58, -2754.96, 9709.26, -52168.39, -9568.42, 36283.65, 2456.90, -29307.54, 0.00, 0.00, 0.00, 0.00, 0.00, 0.00, 0.00
28, 1615.43, 63066.32, 3344.27, 28128.11, -20236.58, -2754.96, 9709.26, -52168.39, -9571.60, 36274.87, 2441.64, -29294.35, 0.00, 0.00, 0.00, 0.00, 0.00, 0.00, 0.00
29, 1601.57, 63041.66, 3327.39, 28111.74, -20251.10, -2769.29, 9684.07, -52184.77, -9571.60, 36274.87, 2441.64, -29294.35, 0.00, 0.00, 0.00, 0.00, 0.00, 0.00, 0.00
30, 1601.57, 63041.66, 3327.39, 28111.74, -20251.10, -2769.29, 9684.07, -52184.77, -9575.58, 36270.22, 2446.17, -29315.50, 0.00, 0.00, 0.00, 0.00, 0.00, 0.00, 0.00
31, 1611.16, 63055.77, 3340.02, 28126.07, -20242.28, -2759.86, 9685.82, -52179.95, -9575.58, 36270.22, 2446.17, -29315.50, 0.00, 0.00, 0.00, 0.00, 0.00, 0.00, 0.00
32, 1611.16, 63055.77, 3340.02, 28126.07, -20242.28, -2759.86, 9685.82, -52179.95, -9577.01, 36265.10, 2444.61, -29297.71, 0.00, 0.00, 0.00, 0.00, 0.00, 0.00, 0.00
33, 1604.63, 63046.45, 3333.36, 28116.39, -20247.91, -2769.00, 9666.28, -52188.06, -9577.01, 36265.10, 2444.61, -29297.71, 0.00, 0.00, 0.00, 0.00, 0.00, 0.00, 0.00
34, 1604.63, 63046.45, 3333.36, 28116.39, -20247.91, -2769.00, 9666.28, -52188.06, -9574.19, 36275.11, 2447.14, -29305.08, 0.00, 0.00, 0.00, 0.00, 0.00, 0.00, 0.00
35, 1624.44, 63063.57, 3346.30, 28136.33, -20239.73, -2754.83, 9675.18, -52176.03, -9574.19, 36275.11, 2447.14, -29305.08, 0.00, 0.00, 0.00, 0.00, 0.00, 0.00, 0.00
36, 1624.44, 63063.57, 3346.30, 28136.33, -20239.73, -2754.83, 9675.18, -52176.03, -9581.08, 36275.02, 2449.97, -29285.59, 0.00, 0.00, 0.00, 0.00, 0.10, 0.38, 0.93
37, 1615.18, 63046.36, 3339.13, 28123.05, -20247.97, -2764.60, 9653.65, -52188.73, -9581.08, 36275.02, 2449.97, -29285.59, 0.00, 0.00, 0.00, 0.00, 0.00, 0.00, 0.00
38, 1615.18, 63046.36, 3339.13, 28123.05, -20247.97, -2764.60, 9653.65, -52188.73, -9578.17, 36263.45, 2442.29, -29288.70, 0.00, 0.00, 0.00, 0.00, 0.00, 0.00, 0.00
39, 1619.63, 63060.84, 3350.06, 28137.25, -20235.90, -2755.50, 9660.36, -52174.56, -9578.17, 36263.45, 2442.29, -29288.70, 0.00, 0.00, 0.00, 0.00, 0.00, 0.00, 0.00
40, 1619.63, 63060.84, 3350.06, 28137.25, -20235.90, -2755.50, 9660.36, -52174.56, -9579.33, 36275.96, 2450.42, -29280.43, 0.00, 0.00, 0.00, 0.00, 0.00, 0.00, 0.00
41, 1607.05, 63037.44, 3331.95, 28120.21, -20250.10, -2767.44, 9637.71, -52190.76, -9579.33, 36275.96, 2450.42, -29280.43, 0.00, 0.00, 0.00, 0.00, 0.00, 0.00, 0.00
42, 1607.05, 63037.44, 3331.95, 28120.21, -20250.10, -2767.44, 9637.71, -52190.76, -9582.39, 36257.75, 2432.23, -29268.16, 0.00, 0.00, 0.00, 0.00, 0.00, 0.00, 0.00
43, 1618.69, 63057.78, 3347.06, 28133.71, -20236.24, -2756.75, 9646.16, -52173.75, -9582.39, 36257.75, 2432.23, -29268.16, 0.00, 0.00, 0.00, 0.00, 0.00, 0.00, 0.00
44, 1618.69, 63057.78, 3347.06, 28133.71, -20236.24, -2756.75, 9646.16, -52173.75, -9570.01, 36282.63, 2460.37, -29277.41, 0.00, 0.00, 0.00, 0.00, 0.00, 0.00, 0.00
45, 1613.17, 63052.55, 3340.49, 28122.85, -20243.26, -2765.40, 9628.06, -52183.16, -9570.01, 36282.63, 2460.37, -29277.41, 0.00, 0.00, 0.00, 0.00, 0.00, 0.00, 0.00
46, 1613.17, 63052.55, 3340.49, 28122.85, -20243.26, -2765.40, 9628.06, -52183.16, -9579.09, 36256.32, 2435.02, -29265.03, 0.00, 0.00, 0.00, 0.00, 0.11, 0.38, 0.93
47, 1614.60, 63065.13, 3346.61, 28129.56, -20241.49, -2762.21, 9629.65, -52178.29, -9579.09, 36256.32, 2435.02, -29265.03, 0.00, 0.00, 0.00, 0.00, 0.00, 0.00, 0.00
48, 1614.60, 63065.13, 3346.61, 28129.56, -20241.49, -2762.21, 9629.65, -52178.29, -9573.50, 36279.38, 2464.93, -29273.25, 0.00, 0.00, 0.00, 0.00, 0.00, 0.00, 0.00
49, 1619.20, 63055.77, 3340.58, 28120.10, -20242.41, -2766.56, 9615.63, -52182.56, -9573.50, 36279.38, 2464.93, -29273.25, 0.00, 0.00, 0.00, 0.00, 0.00, 0.00, 0.00
50, 1619.20, 63055.77, 3340.58, 28120.10, -20242.41, -2766.56, 9615.63, -52182.56, -9577.70, 36257.10, 2440.70, -29236.91, 0.00, 0.00, 0.00, 0.00, 0.00, 0.00, 0.00
51, 1617.51, 63058.47, 3342.52, 28121.85, -20242.92, -2765.67, 9613.82, -52178.83, -9577.70, 36257.10, 2440.70, -29236.91, 0.00, 0.00, 0.00, 0.00, 0.00, 0.00, 0.00
52, 1617.51, 63058.47, 3342.52, 28121.85, -20242.92, -2765.67, 9613.82, -52178.83, -9572.85, 36279.76, 2471.52, -29277.72, 0.00, 0.00, 0.00, 0.00, 0.00, 0.00, 0.00
53, 1620.37, 63064.06, 3349.32, 28125.06, -20232.66, -2762.03, 9612.46, -52176.41, -9572.85, 36279.76, 2471.52, -29277.72, 0.00, 0.00, 0.00, 0.00, 0.00, 0.00, 0.00
54, 1620.37, 63064.06, 3349.32, 28125.06, -20232.66, -2762.03, 9612.46, -52176.41, -9569.45, 36266.06, 2451.87, -29226.40, 0.00, 0.00, 0.00, 0.00, 0.00, 0.00, 0.00
55, 1620.50, 63068.98, 3352.20, 28130.85, -20229.65, -2759.19, 9613.84, -52169.48, -9569.45, 36266.06, 2451.87, -29226.40, 0.00, 0.00, 0.00, 0.00, 0.10, 0.38, 0.94
56, 1620.50, 63068.98, 3352.20, 28130.85, -20229.65, -2759.19, 9613.84, -52169.48, -9568.87, 36291.61, 2473.47, -29254.79, 0.00, 0.00, 0.00, 0.00, 0.00, 0.00, 0.00
57, 1621.37, 63064.68, 3351.29, 28130.05, -20230.03, -2760.44, 9606.71, -52173.17, -9568.87, 36291.61, 2473.47, -29254.79, 0.00, 0.00, 0.00, 0.00, 0.00, 0.00, 0.00
58, 1621.37, 63064.68, 3351.29, 28130.05, -20230.03, -2760.44, 9606.71, -52173.17, -9574.26, 36263.60, 2443.47, -29237.22, 0.00, 0.00, 0.00, 0.00, 0.00, 0.00, 0.00
59, 1617.95, 63060.17, 3347.58, 28127.99, -20231.72, -2761.07, 9601.44, -52172.61, -9574.26, 36263.60, 2443.47, -29237.22, 0.00, 0.00, 0.00, 0.00, 0.00, 0.00, 0.00
60, 1617.95, 63060.17, 3347.58, 28127.99, -20231.72, -2761.07, 9601.44, -52172.61, -9566.50, 36288.23, 2465.22, -29246.85, 0.00, 0.00, 0.00, 0.00, 0.00, 0.00, 0.00
61, 1611.87, 63056.23, 3345.85, 28129.18, -20231.12, -2759.77, 9598.96, -52171.54, -9566.50, 36288.23, 2465.22, -29246.85, 0.00, 0.00, 0.00, 0.00, 0.00, 0.00, 0.00
62, 1611.87, 63056.23, 3345.85, 28129.18, -20231.12, -2759.77, 9598.96, -52171.54, -9578.19, 36261.21, 2430.10, -29230.96, 0.00, 0.00, 0.00, 0.00, 0.00, 0.00, 0.00
63, 1604.94, 63040.95, 3333.72, 28121.33, -20241.72, -2768.17, 9585.12, -52181.44, -9578.19, 36261.21, 2430.10, -29230.96, 0.00, 0.00, 0.00, 0.00, 0.00, 0.00, 0.00
64, 1604.94, 63040.95, 3333.72, 28121.33, -20241.72, -2768.17, 9585.12, -52181.44, -9577.21, 36281.55, 2452.08, -29233.31, 0.00, 0.00, 0.00, 0.00, 0.00, 0.00, 0.00
65, 1613.04, 63049.02, 3337.58, 28126.38, -20237.98, -2763.86, 9585.63, -52177.26, -9577.21, 36281.55, 2452.08, -29233.31, 0.00, 0.00, 0.00, 0.00, 0.11, 0.38, 0.95
66, 1613.04, 63049.02, 3337.58, 28126.38, -20237.98, -2763.86, 9585.63, -52177.26, -9586.28, 36255.64, 2421.36, -29227.21, 0.00, 0.00, 0.00, 0.00, 0.00, 0.00, 0.00
67, 1598.17, 63036.12, 3325.16, 28113.20, -20247.89, -2773.20, 9570.55, -52186.43, -9586.28, 36255.64, 2421.36, -29227.21, 0.00, 0.00, 0.00, 0.00, 0.00, 0.00, 0.00
68, 1598.17, 63036.12, 3325.16, 28113.20, -20247.89, -2773.20, 9570.55, -52186.43, -9576.54, 36287.09, 2441.97, -29241.20, 0.00, 0.00, 0.00, 0.00, 0.00, 0.00, 0.00
69, 1600.32, 63048.05, 3333.27, 28125.18, -20243.44, -2765.04, 9576.65, -52175.81, -9576.54, 36287.09, 2441.97, -29241.20, 0.00, 0.00, 0.00, 0.00, 0.00, 0.00, 0.00
70, 1600.32, 63048.05, 3333.27, 28125.18, -20243.44, -2765.04, 9576.65, -52175.81, -9582.39, 36264.07, 2425.68, -29202.60, 0.00, 0.00, 0.00, 0.00, 0.00, 0.00, 0.00
71, 1598.06, 63041.53, 3327.86, 28116.75, -20246.84, -2772.89, 9564.40, -52180.66, -9582.39, 36264.07, 2425.68, -29202.60, 0.00, 0.00, 0.00, 0.00, 0.00, 0.00, 0.00
72, 1598.06, 63041.53, 3327.86, 28116.75, -20246.84, -2772.89, 9564.40, -52180.66, -9570.41, 36288.17, 2447.83, -29195.45, 0.00, 0.00, 0.00, 0.00, 0.00, 0.00, 0.00
73, 1613.59, 63054.00, 3340.80, 28132.08, -20238.21, -2760.60, 9575.55, -52171.68, -9570.41, 36288.17, 2447.83, -29195.45, 0.00, 0.00, 0.00, 0.00, 0.00, 0.00, 0.00
74, 1613.59, 63054.00, 3340.80, 28132.08, -20238.21, -2760.60, 9575.55, -52171.68, -9575.00, 36267.07, 2438.37, -29218.62, 0.00, 0.00, 0.00, 0.00, 0.00, 0.00, 0.00
75, 1611.36, 63049.69, 3338.37, 28125.49, -20243.79, -2770.05, 9558.16, -52183.66, -9575.00, 36267.07, 2438.37, -29218.62, 0.00, 0.00, 0.00, 0.00, 0.11, 0.39, 0.94
76, 1611.36, 63049.69, 3338.37, 28125.49, -20243.79, -2770.05, 9558.16, -52183.66, -9570.10, 36277.35, 2449.55, -29218.56, 0.00, 0.00, 0.00, 0.00, 0.00, 0.00, 0.00
77, 1627.14, 63072.73, 3354.64, 28144.09, -20229.49, -2754.29, 9575.71, -52164.70, -9570.10, 36277.35, 2449.55, -29218.56, 0.00, 0.00, 0.00, 0.00, 0.00, 0.00, 0.00
78, 1627.14, 63072.73, 3354.64, 28144.09, -20229.49, -2754.29, 9575.71, -52164.70, -9571.91, 36280.16, 2444.65, -29181.25, 0.00, 0.00, 0.00, 0.00, 0.00, 0.00, 0.00
79, 1622.22, 63061.06, 3343.42, 28129.13, -20238.36, -2767.19, 9558.72, -52175.03, -9571.91, 36280.16, 2444.65, -29181.25, 0.00, 0.00, 0.00, 0.00, 0.00, 0.00, 0.00
80, 1622.22, 63061.06, 3343.42, 28129.13, -20238.36, -2767.19, 9558.72, -52175.03, -9568.76, 36279.05, 2447.85, -29201.12, 0.00, 0.00, 0.00, 0.00, 0.00, 0.00, 0.00
81, 1634.20, 63082.45, 3361.26, 28150.01, -20228.84, -2752.13, 9573.77, -52162.69, -9568.76, 36279.05, 2447.85, -29201.12, 0.00, 0.00, 0.00, 0.00, 0.00, 0.00, 0.00
82, 1634.20, 63082.45, 3361.26, 28150.01, -20228.84, -2752.13, 9573.77, -52162.69, -9571.82, 36281.04, 2453.06, -29193.12, 0.00, 0.00, 0.00, 0.00, 0.00, 0.00, 0.00
83, 1619.85, 63066.41, 3350.77, 28136.38, -20234.81, -2763.61, 9552.42, -52175.07, -9571.82, 36281.04, 2453.06, -29193.12, 0.00, 0.00, 0.00, 0.00, 0.00, 0.00, 0.00
84, 1619.85, 63066.41, 3350.77, 28136.38, -20234.81, -2763.61, 9552.42, -52175.07, -9574.08, 36273.26, 2443.67, -29179.38, 0.00, 0.00, 0.00, 0.00, 0.00, 0.00, 0.00
85, 1635.81, 63084.58, 3362.82, 28150.81, -20223.95, -2752.04, 9564.89, -52162.00, -9574.08, 36273.26, 2443.67, -29179.38, 0.00, 0.00, 0.00, 0.00, 0.10, 0.38, 0.95
86, 1635.81, 63084.58, 3362.82, 28150.81, -20223.95, -2752.04, 9564.89, -52162.00, -9572.40, 36283.50, 2450.49, -29189.95, 0.00, 0.00, 0.00, 0.00, 0.00, 0.00, 0.00
87, 1618.51, 63065.45, 3344.49, 28131.84, -20236.20, -2768.22, 9543.03, -52176.79, -9572.40, 36283.50, 2450.49, -29189.95, 0.00, 0.00, 0.00, 0.00, 0.00, 0.00, 0.00
88, 1618.51, 63065.45, 3344.49, 28131.84, -20236.20, -2768.22, 9543.03, -52176.79, -9578.17, 36269.10, 2431.33, -29204.88, 0.00, 0.00, 0.00, 0.00, 0.00, 0.00, 0.00
89, 1622.62, 63073.07, 3351.20, 28143.26, -20228.64, -2759.81, 9552.62, -52166.20, -9578.17, 36269.10, 2431.33, -29204.88, 0.00, 0.00, 0.00, 0.00, 0.00, 0.00, 0.00
90, 1622.62, 63073.07, 3351.20, 28143.26, -20228.64, -2759.81, 9552.62, -52166.20, -9570.10, 36292.32, 2446.29, -29160.67, 0.00, 0.00, 0.00, 0.00, 0.00, 0.00, 0.00
91, 1610.44, 63055.27, 3337.92, 28131.68, -20236.13, -2768.06, 9536.93, -52176.86, -9570.10, 36292.32, 2446.29, -29160.67, 0.00, 0.00, 0.00, 0.00, 0.00, 0.00, 0.00
92, 1610.44, 63055.27, 3337.92, 28131.68, -20236.13, -2768.06, 9536.93, -52176.86, -9581.97, 36261.28, 2418.50, -29157.13, 0.00, 0.00, 0.00, 0.00, 0.00, 0.00, 0.00
93, 1615.23, 63064.46, 3343.53, 28143.28, -20229.02, -2761.13, 9544.19, -52171.32, -9581.97, 36261.28, 2418.50, -29157.13, 0.00, 0.00, 0.00, 0.00, 0.00, 0.00, 0.00
94, 1615.23, 63064.46, 3343.53, 28143.28, -20229.02, -2761.13, 9544.19, -52171.32, -9576.78, 36284.43, 2435.11, -29196.94, 0.00, 0.00, 0.00, 0.00, 0.10, 0.38, 0.94
95, 1608.19, 63048.23, 3334.86, 28134.54, -20233.87, -2768.26, 9528.93, -52178.11, -9576.78, 36284.43, 2435.11, -29196.94, 0.00, 0.00, 0.00, 0.00, 0.00, 0.00, 0.00
96, 1608.19, 63048.23, 3334.86, 28134.54, -20233.87, -2768.26, 9528.93, -52178.11, -9577.21, 36265.05, 2416.42, -29168.13, 0.00, 0.00, 0.00, 0.00, 0.00, 0.00, 0.00
97, 1612.72, 63057.35, 3343.82, 28143.73, -20228.24, -2761.69, 9535.48, -52167.58, -9577.21, 36265.05, 2416.42, -29168.13, 0.00, 0.00, 0.00, 0.00, 0.00, 0.00, 0.00
98, 1612.72, 63057.35, 3343.82, 28143.73, -20228.24, -2761.69, 9535.48, -52167.58, -9571.75, 36289.87, 2438.40, -29157.76, 0.00, 0.00, 0.00, 0.00, 0.00, 0.00, 0.00
99, 1607.76, 63051.05, 3341.00, 28141.65, -20230.03, -2765.16, 9525.98, -52173.11, -9571.75, 36289.87, 2438.40, -29157.76, 0.00, 0.00, 0.00, 0.00, 0.00, 0.00, 0.00
100, 1607.76, 63051.05, 3341.00, 28141.65, -20230.03, -2765.16, 9525.98, -52173.11, -9575.17, 36259.38, 2418.95, -29147.81, 0.00, 0.00, 0.00, 0.00, 0.00, 0.00, 0.00
101, 1608.79, 63052.68, 3342.23, 28146.21, -20229.87, -2761.63, 9528.06, -52171.00, -9575.17, 36259.38, 2418.95, -29147.81, 0.00, 0.00, 0.00, 0.00, 0.00, 0.00, 0.00
102, 1608.79, 63052.68, 3342.23, 28146.21, -20229.87, -2761.63, 9528.06, -52171.00, -9574.53, 36286.49, 2432.92, -29178.26, 0.00, 0.00, 0.00, 0.00, 0.00, 0.00, 0.00
103, 1608.52, 63047.50, 3338.41, 28146.25, -20231.72, -2763.59, 9518.11, -52174.60, -9574.53, 36286.49, 2432.92, -29178.26, 0.00, 0.00, 0.00, 0.00, 0.00, 0.00, 0.00
104, 1608.52, 63047.50, 3338.41, 28146.25, -20231.72, -2763.59, 9518.11, -52174.60, -9576.22, 36256.38, 2410.95, -29138.69, 0.00, 0.00, 0.00, 0.00, 0.10, 0.38, 0.94
105, 1606.00, 63044.68, 3338.77, 28146.08, -20232.69, -2766.56, 9515.14, -52175.00, -9576.22, 36256.38, 2410.95, -29138.69, 0.00, 0.00, 0.00, 0.00, 0.00, 0.00, 0.00
106, 1606.00, 63044.68, 3338.77, 28146.08, -20232.69, -2766.56, 9515.14, -52175.00, -9574.39, 36286.22, 2431.76, -29151.93, 0.00, 0.00, 0.00, 0.00, 0.00, 0.00, 0.00
107, 1608.99, 63050.63, 3340.27, 28149.54, -20231.70, -2762.21, 9515.03, -52173.35, -9574.39, 36286.22, 2431.76, -29151.93, 0.00, 0.00, 0.00, 0.00, 0.00, 0.00, 0.00
108, 1608.99, 63050.63, 3340.27, 28149.54, -20231.70, -2762.21, 9515.03, -52173.35, -9580.20, 36258.02, 2407.69, -29137.96, 0.00, 0.00, 0.00, 0.00, 0.00, 0.00, 0.00
109, 1612.48, 63052.66, 3340.83, 28146.28, -20234.25, -2764.37, 9508.97, -52177.39, -9580.20, 36258.02, 2407.69, -29137.96, 0.00, 0.00, 0.00, 0.00, 0.00, 0.00, 0.00
110, 1612.48, 63052.66, 3340.83, 28146.28, -20234.25, -2764.37, 9508.97, -52177.39, -9572.33, 36287.32, 2431.85, -29160.31, 0.00, 0.00, 0.00, 0.00, 0.00, 0.00, 0.00
111, 1613.39, 63057.58, 3343.62, 28153.14, -20228.26, -2759.39, 9508.43, -52173.57, -9572.33, 36287.32, 2431.85, -29160.31, 0.00, 0.00, 0.00, 0.00, 0.00, 0.00, 0.00
112, 1613.39, 63057.58, 3343.62, 28153.14, -20228.26, -2759.39, 9508.43, -52173.57, -9580.32, 36254.42, 2405.81, -29125.73, 0.00, 0.00, 0.00, 0.00, 0.00, 0.00, 0.00
113, 1607.05, 63051.16, 3337.41, 28141.36, -20231.57, -2769.00, 9498.51, -52178.96, -9580.32, 36254.42, 2405.81, -29125.73, 0.00, 0.00, 0.00, 0.00, 0.00, 0.00, 0.00
114, 1607.05, 63051.16, 3337.41, 28141.36, -20231.57, -2769.00, 9498.51, -52178.96, -9573.16, 36285.80, 2425.59, -29134.31, 0.00, 0.00, 0.00, 0.00, 0.10, 0.38, 0.94
115, 1611.63, 63055.97, 3341.59, 28146.37, -20226.27, -2764.35, 9503.51, -52171.29, -9573.16, 36285.80, 2425.59, -29134.31, 0.00, 0.00, 0.00, 0.00, 0.00, 0.00, 0.00
116, 1611.63, 63055.97, 3341.59, 28146.37, -20226.27, -2764.35, 9503.51, -52171.29, -9571.58, 36268.12, 2409.00, -29127.25, 0.00, 0.00, 0.00, 0.00, 0.00, 0.00, 0.00
117, 1604.92, 63050.74, 3337.63, 28136.22, -20231.84, -2771.88, 9493.63, -52175.38, -9571.58, 36268.12, 2409.00, -29127.25, 0.00, 0.00, 0.00, 0.00, 0.00, 0.00, 0.00
118, 1604.92, 63050.74, 3337.63, 28136.22, -20231.84, -2771.88, 9493.63, -52175.38, -9565.52, 36287.59, 2427.87, -29111.83, 0.00, 0.00, 0.00, 0.00, 0.00, 0.00, 0.00
119, 1612.57, 63067.81, 3348.92, 28148.62, -20219.70, -2762.12, 9499.25, -52169.48, -9565.52, 36287.59, 2427.87, -29111.83, 0.00, 0.00, 0.00, 0.00, 0.00, 0.00, 0.00
120, 1612.57, 63067.81, 3348.92, 28148.62, -20219.70, -2762.12, 9499.25, -52169.48, -9576.22, 36265.88, 2416.16, -29112.92, 0.00, 0.00, 0.00, 0.00, 0.00, 0.00, 0.00
121, 1604.90, 63052.23, 3335.39, 28134.59, -20232.46, -2773.40, 9480.38, -52183.10, -9576.22, 36265.88, 2416.16, -29112.92, 0.00, 0.00, 0.00, 0.00, 0.00, 0.00, 0.00
122, 1604.90, 63052.23, 3335.39, 28134.59, -20232.46, -2773.40, 9480.38, -52183.10, -9574.46, 36279.70, 2415.69, -29127.72, 0.00, 0.00, 0.00, 0.00, 0.00, 0.00, 0.00
123, 1609.24, 63060.44, 3341.27, 28148.00, -20225.85, -2761.67, 9492.09, -52170.89, -9574.46, 36279.70, 2415.69, -29127.72, 0.00, 0.00, 0.00, 0.00, 0.00, 0.00, 0.00
124, 1609.24, 63060.44, 3341.27, 28148.00, -20225.85, -2761.67, 9492.09, -52170.89, -9577.88, 36270.96, 2407.01, -29108.56, 0.00, 0.00, 0.00, 0.00, 0.09, 0.38, 0.94
125, 1592.34, 63038.18, 3321.51, 28123.93, -20241.52, -2778.84, 9468.24, -52187.05, -9577.88, 36270.96, 2407.01, -29108.56, 0.00, 0.00, 0.00, 0.00, 0.00, 0.00, 0.00
126, 1592.34, 63038.18, 3321.51, 28123.93, -20241.52, -2778.84, 9468.24, -52187.05, -9572.54, 36280.75, 2407.57, -29093.43, 0.00, 0.00, 0.00, 0.00, 0.00, 0.00, 0.00
127, 1601.93, 63055.18, 3335.68, 28140.35, -20228.19, -2765.63, 9484.20, -52170.09, -9572.54, 36280.75, 2407.57, -29093.43, 0.00, 0.00, 0.00, 0.00, 0.00, 0.00, 0.00
128, 1601.93, 63055.18, 3335.68, 28140.35, -20228.19, -2765.63, 9484.20, -52170.09, -9575.15, 36273.44, 2408.31, -29104.00, 0.00, 0.00, 0.00, 0.00, 0.00, 0.00, 0.00
129, 1591.15, 63040.63, 3324.46, 28126.90, -20236.91, -2777.65, 9466.43, -52183.86, -9575.15, 36273.44, 2408.31, -29104.00, 0.00, 0.00, 0.00, 0.00, 0.00, 0.00, 0.00
130, 1591.15, 63040.63, 3324.46, 28126.90, -20236.91, -2777.65, 9466.43, -52183.86, -9573.68, 36273.37, 2407.06, -29123.29, 0.00, 0.00, 0.00, 0.00, 0.00, 0.00, 0.00
131, 1606.89, 63058.72, 3338.75, 28141.61, -20224.44, -2766.07, 9482.66, -52170.16, -9573.68, 36273.37, 2407.06, -29123.29, 0.00, 0.00, 0.00, 0.00, 0.00, 0.00, 0.00
132, 1606.89, 63058.72, 3338.75, 28141.61, -20224.44, -2766.07, 9482.66, -52170.16, -9569.56, 36282.00, 2420.81, -29068.26, 0.00, 0.00, 0.00, 0.00, 0.00, 0.00, 0.00
133, 1592.32, 63046.31, 3328.11, 28123.93, -20233.02, -2779.06, 9464.04, -52180.59, -9569.56, 36282.00, 2420.81, -29068.26, 0.00, 0.00, 0.00, 0.00, 0.09, 0.38, 0.93
134, 1592.32, 63046.31, 3328.11, 28123.93, -20233.02, -2779.06, 9464.04, -52180.59, -9563.86, 36279.05, 2414.48, -29073.23, 0.00, 0.00, 0.00, 0.00, 0.00, 0.00, 0.00
135, 1613.84, 63070.14, 3348.05, 28148.80, -20216.08, -2760.53, 9485.19, -52162.06, -9563.86, 36279.05, 2414.48, -29073.23, 0.00, 0.00, 0.00, 0.00, 0.00, 0.00, 0.00
136, 1613.84, 63070.14, 3348.05, 28148.80, -20216.08, -2760.53, 9485.19, -52162.06, -9554.14, 36299.84, 2439.31, -29097.43, 0.00, 0.00, 0.00, 0.00, 0.00, 0.00, 0.00
137, 1604.79, 63061.40, 3339.89, 28133.40, -20221.04, -2769.07, 9472.24, -52169.30, -9554.14, 36299.84, 2439.31, -29097.43, 0.00, 0.00, 0.00, 0.00, 0.00, 0.00, 0.00
138, 1604.79, 63061.40, 3339.89, 28133.40, -20221.04, -2769.07, 9472.24, -52169.30, -9564.67, 36276.59, 2417.30, -29053.24, 0.00, 0.00, 0.00, 0.00, 0.00, 0.00, 0.00
139, 1604.43, 63059.84, 3339.62, 28137.00, -20222.34, -2771.08, 9473.36, -52168.86, -9564.67, 36276.59, 2417.30, -29053.24, 0.00, 0.00, 0.00, 0.00, 0.00, 0.00, 0.00
140, 1604.43, 63059.84, 3339.62, 28137.00, -20222.34, -2771.08, 9473.36, -52168.86, -9567.11, 36290.85, 2425.88, -29080.27, 0.00, 0.00, 0.00, 0.00, 0.00, 0.00, 0.00
141, 1595.67, 63049.78, 3331.17, 28127.68, -20229.83, -2777.67, 9459.39, -52175.92, -9567.11, 36290.85, 2425.88, -29080.27, 0.00, 0.00, 0.00, 0.00, 0.00, 0.00, 0.00
142, 1595.67, 63049.78, 3331.17, 28127.68, -20229.83, -2777.67, 9459.39, -52175.92, -9572.31, 36270.64, 2403.33, -29074.48, 0.00, 0.00, 0.00, 0.00, 0.00, 0.00, 0.00
143, 1598.31, 63055.01, 3334.72, 28135.37, -20228.53, -2770.57, 9467.71, -52170.04, -9572.31, 36270.64, 2403.33, -29074.48, 0.00, 0.00, 0.00, 0.00, 0.10, 0.38, 0.94
144, 1598.31, 63055.01, 3334.72, 28135.37, -20228.53, -2770.57, 9467.71, -52170.04, -9574.32, 36289.31, 2415.96, -29084.18, 0.00, 0.00, 0.00, 0.00, 0.00, 0.00, 0.00
145, 1595.58, 63040.28, 3324.93, 28125.40, -20233.87, -2778.79, 9453.29, -52182.07, -9574.32, 36289.31, 2415.96, -29084.18, 0.00, 0.00, 0.00, 0.00, 0.00, 0.00, 0.00
146, 1595.58, 63040.28, 3324.93, 28125.40, -20233.87, -2778.79, 9453.29, -52182.07, -9576.83, 36261.46, 2399.15, -29050.27, 0.00, 0.00, 0.00, 0.00, 0.00, 0.00, 0.00
147, 1602.11, 63052.66, 3335.89, 28138.30, -20217.62, -2772.53, 9462.19, -52176.82, -9576.83, 36261.46, 2399.15, -29050.27, 0.00, 0.00, 0.00, 0.00, 0.00, 0.00, 0.00
148, 1602.11, 63052.66, 3335.89, 28138.30, -20217.62, -2772.53, 9462.19, -52176.82, -9569.00, 36286.74, 2421.63, -29075.33, 0.00, 0.00, 0.00, 0.00, 0.00, 0.00, 0.00
149, 1600.14, 63050.94, 3332.26, 28131.66, -20200.59, -2778.34, 9452.40, -52184.23, -9569.00, 36286.74, 2421.63, -29075.33, 0.00, 0.00, 0.00, 0.00, 0.00, 0.00, 0.00
150, 1600.14, 63050.94, 3332.26, 28131.66, -20200.59, -2778.34, 9452.40, -52184.23, -9575.96, 36262.89, 2396.91, -29069.09, 0.00, 0.00, 0.00, 0.00, 0.00, 0.00, 0.00
151, 1602.35, 63053.53, 3335.01, 28138.23, -20200.30, -2772.69, 9458.54, -52181.33, -9575.96, 36262.89, 2396.91, -29069.09, 0.00, 0.00, 0.00, 0.00, 0.00, 0.00, 0.00
152, 1602.35, 63053.53, 3335.01, 28138.23, -20200.30, -2772.69, 9458.54, -52181.33, -9573.34, 36287.23, 2419.84, -29065.11, 0.00, 0.00, 0.00, 0.00, 0.00, 0.00, 0.00
153, 1605.95, 63051.41, 3334.43, 28136.38, -20198.98, -2774.70, 9453.74, -52182.16, -9573.34, 36287.23, 2419.84, -29065.11, 0.00, 0.00, 0.00, 0.00, 0.10, 0.39, 0.94
154, 1605.95, 63051.41, 3334.43, 28136.38, -20198.98, -2774.70, 9453.74, -52182.16, -9577.48, 36257.86, 2398.59, -29036.79, 0.00, 0.00, 0.00, 0.00, 0.00, 0.00, 0.00
155, 1609.26, 63060.82, 3340.60, 28140.29, -20195.98, -2772.94, 9457.02, -52179.27, -9577.48, 36257.86, 2398.59, -29036.79, 0.00, 0.00, 0.00, 0.00, 0.00, 0.00, 0.00
156, 1609.26, 63060.82, 3340.60, 28140.29, -20195.98, -2772.94, 9457.02, -52179.27, -9567.37, 36293.53, 2431.69, -29055.75, 0.00, 0.00, 0.00, 0.00, 0.00, 0.00, 0.00
157, 1610.64, 63065.09, 3343.53, 28140.13, -20192.95, -2772.89, 9459.41, -52177.51, -9567.37, 36293.53, 2431.69, -29055.75, 0.00, 0.00, 0.00, 0.00, 0.00, 0.00, 0.00
158, 1610.64, 63065.09, 3343.53, 28140.13, -20192.95, -2772.89, 9459.41, -52177.51, -9579.55, 36254.66, 2402.28, -29064.96, 0.00, 0.00, 0.00, 0.00, 0.00, 0.00, 0.00
159, 1603.07, 63053.24, 3333.49, 28132.64, -20204.34, -2780.80, 9451.30, -52186.29, -9579.55, 36254.66, 2402.28, -29064.96, 0.00, 0.00, 0.00, 0.00, 0.00, 0.00, 0.00
160, 1603.07, 63053.24, 3333.49, 28132.64, -20204.34, -2780.80, 9451.30, -52186.29, -9568.51, 36288.46, 2426.46, -29071.91, 0.00, 0.00, 0.00, 0.00, 0.00, 0.00, 0.00
161, 1611.85, 63065.42, 3342.12, 28140.11, -20195.61, -2773.92, 9458.65, -52176.82, -9568.51, 36288.46, 2426.46, -29071.91, 0.00, 0.00, 0.00, 0.00, 0.00, 0.00, 0.00
162, 1611.85, 63065.42, 3342.12, 28140.11, -20195.61, -2773.92, 9458.65, -52176.82, -9573.34, 36263.02, 2406.95, -29022.96, 0.00, 0.00, 0.00, 0.00, 0.00, 0.00, 0.00
163, 1603.76, 63055.10, 3334.54, 28130.43, -20203.56, -2779.66, 9451.57, -52182.45, -9573.34, 36263.02, 2406.95, -29022.96, 0.00, 0.00, 0.00, 0.00, 0.10, 0.39, 0.94
164, 1603.76, 63055.10, 3334.54, 28130.43, -20203.56, -2779.66, 9451.57, -52182.45, -9562.66, 36294.98, 2431.24, -29048.10, 0.00, 0.00, 0.00, 0.00, 0.00, 0.00, 0.00
165, 1609.79, 63068.48, 3346.37, 28138.45, -20191.98, -2773.34, 9463.84, -52173.98, -9562.66, 36294.98, 2431.24, -29048.10, 0.00, 0.00, 0.00, 0.00, 0.00, 0.00, 0.00
166, 1609.79, 63068.48, 3346.37, 28138.45, -20191.98, -2773.34, 9463.84, -52173.98, -9573.48, 36271.07, 2412.62, -29037.78, 0.00, 0.00, 0.00, 0.00, 0.00, 0.00, 0.00
167, 1594.28, 63051.68, 3329.18, 28123.59, -20209.17, -2786.64, 9446.29, -52194.23, -9573.48, 36271.07, 2412.62, -29037.78, 0.00, 0.00, 0.00, 0.00, 0.00, 0.00, 0.00
168, 1594.28, 63051.68, 3329.18, 28123.59, -20209.17, -2786.64, 9446.29, -52194.23, -9570.75, 36281.69, 2425.61, -29044.19, 0.00, 0.00, 0.00, 0.00, 0.00, 0.00, 0.00
169, 1612.25, 63067.28, 3344.38, 28139.06, -20192.54, -2772.24, 9467.26, -52175.18, -9570.75, 36281.69, 2425.61, -29044.19, 0.00, 0.00, 0.00, 0.00, 0.00, 0.00, 0.00
170, 1612.25, 63067.28, 3344.38, 28139.06, -20192.54, -2772.24, 9467.26, -52175.18, -9565.85, 36275.11, 2418.53, -29024.59, 0.00, 0.00, 0.00, 0.00, 0.00, 0.00, 0.00
171, 1599.07, 63050.43, 3332.15, 28124.42, -20202.13, -2784.54, 9451.23, -52186.80, -9565.85, 36275.11, 2418.53, -29024.59, 0.00, 0.00, 0.00, 0.00, 0.00, 0.00, 0.00
172, 1599.07, 63050.43, 3332.15, 28124.42, -20202.13, -2784.54, 9451.23, -52186.80, -9559.73, 36291.66, 2427.89, -29030.82, 0.00, 0.00, 0.00, 0.00, 0.10, 0.39, 0.94
173, 1606.26, 63066.65, 3346.35, 28140.58, -20188.10, -2769.81, 9472.07, -52170.67, -9559.73, 36291.66, 2427.89, -29030.82, 0.00, 0.00, 0.00, 0.00, 0.00, 0.00, 0.00
174, 1606.26, 63066.65, 3346.35, 28140.58, -20188.10, -2769.81, 9472.07, -52170.67, -9557.74, 36289.98, 2427.24, -29012.36, 0.00, 0.00, 0.00, 0.00, 0.00, 0.00, 0.00
175, 1598.55, 63052.21, 3333.54, 28122.90, -20200.70, -2782.90, 9456.64, -52184.46, -9557.74, 36289.98, 2427.24, -29012.36, 0.00, 0.00, 0.00, 0.00, 0.00, 0.00, 0.00
176, 1598.55, 63052.21, 3333.54, 28122.90, -20200.70, -2782.90, 9456.64, -52184.46, -9558.86, 36290.58, 2427.40, -29015.54, 0.00, 0.00, 0.00, 0.00, 0.00, 0.00, 0.00
177, 1618.31, 63076.96, 3351.91, 28142.75, -20183.42, -2767.30, 9476.83, -52165.91, -9558.86, 36290.58, 2427.40, -29015.54, 0.00, 0.00, 0.00, 0.00, 0.00, 0.00, 0.00
178, 1618.31, 63076.96, 3351.91, 28142.75, -20183.42, -2767.30, 9476.83, -52165.91, -9554.74, 36294.38, 2432.85, -29022.96, 0.00, 0.00, 0.00, 0.00, 0.00, 0.00, 0.00
179, 1602.02, 63056.64, 3335.91, 28123.37, -20200.99, -2784.04, 9456.15, -52184.93, -9554.74, 36294.38, 2432.85, -29022.96, 0.00, 0.00, 0.00, 0.00, 0.00, 0.00, 0.00
180, 1602.02, 63056.64, 3335.91, 28123.37, -20200.99, -2784.04, 9456.15, -52184.93, -9565.58, 36279.20, 2423.04, -29014.04, 0.00, 0.00, 0.00, 0.00, 0.00, 0.00, 0.00
181, 1615.94, 63073.09, 3348.22, 28136.31, -20194.62, -2774.16, 9470.46, -52179.34, -9565.58, 36279.20, 2423.04, -29014.04, 0.00, 0.00, 0.00, 0.00, 0.00, 0.00, 0.00
182, 1615.94, 63073.09, 3348.22, 28136.31, -20194.62, -2774.16, 9470.46, -52179.34, -9562.21, 36286.78, 2437.97, -29022.58, 0.00, 0.00, 0.00, 0.00, 0.10, 0.38, 0.94
183, 1607.90, 63063.23, 3341.14, 28124.21, -20196.39, -2783.95, 9459.46, -52187.12, -9562.21, 36286.78, 2437.97, -29022.58, 0.00, 0.00, 0.00, 0.00, 0.00, 0.00, 0.00
184, 1607.90, 63063.23, 3341.14, 28124.21, -20196.39, -2783.95, 9459.46, -52187.12, -9562.75, 36274.85, 2422.71, -29015.92, 0.00, 0.00, 0.00, 0.00, 0.00, 0.00, 0.00
185, 1621.44, 63075.08, 3349.54, 28136.51, -20191.20, -2774.99, 9472.11, -52177.82, -9562.75, 36274.85, 2422.71, -29015.92, 0.00, 0.00, 0.00, 0.00, 0.00, 0.00, 0.00
186, 1621.44, 63075.08, 3349.54, 28136.51, -20191.20, -2774.99, 9472.11, -52177.82, -9562.43, 36289.20, 2436.88, -29019.00, 0.00, 0.00, 0.00, 0.00, 0.00, 0.00, 0.00
187, 1610.33, 63060.06, 3339.37, 28127.43, -20200.95, -2783.19, 9458.32, -52191.37, -9562.43, 36289.20, 2436.88, -29019.00, 0.00, 0.00, 0.00, 0.00, 0.00, 0.00, 0.00
188, 1610.33, 63060.06, 3339.37, 28127.43, -20200.95, -2783.19, 9458.32, -52191.37, -9568.25, 36271.56, 2419.44, -28994.12, 0.00, 0.00, 0.00, 0.00, 0.00, 0.00, 0.00
189, 1622.87, 63076.44, 3350.44, 28138.16, -20192.95, -2775.46, 9472.45, -52179.43, -9568.25, 36271.56, 2419.44, -28994.12, 0.00, 0.00, 0.00, 0.00, 0.00, 0.00, 0.00
190, 1622.87, 63076.44, 3350.44, 28138.16, -20192.95, -2775.46, 9472.45, -52179.43, -9568.02, 36288.26, 2432.54, -29034.45, 0.00, 0.00, 0.00, 0.00, 0.00, 0.00, 0.00
191, 1607.18, 63066.07, 3341.03, 28125.06, -20198.94, -2784.60, 9461.14, -52189.22, -9568.02, 36288.26, 2432.54, -29034.45, 0.00, 0.00, 0.00, 0.00, 0.00, 0.00, 0.00
192, 1607.18, 63066.07, 3341.03, 28125.06, -20198.94, -2784.60, 9461.14, -52189.22, -9564.98, 36271.31, 2420.67, -28999.64, 0.00, 0.00, 0.00, 0.00, 0.10, 0.38, 0.94
193, 1613.28, 63064.46, 3343.71, 28129.36, -20197.33, -2781.25, 9468.89, -52186.16, -9564.98, 36271.31, 2420.67, -28999.64, 0.00, 0.00, 0.00, 0.00, 0.00, 0.00, 0.00
194, 1613.28, 63064.46, 3343.71, 28129.36, -20197.33, -2781.25, 9468.89, -52186.16, -9569.12, 36286.71, 2437.82, -28997.14, 0.00, 0.00, 0.00, 0.00, 0.00, 0.00, 0.00
195, 1611.76, 63061.22, 3342.35, 28126.09, -20198.55, -2784.07, 9461.49, -52191.05, -9569.12, 36286.71, 2437.82, -28997.14, 0.00, 0.00, 0.00, 0.00, 0.00, 0.00, 0.00
196, 1611.76, 63061.22, 3342.35, 28126.09, -20198.55, -2784.07, 9461.49, -52191.05, -9568.13, 36268.41, 2418.68, -29001.99, 0.00, 0.00, 0.00, 0.00, 0.00, 0.00, 0.00
197, 1610.93, 63070.34, 3345.94, 28129.24, -20198.18, -2782.26, 9466.99, -52186.36, -9568.13, 36268.41, 2418.68, -29001.99, 0.00, 0.00, 0.00, 0.00, 0.00, 0.00, 0.00
198, 1610.93, 63070.34, 3345.94, 28129.24, -20198.18, -2782.26, 9466.99, -52186.36, -9560.62, 36295.14, 2444.05, -29029.08, 0.00, 0.00, 0.00, 0.00, 0.00, 0.00, 0.00
199, 1614.94, 63072.08, 3347.67, 28132.93, -20196.66, -2780.24, 9466.70, -52188.48, -9560.62, 36295.14, 2444.05, -29029.08, 0.00, 0.00, 0.00, 0.00, 0.00, 0.00, 0.00
200, 1614.94, 63072.08, 3347.67, 28132.93, -20196.66, -2780.24, 9466.70, -52188.48, -9572.07, 36262.98, 2415.64, -28992.49, 0.00, 0.00, 0.00, 0.00, 0.00, 0.00, 0.00
201, 1610.71, 63070.61, 3345.47, 28130.52, -20196.21, -2782.41, 9469.83, -52189.49, -9572.07, 36262.98, 2415.64, -28992.49, 0.00, 0.00, 0.00, 0.00, 0.00, 0.00, 0.00
202, 1610.71, 63070.61, 3345.47, 28130.52, -20196.21, -2782.41, 9469.83, -52189.49, -9559.73, 36298.54, 2444.41, -28983.75, 0.00, 0.00, 0.00, 0.00, 0.11, 0.38, 0.94
203, 1610.80, 63070.34, 3346.99, 28128.37, -20194.00, -2781.03, 9470.41, -52186.43, -9559.73, 36298.54, 2444.41, -28983.75, 0.00, 0.00, 0.00, 0.00, 0.00, 0.00, 0.00
204, 1610.80, 63070.34, 3346.99, 28128.37, -20194.00, -2781.03, 9470.41, -52186.43, -9565.83, 36270.60, 2420.36, -28989.34, 0.00, 0.00, 0.00, 0.00, 0.00, 0.00, 0.00
205, 1606.80, 63065.85, 3343.51, 28126.21, -20196.86, -2785.03, 9468.98, -52188.48, -9565.83, 36270.60, 2420.36, -28989.34, 0.00, 0.00, 0.00, 0.00, 0.00, 0.00, 0.00
206, 1606.80, 63065.85, 3343.51, 28126.21, -20196.86, -2785.03, 9468.98, -52188.48, -9554.50, 36300.62, 2448.50, -28998.19, 0.00, 0.00, 0.00, 0.00, 0.00, 0.00, 0.00
207, 1612.99, 63071.05, 3345.47, 28127.28, -20192.05, -2781.88, 9473.79, -52184.53, -9554.50, 36300.62, 2448.50, -28998.19, 0.00, 0.00, 0.00, 0.00, 0.00, 0.00, 0.00
208, 1612.99, 63071.05, 3345.47, 28127.28, -20192.05, -2781.88, 9473.79, -52184.53, -9563.93, 36271.67, 2425.45, -28964.78, 0.00, 0.00, 0.00, 0.00, 0.00, 0.00, 0.00
209, 1604.03, 63065.78, 3341.45, 28119.50, -20198.42, -2788.76, 9467.51, -52188.84, -9563.93, 36271.67, 2425.45, -28964.78, 0.00, 0.00, 0.00, 0.00, 0.00, 0.00, 0.00
210, 1604.03, 63065.78, 3341.45, 28119.50, -20198.42, -2788.76, 9467.51, -52188.84, -9556.04, 36298.61, 2438.20, -28983.64, 0.00, 0.00, 0.00, 0.00, 0.00, 0.00, 0.00
211, 1601.99, 63071.79, 3343.84, 28124.53, -20197.79, -2785.97, 9469.56, -52187.90, -9556.04, 36298.61, 2438.20, -28983.64, 0.00, 0.00, 0.00, 0.00, 0.10, 0.38, 0.94
212, 1601.99, 63071.79, 3343.84, 28124.53, -20197.79, -2785.97, 9469.56, -52187.90, -9570.39, 36269.30, 2419.17, -28976.20, 0.00, 0.00, 0.00, 0.00, 0.00, 0.00, 0.00
213, 1599.83, 63054.13, 3332.85, 28114.72, -20208.46, -2794.88, 9458.72, -52199.77, -9570.39, 36269.30, 2419.17, -28976.20, 0.00, 0.00, 0.00, 0.00, 0.00, 0.00, 0.00
214, 1599.83, 63054.13, 3332.85, 28114.72, -20208.46, -2794.88, 9458.72, -52199.77, -9561.94, 36288.46, 2433.21, -28966.41, 0.00, 0.00, 0.00, 0.00, 0.00, 0.00, 0.00
215, 1620.21, 63079.88, 3359.56, 28139.93, -20183.47, -2774.14, 9485.77, -52177.98, -9561.94, 36288.46, 2433.21, -28966.41, 0.00, 0.00, 0.00, 0.00, 0.00, 0.00, 0.00
216, 1620.21, 63079.88, 3359.56, 28139.93, -20183.47, -2774.14, 9485.77, -52177.98, -9554.30, 36287.52, 2458.18, -28956.44, 0.00, 0.00, 0.00, 0.00, 0.00, 0.00, 0.00
217, 1613.71, 63065.73, 3347.98, 28123.46, -20200.28, -2789.25, 9463.35, -52197.00, -9554.30, 36287.52, 2458.18, -28956.44, 0.00, 0.00, 0.00, 0.00, 0.00, 0.00, 0.00
218, 1613.71, 63065.73, 3347.98, 28123.46, -20200.28, -2789.25, 9463.35, -52197.00, -9575.40, 36277.10, 2401.65, -28986.17, 0.00, 0.00, 0.00, 0.00, 0.00, 0.00, 0.00
219, 1604.65, 63065.71, 3333.34, 28101.57, -20219.61, -2801.97, 9454.30, -52204.64, -9575.40, 36277.10, 2401.65, -28986.17, 0.00, 0.00, 0.00, 0.00, 0.00, 0.00, 0.00
220, 1604.65, 63065.71, 3333.34, 28101.57, -20219.61, -2801.97, 9454.30, -52204.64, -9572.33, 36270.49, 2431.89, -28954.78, 0.00, 0.00, 0.00, 0.00, 0.00, 0.00, 0.00
221, 1623.21, 63067.50, 3343.26, 28103.88, -20218.90, -2804.34, 9447.39, -52212.42, -9572.33, 36270.49, 2431.89, -28954.78, 0.00, 0.00, 0.00, 0.00, 0.11, 0.38, 0.94
222, 1623.21, 63067.50, 3343.26, 28103.88, -20218.90, -2804.34, 9447.39, -52212.42, -9570.86, 36280.21, 2447.38, -28955.14, 0.00, 0.00, 0.00, 0.00, 0.00, 0.00, 0.00
223, 1641.36, 63093.34, 3367.85, 28123.23, -20200.41, -2787.28, 9469.16, -52193.31, -9570.86, 36280.21, 2447.38, -28955.14, 0.00, 0.00, 0.00, 0.00, 0.00, 0.00, 0.00
224, 1641.36, 63093.34, 3367.85, 28123.23, -20200.41, -2787.28, 9469.16, -52193.31, -9567.15, 36279.07, 2453.84, -28957.60, 0.00, 0.00, 0.00, 0.00, 0.00, 0.00, 0.00
225, 1624.37, 63074.79, 3351.82, 28095.11, -20211.88, -2804.14, 9450.27, -52207.08, -9567.15, 36279.07, 2453.84, -28957.60, 0.00, 0.00, 0.00, 0.00, 0.00, 0.00, 0.00
226, 1624.37, 63074.79, 3351.82, 28095.11, -20211.88, -2804.14, 9450.27, -52207.08, -9560.09, 36280.48, 2448.95, -28970.12, 0.00, 0.00, 0.00, 0.00, 0.00, 0.00, 0.00
227, 1632.01, 63090.93, 3364.00, 28111.34, -20199.74, -2791.64, 9467.80, -52191.68, -9560.09, 36280.48, 2448.95, -28970.12, 0.00, 0.00, 0.00, 0.00, 0.00, 0.00, 0.00
228, 1632.01, 63090.93, 3364.00, 28111.34, -20199.74, -2791.64, 9467.80, -52191.68, -9561.81, 36280.84, 2456.59, -28931.76, 0.00, 0.00, 0.00, 0.00, 0.00, 0.00, 0.00
229, 1624.14, 63078.77, 3354.82, 28104.08, -20209.71, -2799.27, 9451.84, -52206.83, -9561.81, 36280.84, 2456.59, -28931.76, 0.00, 0.00, 0.00, 0.00, 0.00, 0.00, 0.00
230, 1624.14, 63078.77, 3354.82, 28104.08, -20209.71, -2799.27, 9451.84, -52206.83, -9571.08, 36269.50, 2444.32, -28945.35, 0.00, 0.00, 0.00, 0.00, 0.00, 0.00, 0.00
231, 1636.59, 63090.05, 3366.11, 28125.09, -20201.17, -2788.02, 9466.48, -52195.46, -9571.08, 36269.50, 2444.32, -28945.35, 0.00, 0.00, 0.00, 0.00, 0.11, 0.38, 0.94
232, 1636.59, 63090.05, 3366.11, 28125.09, -20201.17, -2788.02, 9466.48, -52195.46, -9569.38, 36282.51, 2457.64, -28961.71, 0.00, 0.00, 0.00, 0.00, 0.00, 0.00, 0.00
233, 1625.55, 63074.72, 3358.35, 28109.60, -20207.54, -2800.25, 9453.27, -52205.43, -9569.38, 36282.51, 2457.64, -28961.71, 0.00, 0.00, 0.00, 0.00, 0.00, 0.00, 0.00
234, 1625.55, 63074.72, 3358.35, 28109.60, -20207.54, -2800.25, 9453.27, -52205.43, -9571.84, 36270.75, 2443.87, -28935.09, 0.00, 0.00, 0.00, 0.00, 0.00, 0.00, 0.00
235, 1628.55, 63087.95, 3365.81, 28123.39, -20200.08, -2790.39, 9464.96, -52195.12, -9571.84, 36270.75, 2443.87, -28935.09, 0.00, 0.00, 0.00, 0.00, 0.00, 0.00, 0.00
236, 1628.55, 63087.95, 3365.81, 28123.39, -20200.08, -2790.39, 9464.96, -52195.12, -9569.54, 36283.99, 2457.31, -28919.40, 0.00, 0.00, 0.00, 0.00, 0.00, 0.00, 0.00
237, 1617.62, 63071.84, 3352.67, 28108.93, -20209.57, -2800.76, 9448.60, -52208.20, -9569.54, 36283.99, 2457.31, -28919.40, 0.00, 0.00, 0.00, 0.00, 0.00, 0.00, 0.00
238, 1617.62, 63071.84, 3352.67, 28108.93, -20209.57, -2800.76, 9448.60, -52208.20, -9572.94, 36263.29, 2439.22, -28936.52, 0.00, 0.00, 0.00, 0.00, 0.00, 0.00, 0.00
239, 1627.01, 63083.86, 3363.24, 28122.92, -20203.21, -2791.04, 9461.56, -52196.26, -9572.94, 36263.29, 2439.22, -28936.52, 0.00, 0.00, 0.00, 0.00, 0.00, 0.00, 0.00
240, 1627.01, 63083.86, 3363.24, 28122.92, -20203.21, -2791.04, 9461.56, -52196.26, -9568.11, 36288.82, 2462.56, -28926.84, 0.00, 0.00, 0.00, 0.00, 0.00, 0.00, 0.00
241, 1620.59, 63076.49, 3359.38, 28116.59, -20202.36, -2797.81, 9451.93, -52201.83, -9568.11, 36288.82, 2462.56, -28926.84, 0.00, 0.00, 0.00, 0.00, 0.10, 0.39, 0.95
242, 1620.59, 63076.49, 3359.38, 28116.59, -20202.36, -2797.81, 9451.93, -52201.83, -9569.85, 36266.62, 2441.75, -28913.99, 0.00, 0.00, 0.00, 0.00, 0.00, 0.00, 0.00
243, 1627.21, 63084.40, 3365.50, 28124.13, -20200.66, -2793.48, 9457.92, -52199.39, -9569.85, 36266.62, 2441.75, -28913.99, 0.00, 0.00, 0.00, 0.00, 0.00, 0.00, 0.00
244, 1627.21, 63084.40, 3365.50, 28124.13, -20200.66, -2793.48, 9457.92, -52199.39, -9566.93, 36291.86, 2462.65, -28938.74, 0.00, 0.00, 0.00, 0.00, 0.00, 0.00, 0.00
245, 1626.94, 63082.88, 3363.94, 28120.42, -20199.00, -2796.85, 9453.67, -52200.89, -9566.93, 36291.86, 2462.65, -28938.74, 0.00, 0.00, 0.00, 0.00, 0.00, 0.00, 0.00
246, 1626.94, 63082.88, 3363.94, 28120.42, -20199.00, -2796.85, 9453.67, -52200.89, -9571.24, 36264.14, 2443.72, -28921.86, 0.00, 0.00, 0.00, 0.00, 0.00, 0.00, 0.00
247, 1626.18, 63082.10, 3363.51, 28122.67, -20199.34, -2797.37, 9453.80, -52201.49, -9571.24, 36264.14, 2443.72, -28921.86, 0.00, 0.00, 0.00, 0.00, 0.00, 0.00, 0.00
248, 1626.18, 63082.10, 3363.51, 28122.67, -20199.34, -2797.37, 9453.80, -52201.49, -9564.83, 36290.36, 2463.59, -28909.12, 0.00, 0.00, 0.00, 0.00, 0.00, 0.00, 0.00
249, 1623.70, 63080.35, 3361.84, 28118.14, -20201.64, -2800.32, 9448.42, -52203.61, -9564.83, 36290.36, 2463.59, -28909.12, 0.00, 0.00, 0.00, 0.00, 0.00, 0.00, 0.00
250, 1623.70, 63080.35, 3361.84, 28118.14, -20201.64, -2800.32, 9448.42, -52203.61, -9573.21, 36262.13, 2441.97, -28903.93, 0.00, 0.00, 0.00, 0.00, 0.10, 0.38, 0.95
251, 1625.08, 63087.26, 3364.99, 28122.54, -20199.23, -2799.42, 9449.38, -52204.20, -9573.21, 36262.13, 2441.97, -28903.93, 0.00, 0.00, 0.00, 0.00, 0.00, 0.00, 0.00
252, 1625.08, 63087.26, 3364.99, 28122.54, -20199.23, -2799.42, 9449.38, -52204.20, -9562.90, 36293.96, 2466.40, -28927.31, 0.00, 0.00, 0.00, 0.00, 0.00, 0.00, 0.00
253, 1628.35, 63087.71, 3367.27, 28123.77, -20193.55, -2796.94, 9453.04, -52198.56, -9562.90, 36293.96, 2466.40, -28927.31, 0.00, 0.00, 0.00, 0.00, 0.00, 0.00, 0.00
254, 1628.35, 63087.71, 3367.27, 28123.77, -20193.55, -2796.94, 9453.04, -52198.56, -9564.38, 36266.49, 2454.29, -28883.35, 0.00, 0.00, 0.00, 0.00, 0.00, 0.00, 0.00
255, 1632.35, 63086.23, 3366.69, 28122.72, -20197.88, -2800.83, 9447.14, -52204.49, -9564.38, 36266.49, 2454.29, -28883.35, 0.00, 0.00, 0.00, 0.00, 0.00, 0.00, 0.00
0, 1632.35, 63086.23, 3366.69, 28122.72, -20197.88, -2800.83, 9447.14, -52204.49, -9561.74, 36292.82, 2470.05, -28902.17, 0.00, 0.00, 0.00, 0.00, 0.00, 0.00, 0.00
1, 1637.56, 63100.38, 3375.54, 28129.54, -20189.55, -2793.52, 9454.77, -52197.51, -9561.74, 36292.82, 2470.05, -28902.17, 0.00, 0.00, 0.00, 0.00, 0.00, 0.00, 0.00
2, 1637.56, 63100.38, 3375.54, 28129.54, -20189.55, -2793.52, 9454.77, -52197.51, -9567.37, 36272.79, 2453.46, -28886.01, 0.00, 0.00, 0.00, 0.00, 0.00, 0.00, 0.00
3, 1629.15, 63086.70, 3365.35, 28122.45, -20202.91, -2800.94, 9442.14, -52208.02, -9567.37, 36272.79, 2453.46, -28886.01, 0.00, 0.00, 0.00, 0.00, 0.00, 0.00, 0.00
4, 1629.15, 63086.70, 3365.35, 28122.45, -20202.91, -2800.94, 9442.14, -52208.02, -9559.42, 36293.89, 2470.02, -28874.29, 0.00, 0.00, 0.00, 0.00, 0.10, 0.38, 0.94
5, 1637.42, 63096.25, 3374.40, 28129.58, -20191.49, -2795.82, 9450.00, -52200.57, -9559.42, 36293.89, 2470.02, -28874.29, 0.00, 0.00, 0.00, 0.00, 0.00, 0.00, 0.00
6, 1637.42, 63096.25, 3374.40, 28129.58, -20191.49, -2795.82, 9450.00, -52200.57, -9567.71, 36269.14, 2455.47, -28880.13, 0.00, 0.00, 0.00, 0.00, 0.00, 0.00, 0.00
7, 1624.86, 63083.08, 3360.58, 28115.77, -20205.60, -2808.32, 9432.66, -52214.77, -9567.71, 36269.14, 2455.47, -28880.13, 0.00, 0.00, 0.00, 0.00, 0.00, 0.00, 0.00
8, 1624.86, 63083.08, 3360.58, 28115.77, -20205.60, -2808.32, 9432.66, -52214.77, -9563.10, 36282.89, 2464.10, -28903.87, 0.00, 0.00, 0.00, 0.00, 0.00, 0.00, 0.00
9, 1635.41, 63096.80, 3371.22, 28128.66, -20196.92, -2799.58, 9442.54, -52204.20, -9563.10, 36282.89, 2464.10, -28903.87, 0.00, 0.00, 0.00, 0.00, 0.00, 0.00, 0.00
10, 1635.41, 63096.80, 3371.22, 28128.66, -20196.92, -2799.58, 9442.54, -52204.20, -9568.71, 36268.43, 2454.89, -28859.68, 0.00, 0.00, 0.00, 0.00, 0.00, 0.00, 0.00
11, 1623.25, 63082.75, 3361.99, 28120.66, -20206.07, -2807.47, 9430.22, -52215.66, -9568.71, 36268.43, 2454.89, -28859.68, 0.00, 0.00, 0.00, 0.00, 0.00, 0.00, 0.00
12, 1623.25, 63082.75, 3361.99, 28120.66, -20206.07, -2807.47, 9430.22, -52215.66, -9562.61, 36284.64, 2463.70, -28876.96, 0.00, 0.00, 0.00, 0.00, 0.00, 0.00, 0.00
13, 1639.77, 63105.75, 3377.77, 28134.07, -20189.28, -2793.90, 9448.22, -52196.84, -9562.61, 36284.64, 2463.70, -28876.96, 0.00, 0.00, 0.00, 0.00, 0.00, 0.00, 0.00
14, 1639.77, 63105.75, 3377.77, 28134.07, -20189.28, -2793.90, 9448.22, -52196.84, -9558.77, 36283.90, 2468.30, -28859.57, 0.00, 0.00, 0.00, 0.00, 0.10, 0.38, 0.94
15, 1631.10, 63096.87, 3371.02, 28122.27, -20195.29, -2802.62, 9435.86, -52205.96, -9558.77, 36283.90, 2468.30, -28859.57, 0.00, 0.00, 0.00, 0.00, 0.00, 0.00, 0.00
16, 1631.10, 63096.87, 3371.02, 28122.27, -20195.29, -2802.62, 9435.86, -52205.96, -9556.69, 36284.50, 2470.87, -28866.94, 0.00, 0.00, 0.00, 0.00, 0.00, 0.00, 0.00
17, 1641.09, 63108.14, 3382.33, 28138.21, -20188.43, -2793.39, 9447.77, -52197.87, -9556.69, 36284.50, 2470.87, -28866.94, 0.00, 0.00, 0.00, 0.00, 0.00, 0.00, 0.00
18, 1641.09, 63108.14, 3382.33, 28138.21, -20188.43, -2793.39, 9447.77, -52197.87, -9564.85, 36278.94, 2468.06, -28854.00, 0.00, 0.00, 0.00, 0.00, 0.00, 0.00, 0.00
19, 1625.02, 63091.51, 3368.88, 28119.30, -20201.71, -2808.50, 9425.80, -52215.17, -9564.85, 36278.94, 2468.06, -28854.00, 0.00, 0.00, 0.00, 0.00, 0.00, 0.00, 0.00
20, 1625.02, 63091.51, 3368.88, 28119.30, -20201.71, -2808.50, 9425.80, -52215.17, -9564.92, 36277.21, 2461.71, -28858.58, 0.00, 0.00, 0.00, 0.00, 0.00, 0.00, 0.00
21, 1637.82, 63103.18, 3378.42, 28135.64, -20191.40, -2796.83, 9442.18, -52202.95, -9564.92, 36277.21, 2461.71, -28858.58, 0.00, 0.00, 0.00, 0.00, 0.00, 0.00, 0.00
22, 1637.82, 63103.18, 3378.42, 28135.64, -20191.40, -2796.83, 9442.18, -52202.95, -9562.32, 36285.46, 2466.63, -28861.80, 0.00, 0.00, 0.00, 0.00, 0.00, 0.00, 0.00
23, 1627.41, 63085.32, 3363.83, 28122.56, -20200.08, -2807.00, 9425.62, -52214.63, -9562.32, 36285.46, 2466.63, -28861.80, 0.00, 0.00, 0.00, 0.00, 0.00, 0.00, 0.00
24, 1627.41, 63085.32, 3363.83, 28122.56, -20200.08, -2807.00, 9425.62, -52214.63, -9565.63, 36271.38, 2448.75, -28853.69, 0.00, 0.00, 0.00, 0.00, 0.10, 0.39, 0.93
25, 1633.91, 63100.67, 3376.48, 28134.88, -20192.28, -2798.68, 9438.16, -52202.34, -9565.63, 36271.38, 2448.75, -28853.69, 0.00, 0.00, 0.00, 0.00, 0.00, 0.00, 0.00
26, 1633.91, 63100.67, 3376.48, 28134.88, -20192.28, -2798.68, 9438.16, -52202.34, -9567.80, 36287.03, 2464.57, -28855.72, 0.00, 0.00, 0.00, 0.00, 0.00, 0.00, 0.00
27, 1618.29, 63083.91, 3361.41, 28117.82, -20206.40, -2811.89, 9417.66, -52221.30, -9567.80, 36287.03, 2464.57, -28855.72, 0.00, 0.00, 0.00, 0.00, 0.00, 0.00, 0.00
28, 1618.29, 63083.91, 3361.41, 28117.82, -20206.40, -2811.89, 9417.66, -52221.30, -9574.19, 36264.72, 2447.63, -28834.98, 0.00, 0.00, 0.00, 0.00, 0.00, 0.00, 0.00
29, 1632.10, 63104.79, 3377.57, 28133.96, -20194.49, -2802.39, 9434.69, -52208.73, -9574.19, 36264.72, 2447.63, -28834.98, 0.00, 0.00, 0.00, 0.00, 0.00, 0.00, 0.00
30, 1632.10, 63104.79, 3377.57, 28133.96, -20194.49, -2802.39, 9434.69, -52208.73, -9562.61, 36287.43, 2471.77, -28850.29, 0.00, 0.00, 0.00, 0.00, 0.00, 0.00, 0.00
31, 1632.62, 63091.71, 3369.12, 28124.06, -20198.20, -2807.69, 9424.81, -52215.04, -9562.61, 36287.43, 2471.77, -28850.29, 0.00, 0.00, 0.00, 0.00, 0.00, 0.00, 0.00
32, 1632.62, 63091.71, 3369.12, 28124.06, -20198.20, -2807.69, 9424.81, -52215.04, -9565.18, 36266.26, 2451.00, -28839.85, 0.00, 0.00, 0.00, 0.00, 0.00, 0.00, 0.00
33, 1632.37, 63098.79, 3374.47, 28133.98, -20192.72, -2801.99, 9433.91, -52206.61, -9565.18, 36266.26, 2451.00, -28839.85, 0.00, 0.00, 0.00, 0.00, 0.10, 0.39, 0.94
34, 1632.37, 63098.79, 3374.47, 28133.98, -20192.72, -2801.99, 9433.91, -52206.61, -9558.79, 36291.54, 2470.96, -28851.29, 0.00, 0.00, 0.00, 0.00, 0.00, 0.00, 0.00
35, 1622.65, 63090.28, 3368.34, 28124.82, -20194.09, -2807.51, 9425.86, -52212.60, -9558.79, 36291.54, 2470.96, -28851.29, 0.00, 0.00, 0.00, 0.00, 0.00, 0.00, 0.00
36, 1622.65, 63090.28, 3368.34, 28124.82, -20194.09, -2807.51, 9425.86, -52212.60, -9559.64, 36271.85, 2450.24, -28807.62, 0.00, 0.00, 0.00, 0.00, 0.00, 0.00, 0.00
37, 1628.95, 63096.60, 3373.08, 28132.82, -20190.24, -2802.66, 9434.85, -52205.43, -9559.64, 36271.85, 2450.24, -28807.62, 0.00, 0.00, 0.00, 0.00, 0.00, 0.00, 0.00
38, 1628.95, 63096.60, 3373.08, 28132.82, -20190.24, -2802.66, 9434.85, -52205.43, -9556.80, 36300.80, 2474.87, -28831.69, 0.00, 0.00, 0.00, 0.00, 0.00, 0.00, 0.00
39, 1635.03, 63096.74, 3374.17, 28131.88, -20189.08, -2803.29, 9433.22, -52206.83, -9556.80, 36300.80, 2474.87, -28831.69, 0.00, 0.00, 0.00, 0.00, 0.00, 0.00, 0.00
40, 1635.03, 63096.74, 3374.17, 28131.88, -20189.08, -2803.29, 9433.22, -52206.83, -9565.29, 36269.14, 2450.51, -28812.72, 0.00, 0.00, 0.00, 0.00, 0.00, 0.00, 0.00
41, 1627.16, 63092.67, 3368.09, 28128.60, -20195.31, -2807.78, 9427.25, -52211.91, -9565.29, 36269.14, 2450.51, -28812.72, 0.00, 0.00, 0.00, 0.00, 0.00, 0.00, 0.00
42, 1627.16, 63092.67, 3368.09, 28128.60, -20195.31, -2807.78, 9427.25, -52211.91, -9561.90, 36292.73, 2468.68, -28821.05, 0.00, 0.00, 0.00, 0.00, 0.00, 0.00, 0.00
43, 1626.89, 63096.13, 3372.79, 28133.47, -20191.07, -2805.12, 9430.78, -52210.30, -9561.90, 36292.73, 2468.68, -28821.05, 0.00, 0.00, 0.00, 0.00, 0.10, 0.39, 0.94
44, 1626.89, 63096.13, 3372.79, 28133.47, -20191.07, -2805.12, 9430.78, -52210.30, -9566.48, 36267.85, 2450.33, -28808.76, 0.00, 0.00, 0.00, 0.00, 0.00, 0.00, 0.00
45, 1626.20, 63087.82, 3364.56, 28129.07, -20199.38, -2810.62, 9424.57, -52216.98, -9566.48, 36267.85, 2450.33, -28808.76, 0.00, 0.00, 0.00, 0.00, 0.00, 0.00, 0.00
46, 1626.20, 63087.82, 3364.56, 28129.07, -20199.38, -2810.62, 9424.57, -52216.98, -9561.72, 36294.11, 2467.05, -28824.99, 0.00, 0.00, 0.00, 0.00, 0.00, 0.00, 0.00
47, 1628.01, 63093.03, 3369.61, 28133.69, -20190.62, -2805.70, 9431.05, -52211.44, -9561.72, 36294.11, 2467.05, -28824.99, 0.00, 0.00, 0.00, 0.00, 0.00, 0.00, 0.00
48, 1628.01, 63093.03, 3369.61, 28133.69, -20190.62, -2805.70, 9431.05, -52211.44, -9564.31, 36268.77, 2447.72, -28806.70, 0.00, 0.00, 0.00, 0.00, 0.00, 0.00, 0.00
49, 1619.63, 63082.41, 3361.72, 28124.95, -20198.87, -2814.22, 9421.42, -52221.27, -9564.31, 36268.77, 2447.72, -28806.70, 0.00, 0.00, 0.00, 0.00, 0.00, 0.00, 0.00
50, 1619.63, 63082.41, 3361.72, 28124.95, -20198.87, -2814.22, 9421.42, -52221.27, -9566.64, 36286.49, 2463.43, -28809.77, 0.00, 0.00, 0.00, 0.00, 0.00, 0.00, 0.00
51, 1620.19, 63091.04, 3367.71, 28132.26, -20193.68, -2808.74, 9429.46, -52214.97, -9566.64, 36286.49, 2463.43, -28809.77, 0.00, 0.00, 0.00, 0.00, 0.00, 0.00, 0.00
52, 1620.19, 63091.04, 3367.71, 28132.26, -20193.68, -2808.74, 9429.46, -52214.97, -9570.17, 36268.01, 2442.82, -28791.86, 0.00, 0.00, 0.00, 0.00, 0.00, 0.00, 0.00
53, 1615.67, 63077.36, 3357.70, 28121.22, -20200.59, -2817.19, 9421.10, -52223.13, -9570.17, 36268.01, 2442.82, -28791.86, 0.00, 0.00, 0.00, 0.00, 0.10, 0.39, 0.94
54, 1615.67, 63077.36, 3357.70, 28121.22, -20200.59, -2817.19, 9421.10, -52223.13, -9560.53, 36291.88, 2464.75, -28797.96, 0.00, 0.00, 0.00, 0.00, 0.00, 0.00, 0.00
55, 1628.35, 63096.51, 3373.82, 28139.71, -20189.97, -2805.14, 9435.01, -52211.62, -9560.53, 36291.88, 2464.75, -28797.96, 0.00, 0.00, 0.00, 0.00, 0.00, 0.00, 0.00
56, 1628.35, 63096.51, 3373.82, 28139.71, -20189.97, -2805.14, 9435.01, -52211.62, -9565.18, 36270.53, 2452.66, -28799.60, 0.00, 0.00, 0.00, 0.00, 0.00, 0.00, 0.00
57, 1621.48, 63088.91, 3368.16, 28128.98, -20194.44, -2813.84, 9427.34, -52219.62, -9565.18, 36270.53, 2452.66, -28799.60, 0.00, 0.00, 0.00, 0.00, 0.00, 0.00, 0.00
58, 1621.48, 63088.91, 3368.16, 28128.98, -20194.44, -2813.84, 9427.34, -52219.62, -9558.34, 36289.20, 2465.46, -28796.98, 0.00, 0.00, 0.00, 0.00, 0.00, 0.00, 0.00
59, 1627.14, 63097.59, 3376.74, 28140.64, -20186.24, -2804.90, 9440.04, -52209.14, -9558.34, 36289.20, 2465.46, -28796.98, 0.00, 0.00, 0.00, 0.00, 0.00, 0.00, 0.00
60, 1627.14, 63097.59, 3376.74, 28140.64, -20186.24, -2804.90, 9440.04, -52209.14, -9564.24, 36278.76, 2458.11, -28784.35, 0.00, 0.00, 0.00, 0.00, 0.00, 0.00, 0.00
61, 1623.59, 63084.09, 3365.79, 28129.29, -20194.60, -2816.05, 9426.89, -52225.45, -9564.24, 36278.76, 2458.11, -28784.35, 0.00, 0.00, 0.00, 0.00, 0.00, 0.00, 0.00
62, 1623.59, 63084.09, 3365.79, 28129.29, -20194.60, -2816.05, 9426.89, -52225.45, -9563.73, 36282.13, 2460.48, -28786.19, 0.00, 0.00, 0.00, 0.00, 0.00, 0.00, 0.00
63, 1632.24, 63099.02, 3376.19, 28142.10, -20187.38, -2805.28, 9440.37, -52211.82, -9563.73, 36282.13, 2460.48, -28786.19, 0.00, 0.00, 0.00, 0.00, 0.10, 0.38, 0.94
64, 1632.24, 63099.02, 3376.19, 28142.10, -20187.38, -2805.28, 9440.37, -52211.82, -9562.75, 36279.81, 2460.70, -28775.01, 0.00, 0.00, 0.00, 0.00, 0.00, 0.00, 0.00
65, 1622.40, 63087.71, 3365.41, 28129.89, -20196.32, -2817.01, 9425.10, -52225.32, -9562.75, 36279.81, 2460.70, -28775.01, 0.00, 0.00, 0.00, 0.00, 0.00, 0.00, 0.00
66, 1622.40, 63087.71, 3365.41, 28129.89, -20196.32, -2817.01, 9425.10, -52225.32, -9568.04, 36280.05, 2452.70, -28794.23, 0.00, 0.00, 0.00, 0.00, 0.00, 0.00, 0.00
67, 1629.29, 63097.81, 3372.79, 28143.06, -20190.71, -2807.76, 9438.34, -52216.58, -9568.04, 36280.05, 2452.70, -28794.23, 0.00, 0.00, 0.00, 0.00, 0.00, 0.00, 0.00
68, 1629.29, 63097.81, 3372.79, 28143.06, -20190.71, -2807.76, 9438.34, -52216.58, -9568.51, 36276.50, 2452.66, -28770.61, 0.00, 0.00, 0.00, 0.00, 0.00, 0.00, 0.00
69, 1621.98, 63081.43, 3361.19, 28126.70, -20198.89, -2819.63, 9425.17, -52230.75, -9568.51, 36276.50, 2452.66, -28770.61, 0.00, 0.00, 0.00, 0.00, 0.00, 0.00, 0.00
70, 1621.98, 63081.43, 3361.19, 28126.70, -20198.89, -2819.63, 9425.17, -52230.75, -9566.32, 36278.91, 2449.30, -28762.07, 0.00, 0.00, 0.00, 0.00, 0.00, 0.00, 0.00
71, 1627.32, 63096.09, 3371.89, 28143.39, -20190.08, -2807.33, 9442.43, -52214.72, -9566.32, 36278.91, 2449.30, -28762.07, 0.00, 0.00, 0.00, 0.00, 0.00, 0.00, 0.00
72, 1627.32, 63096.09, 3371.89, 28143.39, -20190.08, -2807.33, 9442.43, -52214.72, -9564.00, 36293.29, 2453.48, -28783.01, 0.00, 0.00, 0.00, 0.00, 0.10, 0.38, 0.94
73, 1618.42, 63081.32, 3360.38, 28128.31, -20196.23, -2816.41, 9428.35, -52225.09, -9564.00, 36293.29, 2453.48, -28783.01, 0.00, 0.00, 0.00, 0.00, 0.00, 0.00, 0.00
74, 1618.42, 63081.32, 3360.38, 28128.31, -20196.23, -2816.41, 9428.35, -52225.09, -9564.18, 36278.24, 2444.21, -28755.76, 0.00, 0.00, 0.00, 0.00, 0.00, 0.00, 0.00
75, 1628.28, 63095.62, 3372.32, 28146.39, -20186.42, -2804.70, 9445.33, -52214.97, -9564.18, 36278.24, 2444.21, -28755.76, 0.00, 0.00, 0.00, 0.00, 0.00, 0.00, 0.00
76, 1628.28, 63095.62, 3372.32, 28146.39, -20186.42, -2804.70, 9445.33, -52214.97, -9561.05, 36296.04, 2464.64, -28747.54, 0.00, 0.00, 0.00, 0.00, 0.00, 0.00, 0.00
77, 1622.69, 63088.33, 3364.76, 28133.87, -20191.25, -2814.00, 9435.48, -52222.57, -9561.05, 36296.04, 2464.64, -28747.54, 0.00, 0.00, 0.00, 0.00, 0.00, 0.00, 0.00
78, 1622.69, 63088.33, 3364.76, 28133.87, -20191.25, -2814.00, 9435.48, -52222.57, -9568.47, 36275.74, 2444.61, -28748.54, 0.00, 0.00, 0.00, 0.00, 0.00, 0.00, 0.00
79, 1626.60, 63098.59, 3371.45, 28141.87, -20190.40, -2811.09, 9443.23, -52221.63, -9568.47, 36275.74, 2444.61, -28748.54, 0.00, 0.00, 0.00, 0.00, 0.00, 0.00, 0.00
80, 1626.60, 63098.59, 3371.45, 28141.87, -20190.40, -2811.09, 9443.23, -52221.63, -9561.74, 36293.71, 2469.26, -28763.61, 0.00, 0.00, 0.00, 0.00, 0.00, 0.00, 0.00
81, 1620.99, 63093.79, 3368.18, 28132.78, -20191.87, -2818.26, 9433.75, -52227.20, -9561.74, 36293.71, 2469.26, -28763.61, 0.00, 0.00, 0.00, 0.00, 0.00, 0.00, 0.00
82, 1620.99, 63093.79, 3368.18, 28132.78, -20191.87, -2818.26, 9433.75, -52227.20, -9562.79, 36271.23, 2450.65, -28738.71, 0.00, 0.00, 0.00, 0.00, 0.10, 0.38, 0.94
83, 1627.45, 63103.11, 3372.32, 28138.59, -20184.41, -2813.37, 9444.53, -52219.80, -9562.79, 36271.23, 2450.65, -28738.71, 0.00, 0.00, 0.00, 0.00, 0.00, 0.00, 0.00
84, 1627.45, 63103.11, 3372.32, 28138.59, -20184.41, -2813.37, 9444.53, -52219.80, -9554.72, 36299.90, 2476.24, -28750.04, 0.00, 0.00, 0.00, 0.00, 0.00, 0.00, 0.00
85, 1621.62, 63093.88, 3367.96, 28133.51, -20188.54, -2818.33, 9436.68, -52227.06, -9554.72, 36299.90, 2476.24, -28750.04, 0.00, 0.00, 0.00, 0.00, 0.00, 0.00, 0.00
86, 1621.62, 63093.88, 3367.96, 28133.51, -20188.54, -2818.33, 9436.68, -52227.06, -9567.19, 36267.56, 2445.75, -28749.86, 0.00, 0.00, 0.00, 0.00, 0.00, 0.00, 0.00
87, 1617.44, 63090.34, 3364.23, 28132.02, -20192.52, -2819.18, 9438.20, -52228.56, -9567.19, 36267.56, 2445.75, -28749.86, 0.00, 0.00, 0.00, 0.00, 0.00, 0.00, 0.00
88, 1617.44, 63090.34, 3364.23, 28132.02, -20192.52, -2819.18, 9438.20, -52228.56, -9562.10, 36294.16, 2469.91, -28753.30, 0.00, 0.00, 0.00, 0.00, 0.00, 0.00, 0.00
89, 1619.63, 63093.47, 3367.89, 28136.78, -20188.54, -2815.81, 9440.77, -52225.36, -9562.10, 36294.16, 2469.91, -28753.30, 0.00, 0.00, 0.00, 0.00, 0.00, 0.00, 0.00
90, 1619.63, 63093.47, 3367.89, 28136.78, -20188.54, -2815.81, 9440.77, -52225.36, -9563.15, 36269.59, 2447.07, -28724.34, 0.00, 0.00, 0.00, 0.00, 0.00, 0.00, 0.00
91, 1617.55, 63088.40, 3362.98, 28134.72, -20191.80, -2819.25, 9439.07, -52230.32, -9563.15, 36269.59, 2447.07, -28724.34, 0.00, 0.00, 0.00, 0.00, 0.00, 0.00, 0.00
92, 1617.55, 63088.40, 3362.98, 28134.72, -20191.80, -2819.25, 9439.07, -52230.32, -9558.77, 36296.48, 2468.53, -28744.23, 0.00, 0.00, 0.00, 0.00, 0.10, 0.38, 0.94
93, 1620.64, 63091.95, 3367.56, 28138.25, -20188.86, -2816.90, 9442.05, -52226.84, -9558.77, 36296.48, 2468.53, -28744.23, 0.00, 0.00, 0.00, 0.00, 0.00, 0.00, 0.00
94, 1620.64, 63091.95, 3367.56, 28138.25, -20188.86, -2816.90, 9442.05, -52226.84, -9565.88, 36269.93, 2437.03, -28734.44, 0.00, 0.00, 0.00, 0.00, 0.00, 0.00, 0.00
95, 1612.03, 63079.86, 3355.44, 28130.45, -20198.11, -2822.11, 9436.21, -52234.39, -9565.88, 36269.93, 2437.03, -28734.44, 0.00, 0.00, 0.00, 0.00, 0.00, 0.00, 0.00
96, 1612.03, 63079.86, 3355.44, 28130.45, -20198.11, -2822.11, 9436.21, -52234.39, -9558.83, 36293.82, 2460.32, -28742.06, 0.00, 0.00, 0.00, 0.00, 0.00, 0.00, 0.00
97, 1616.97, 63087.28, 3363.58, 28137.65, -20193.15, -2816.32, 9445.06, -52230.17, -9558.83, 36293.82, 2460.32, -28742.06, 0.00, 0.00, 0.00, 0.00, 0.00, 0.00, 0.00
98, 1616.97, 63087.28, 3363.58, 28137.65, -20193.15, -2816.32, 9445.06, -52230.17, -9570.70, 36261.84, 2435.83, -28716.11, 0.00, 0.00, 0.00, 0.00, 0.00, 0.00, 0.00
99, 1603.47, 63076.51, 3349.52, 28123.28, -20202.58, -2830.40, 9431.54, -52244.00, -9570.70, 36261.84, 2435.83, -28716.11, 0.00, 0.00, 0.00, 0.00, 0.00, 0.00, 0.00
100, 1603.47, 63076.51, 3349.52, 28123.28, -20202.58, -2830.40, 9431.54, -52244.00, -9566.03, 36284.90, 2454.20, -28728.05, 0.00, 0.00, 0.00, 0.00, 0.00, 0.00, 0.00
101, 1616.99, 63089.90, 3364.07, 28138.50, -20189.75, -2818.80, 9447.68, -52229.63, -9566.03, 36284.90, 2454.20, -28728.05, 0.00, 0.00, 0.00, 0.00, 0.00, 0.00, 0.00
102, 1616.99, 63089.90, 3364.07, 28138.50, -20189.75, -2818.80, 9447.68, -52229.63, -9564.60, 36271.05, 2440.88, -28707.17, 0.00, 0.00, 0.00, 0.00, 0.10, 0.38, 0.94
103, 1605.57, 63078.66, 3357.50, 28129.51, -20194.80, -2824.93, 9441.76, -52235.46, -9564.60, 36271.05, 2440.88, -28707.17, 0.00, 0.00, 0.00, 0.00, 0.00, 0.00, 0.00
104, 1605.57, 63078.66, 3357.50, 28129.51, -20194.80, -2824.93, 9441.76, -52235.46, -9550.59, 36301.58, 2473.24, -28712.02, 0.00, 0.00, 0.00, 0.00, 0.00, 0.00, 0.00
105, 1625.71, 63100.63, 3380.21, 28156.22, -20176.90, -2807.42, 9461.90, -52221.18, -9550.59, 36301.58, 2473.24, -28712.02, 0.00, 0.00, 0.00, 0.00, 0.00, 0.00, 0.00
106, 1625.71, 63100.63, 3380.21, 28156.22, -20176.90, -2807.42, 9461.90, -52221.18, -9565.81, 36277.73, 2456.30, -28712.63, 0.00, 0.00, 0.00, 0.00, 0.00, 0.00, 0.00
107, 1615.83, 63084.71, 3360.65, 28127.97, -20197.26, -2829.06, 9437.55, -52244.43, -9565.81, 36277.73, 2456.30, -28712.63, 0.00, 0.00, 0.00, 0.00, 0.00, 0.00, 0.00
108, 1615.83, 63084.71, 3360.65, 28127.97, -20197.26, -2829.06, 9437.55, -52244.43, -9560.80, 36285.53, 2474.72, -28717.68, 0.00, 0.00, 0.00, 0.00, 0.00, 0.00, 0.00
109, 1630.56, 63106.95, 3379.47, 28136.40, -20186.08, -2820.68, 9454.43, -52232.00, -9560.80, 36285.53, 2474.72, -28717.68, 0.00, 0.00, 0.00, 0.00, 0.00, 0.00, 0.00
110, 1630.56, 63106.95, 3379.47, 28136.40, -20186.08, -2820.68, 9454.43, -52232.00, -9567.49, 36273.50, 2475.52, -28690.88, 0.00, 0.00, 0.00, 0.00, 0.00, 0.00, 0.00
111, 1617.91, 63094.08, 3366.64, 28108.73, -20204.66, -2839.21, 9434.13, -52248.12, -9567.49, 36273.50, 2475.52, -28690.88, 0.00, 0.00, 0.00, 0.00, 0.10, 0.38, 0.94
112, 1617.91, 63094.08, 3366.64, 28108.73, -20204.66, -2839.21, 9434.13, -52248.12, -9566.88, 36277.06, 2472.46, -28720.07, 0.00, 0.00, 0.00, 0.00, 0.00, 0.00, 0.00
113, 1639.48, 63115.25, 3385.57, 28129.45, -20191.16, -2823.67, 9452.42, -52233.41, -9566.88, 36277.06, 2472.46, -28720.07, 0.00, 0.00, 0.00, 0.00, 0.00, 0.00, 0.00
114, 1639.48, 63115.25, 3385.57, 28129.45, -20191.16, -2823.67, 9452.42, -52233.41, -9559.30, 36283.56, 2499.04, -28692.17, 0.00, 0.00, 0.00, 0.00, 0.00, 0.00, 0.00
115, 1638.63, 63107.33, 3385.69, 28122.07, -20188.01, -2825.84, 9448.95, -52238.82, -9559.30, 36283.56, 2499.04, -28692.17, 0.00, 0.00, 0.00, 0.00, 0.00, 0.00, 0.00
116, 1638.63, 63107.33, 3385.69, 28122.07, -20188.01, -2825.84, 9448.95, -52238.82, -9561.76, 36279.90, 2483.19, -28668.26, 0.00, 0.00, 0.00, 0.00, 0.00, 0.00, 0.00
117, 1639.21, 63115.13, 3387.56, 28131.37, -20185.55, -2820.48, 9459.46, -52231.04, -9561.76, 36279.90, 2483.19, -28668.26, 0.00, 0.00, 0.00, 0.00, 0.00, 0.00, 0.00
118, 1639.21, 63115.13, 3387.56, 28131.37, -20185.55, -2820.48, 9459.46, -52231.04, -9562.57, 36288.39, 2493.54, -28703.08, 0.00, 0.00, 0.00, 0.00, 0.00, 0.00, 0.00
119, 1630.02, 63108.45, 3381.71, 28123.32, -20193.55, -2830.36, 9446.52, -52243.45, -9562.57, 36288.39, 2493.54, -28703.08, 0.00, 0.00, 0.00, 0.00, 0.00, 0.00, 0.00
120, 1630.02, 63108.45, 3381.71, 28123.32, -20193.55, -2830.36, 9446.52, -52243.45, -9563.69, 36276.05, 2484.89, -28686.09, 0.00, 0.00, 0.00, 0.00, 0.00, 0.00, 0.00
121, 1641.53, 63119.80, 3389.78, 28139.13, -20186.69, -2820.07, 9460.93, -52234.71, -9563.69, 36276.05, 2484.89, -28686.09, 0.00, 0.00, 0.00, 0.00, 0.10, 0.39, 0.94
122, 1641.53, 63119.80, 3389.78, 28139.13, -20186.69, -2820.07, 9460.93, -52234.71, -9559.80, 36287.32, 2498.59, -28699.39, 0.00, 0.00, 0.00, 0.00, 0.00, 0.00, 0.00
123, 1640.04, 63112.74, 3386.11, 28130.00, -20188.99, -2826.74, 9451.68, -52241.75, -9559.80, 36287.32, 2498.59, -28699.39, 0.00, 0.00, 0.00, 0.00, 0.00, 0.00, 0.00
124, 1640.04, 63112.74, 3386.11, 28130.00, -20188.99, -2826.74, 9451.68, -52241.75, -9560.02, 36279.32, 2482.81, -28650.15, 0.00, 0.00, 0.00, 0.00, 0.00, 0.00, 0.00
125, 1640.71, 63123.49, 3394.65, 28143.44, -20182.98, -2818.85, 9466.57, -52231.44, -9560.02, 36279.32, 2482.81, -28650.15, 0.00, 0.00, 0.00, 0.00, 0.00, 0.00, 0.00
126, 1640.71, 63123.49, 3394.65, 28143.44, -20182.98, -2818.85, 9466.57, -52231.44, -9554.68, 36297.53, 2499.48, -28688.51, 0.00, 0.00, 0.00, 0.00, 0.00, 0.00, 0.00
127, 1633.20, 63107.89, 3385.26, 28133.74, -20188.97, -2827.21, 9454.99, -52242.62, -9554.68, 36297.53, 2499.48, -28688.51, 0.00, 0.00, 0.00, 0.00, 0.00, 0.00, 0.00
128, 1633.20, 63107.89, 3385.26, 28133.74, -20188.97, -2827.21, 9454.99, -52242.62, -9557.14, 36278.40, 2485.18, -28651.02, 0.00, 0.00, 0.00, 0.00, 0.00, 0.00, 0.00
129, 1641.20, 63116.72, 3394.29, 28149.03, -20180.50, -2817.21, 9469.18, -52232.92, -9557.14, 36278.40, 2485.18, -28651.02, 0.00, 0.00, 0.00, 0.00, 0.00, 0.00, 0.00
130, 1641.20, 63116.72, 3394.29, 28149.03, -20180.50, -2817.21, 9469.18, -52232.92, -9555.26, 36300.08, 2504.69, -28668.53, 0.00, 0.00, 0.00, 0.00, 0.00, 0.00, 0.00
131, 1636.33, 63107.71, 3387.72, 28140.51, -20182.55, -2823.16, 9463.33, -52237.48, -9555.26, 36300.08, 2504.69, -28668.53, 0.00, 0.00, 0.00, 0.00, 0.10, 0.38, 0.94
132, 1636.33, 63107.71, 3387.72, 28140.51, -20182.55, -2823.16, 9463.33, -52237.48, -9554.68, 36280.57, 2485.49, -28649.75, 0.00, 0.00, 0.00, 0.00, 0.00, 0.00, 0.00
133, 1636.21, 63113.12, 3390.78, 28146.70, -20181.72, -2820.28, 9468.06, -52233.21, -9554.68, 36280.57, 2485.49, -28649.75, 0.00, 0.00, 0.00, 0.00, 0.00, 0.00, 0.00
134, 1636.21, 63113.12, 3390.78, 28146.70, -20181.72, -2820.28, 9468.06, -52233.21, -9552.96, 36303.12, 2504.42, -28663.27, 0.00, 0.00, 0.00, 0.00, 0.00, 0.00, 0.00
135, 1638.92, 63113.34, 3391.09, 28144.60, -20183.29, -2822.27, 9464.11, -52239.67, -9552.96, 36303.12, 2504.42, -28663.27, 0.00, 0.00, 0.00, 0.00, 0.00, 0.00, 0.00
136, 1638.92, 63113.34, 3391.09, 28144.60, -20183.29, -2822.27, 9464.11, -52239.67, -9561.41, 36271.27, 2479.84, -28646.84, 0.00, 0.00, 0.00, 0.00, 0.00, 0.00, 0.00
137, 1638.70, 63113.01, 3388.43, 28144.13, -20183.33, -2822.40, 9464.67, -52239.22, -9561.41, 36271.27, 2479.84, -28646.84, 0.00, 0.00, 0.00, 0.00, 0.00, 0.00, 0.00
138, 1638.70, 63113.01, 3388.43, 28144.13, -20183.33, -2822.40, 9464.67, -52239.22, -9551.12, 36309.13, 2506.77, -28652.92, 0.00, 0.00, 0.00, 0.00, 0.00, 0.00, 0.00
139, 1638.63, 63116.43, 3391.77, 28144.60, -20182.46, -2822.53, 9467.95, -52236.79, -9551.12, 36309.13, 2506.77, -28652.92, 0.00, 0.00, 0.00, 0.00, 0.00, 0.00, 0.00
140, 1638.63, 63116.43, 3391.77, 28144.60, -20182.46, -2822.53, 9467.95, -52236.79, -9560.09, 36277.02, 2482.38, -28625.70, 0.00, 0.00, 0.00, 0.00, 0.00, 0.00, 0.00
141, 1632.28, 63111.63, 3385.44, 28143.01, -20187.80, -2826.98, 9463.06, -52244.47, -9560.09, 36277.02, 2482.38, -28625.70, 0.00, 0.00, 0.00, 0.00, 0.10, 0.38, 0.94
142, 1632.28, 63111.63, 3385.44, 28143.01, -20187.80, -2826.98, 9463.06, -52244.47, -9554.52, 36299.25, 2502.93, -28653.13, 0.00, 0.00, 0.00, 0.00, 0.00, 0.00, 0.00
143, 1642.03, 63114.95, 3387.92, 28143.57, -20182.95, -2825.13, 9467.95, -52240.52, -9554.52, 36299.25, 2502.93, -28653.13, 0.00, 0.00, 0.00, 0.00, 0.00, 0.00, 0.00
144, 1642.03, 63114.95, 3387.92, 28143.57, -20182.95, -2825.13, 9467.95, -52240.52, -9563.19, 36272.19, 2477.31, -28639.76, 0.00, 0.00, 0.00, 0.00, 0.00, 0.00, 0.00
145, 1631.92, 63104.49, 3378.56, 28138.05, -20193.95, -2832.12, 9457.80, -52252.59, -9563.19, 36272.19, 2477.31, -28639.76, 0.00, 0.00, 0.00, 0.00, 0.00, 0.00, 0.00
146, 1631.92, 63104.49, 3378.56, 28138.05, -20193.95, -2832.12, 9457.80, -52252.59, -9563.46, 36293.75, 2494.72, -28647.31, 0.00, 0.00, 0.00, 0.00, 0.00, 0.00, 0.00
147, 1637.44, 63113.57, 3387.09, 28147.69, -20186.75, -2823.67, 9467.30, -52244.30, -9563.46, 36293.75, 2494.72, -28647.31, 0.00, 0.00, 0.00, 0.00, 0.00, 0.00, 0.00
148, 1637.44, 63113.57, 3387.09, 28147.69, -20186.75, -2823.67, 9467.30, -52244.30, -9562.37, 36278.27, 2478.05, -28628.96, 0.00, 0.00, 0.00, 0.00, 0.00, 0.00, 0.00
149, 1632.88, 63109.97, 3382.44, 28142.16, -20187.92, -2829.28, 9462.54, -52249.73, -9562.37, 36278.27, 2478.05, -28628.96, 0.00, 0.00, 0.00, 0.00, 0.00, 0.00, 0.00
150, 1632.88, 63109.97, 3382.44, 28142.16, -20187.92, -2829.28, 9462.54, -52249.73, -9556.47, 36295.03, 2497.70, -28647.25, 0.00, 0.00, 0.00, 0.00, 0.10, 0.38, 0.94
151, 1643.17, 63118.55, 3391.45, 28151.26, -20181.32, -2821.93, 9473.81, -52239.98, -9556.47, 36295.03, 2497.70, -28647.25, 0.00, 0.00, 0.00, 0.00, 0.00, 0.00, 0.00
152, 1643.17, 63118.55, 3391.45, 28151.26, -20181.32, -2821.93, 9473.81, -52239.98, -9561.25, 36276.37, 2482.74, -28620.40, 0.00, 0.00, 0.00, 0.00, 0.00, 0.00, 0.00
153, 1634.34, 63107.46, 3382.20, 28138.79, -20190.08, -2833.35, 9458.65, -52252.74, -9561.25, 36276.37, 2482.74, -28620.40, 0.00, 0.00, 0.00, 0.00, 0.00, 0.00, 0.00
154, 1634.34, 63107.46, 3382.20, 28138.79, -20190.08, -2833.35, 9458.65, -52252.74, -9561.74, 36289.75, 2492.53, -28626.30, 0.00, 0.00, 0.00, 0.00, 0.00, 0.00, 0.00
155, 1642.72, 63123.07, 3394.16, 28153.07, -20183.45, -2820.86, 9473.92, -52242.24, -9561.74, 36289.75, 2492.53, -28626.30, 0.00, 0.00, 0.00, 0.00, 0.00, 0.00, 0.00
156, 1642.72, 63123.07, 3394.16, 28153.07, -20183.45, -2820.86, 9473.92, -52242.24, -9562.61, 36281.21, 2486.70, -28638.04, 0.00, 0.00, 0.00, 0.00, 0.00, 0.00, 0.00
157, 1635.19, 63109.52, 3383.56, 28138.14, -20189.26, -2832.90, 9460.87, -52250.62, -9562.61, 36281.21, 2486.70, -28638.04, 0.00, 0.00, 0.00, 0.00, 0.00, 0.00, 0.00
158, 1635.19, 63109.52, 3383.56, 28138.14, -20189.26, -2832.90, 9460.87, -52250.62, -9558.16, 36289.82, 2490.45, -28600.26, 0.00, 0.00, 0.00, 0.00, 0.00, 0.00, 0.00
159, 1643.50, 63123.31, 3393.13, 28152.13, -20182.93, -2822.76, 9474.46, -52240.54, -9558.16, 36289.82, 2490.45, -28600.26, 0.00, 0.00, 0.00, 0.00, 0.00, 0.00, 0.00
160, 1643.50, 63123.31, 3393.13, 28152.13, -20182.93, -2822.76, 9474.46, -52240.54, -9560.89, 36280.75, 2489.38, -28624.02, 0.00, 0.00, 0.00, 0.00, 0.11, 0.39, 0.94
161, 1634.18, 63113.84, 3388.37, 28144.13, -20190.53, -2830.22, 9460.91, -52250.96, -9560.89, 36280.75, 2489.38, -28624.02, 0.00, 0.00, 0.00, 0.00, 0.00, 0.00, 0.00
162, 1634.18, 63113.84, 3388.37, 28144.13, -20190.53, -2830.22, 9460.91, -52250.96, -9555.88, 36286.31, 2491.17, -28627.96, 0.00, 0.00, 0.00, 0.00, 0.00, 0.00, 0.00
163, 1644.33, 63126.78, 3400.26, 28159.38, -20175.29, -2819.87, 9480.18, -52236.56, -9555.88, 36286.31, 2491.17, -28627.96, 0.00, 0.00, 0.00, 0.00, 0.00, 0.00, 0.00
164, 1644.33, 63126.78, 3400.26, 28159.38, -20175.29, -2819.87, 9480.18, -52236.56, -9556.98, 36289.84, 2495.73, -28607.66, 0.00, 0.00, 0.00, 0.00, 0.00, 0.00, 0.00
165, 1639.59, 63109.99, 3385.62, 28142.88, -20188.01, -2831.18, 9463.64, -52250.96, -9556.98, 36289.84, 2495.73, -28607.66, 0.00, 0.00, 0.00, 0.00, 0.00, 0.00, 0.00
166, 1639.59, 63109.99, 3385.62, 28142.88, -20188.01, -2831.18, 9463.64, -52250.96, -9558.25, 36283.90, 2484.84, -28579.74, 0.00, 0.00, 0.00, 0.00, 0.00, 0.00, 0.00
167, 1645.40, 63127.88, 3398.72, 28158.97, -20178.97, -2820.77, 9476.07, -52241.34, -9558.25, 36283.90, 2484.84, -28579.74, 0.00, 0.00, 0.00, 0.00, 0.00, 0.00, 0.00
168, 1645.40, 63127.88, 3398.72, 28158.97, -20178.97, -2820.77, 9476.07, -52241.34, -9558.46, 36288.01, 2495.13, -28615.26, 0.00, 0.00, 0.00, 0.00, 0.00, 0.00, 0.00
169, 1631.88, 63113.52, 3384.99, 28143.73, -20188.25, -2831.47, 9461.31, -52253.26, -9558.46, 36288.01, 2495.13, -28615.26, 0.00, 0.00, 0.00, 0.00, 0.00, 0.00, 0.00
170, 1631.88, 63113.52, 3384.99, 28143.73, -20188.25, -2831.47, 9461.31, -52253.26, -9555.46, 36283.54, 2485.45, -28606.28, 0.00, 0.00, 0.00, 0.00, 0.11, 0.38, 0.94
171, 1649.98, 63125.10, 3397.76, 28163.51, -20177.46, -2819.16, 9478.82, -52238.24, -9555.46, 36283.54, 2485.45, -28606.28, 0.00, 0.00, 0.00, 0.00, 0.00, 0.00, 0.00
172, 1649.98, 63125.10, 3397.76, 28163.51, -20177.46, -2819.16, 9478.82, -52238.24, -9555.17, 36294.56, 2496.13, -28609.76, 0.00, 0.00, 0.00, 0.00, 0.00, 0.00, 0.00
173, 1637.91, 63109.43, 3383.43, 28148.71, -20190.78, -2831.41, 9461.90, -52254.20, -9555.17, 36294.56, 2496.13, -28609.76, 0.00, 0.00, 0.00, 0.00, 0.00, 0.00, 0.00
174, 1637.91, 63109.43, 3383.43, 28148.71, -20190.78, -2831.41, 9461.90, -52254.20, -9562.86, 36273.82, 2479.46, -28573.13, 0.00, 0.00, 0.00, 0.00, 0.00, 0.00, 0.00
175, 1641.38, 63123.76, 3393.06, 28161.36, -20182.42, -2824.21, 9472.16, -52244.92, -9562.86, 36273.82, 2479.46, -28573.13, 0.00, 0.00, 0.00, 0.00, 0.00, 0.00, 0.00
176, 1641.38, 63123.76, 3393.06, 28161.36, -20182.42, -2824.21, 9472.16, -52244.92, -9558.52, 36297.76, 2500.40, -28607.88, 0.00, 0.00, 0.00, 0.00, 0.00, 0.00, 0.00
177, 1635.66, 63112.61, 3385.86, 28154.73, -20187.63, -2828.41, 9463.19, -52254.73, -9558.52, 36297.76, 2500.40, -28607.88, 0.00, 0.00, 0.00, 0.00, 0.00, 0.00, 0.00
178, 1635.66, 63112.61, 3385.86, 28154.73, -20187.63, -2828.41, 9463.19, -52254.73, -9560.56, 36275.38, 2479.34, -28566.45, 0.00, 0.00, 0.00, 0.00, 0.00, 0.00, 0.00
179, 1644.84, 63121.82, 3393.44, 28165.07, -20179.47, -2821.62, 9474.75, -52242.53, -9560.56, 36275.38, 2479.34, -28566.45, 0.00, 0.00, 0.00, 0.00, 0.00, 0.00, 0.00
180, 1644.84, 63121.82, 3393.44, 28165.07, -20179.47, -2821.62, 9474.75, -52242.53, -9555.04, 36298.16, 2501.50, -28590.05, 0.00, 0.00, 0.00, 0.00, 0.10, 0.38, 0.94
181, 1631.61, 63108.94, 3382.04, 28150.19, -20189.14, -2832.21, 9461.14, -52252.34, -9555.04, 36298.16, 2501.50, -28590.05, 0.00, 0.00, 0.00, 0.00, 0.00, 0.00, 0.00
182, 1631.61, 63108.94, 3382.04, 28150.19, -20189.14, -2832.21, 9461.14, -52252.34, -9562.59, 36271.74, 2472.80, -28581.53, 0.00, 0.00, 0.00, 0.00, 0.00, 0.00, 0.00
183, 1631.57, 63115.60, 3387.68, 28158.71, -20184.74, -2828.10, 9469.92, -52247.71, -9562.59, 36271.74, 2472.80, -28581.53, 0.00, 0.00, 0.00, 0.00, 0.00, 0.00, 0.00
184, 1631.57, 63115.60, 3387.68, 28158.71, -20184.74, -2828.10, 9469.92, -52247.71, -9555.71, 36300.80, 2499.35, -28585.33, 0.00, 0.00, 0.00, 0.00, 0.00, 0.00, 0.00
185, 1632.55, 63113.10, 3383.36, 28155.62, -20188.74, -2829.82, 9464.04, -52253.44, -9555.71, 36300.80, 2499.35, -28585.33, 0.00, 0.00, 0.00, 0.00, 0.00, 0.00, 0.00
186, 1632.55, 63113.10, 3383.36, 28155.62, -20188.74, -2829.82, 9464.04, -52253.44, -9559.84, 36272.19, 2474.32, -28550.71, 0.00, 0.00, 0.00, 0.00, 0.00, 0.00, 0.00
187, 1634.54, 63109.72, 3381.04, 28156.02, -20189.73, -2830.42, 9465.25, -52251.67, -9559.84, 36272.19, 2474.32, -28550.71, 0.00, 0.00, 0.00, 0.00, 0.00, 0.00, 0.00
188, 1634.54, 63109.72, 3381.04, 28156.02, -20189.73, -2830.42, 9465.25, -52251.67, -9555.71, 36299.19, 2495.91, -28584.10, 0.00, 0.00, 0.00, 0.00, 0.00, 0.00, 0.00
189, 1635.48, 63114.66, 3386.60, 28160.43, -20184.29, -2827.43, 9468.67, -52249.64, -9555.71, 36299.19, 2495.91, -28584.10, 0.00, 0.00, 0.00, 0.00, 0.00, 0.00, 0.00
190, 1635.48, 63114.66, 3386.60, 28160.43, -20184.29, -2827.43, 9468.67, -52249.64, -9563.24, 36272.21, 2475.75, -28562.11, 0.00, 0.00, 0.00, 0.00, 0.10, 0.39, 0.94
191, 1635.95, 63112.18, 3385.22, 28158.12, -20189.48, -2831.14, 9464.42, -52254.35, -9563.24, 36272.21, 2475.75, -28562.11, 0.00, 0.00, 0.00, 0.00, 0.00, 0.00, 0.00
192, 1635.95, 63112.18, 3385.22, 28158.12, -20189.48, -2831.14, 9464.42, -52254.35, -9556.89, 36301.18, 2496.94, -28557.55, 0.00, 0.00, 0.00, 0.00, 0.00, 0.00, 0.00
193, 1638.67, 63120.90, 3395.34, 28166.26, -20181.99, -2822.73, 9474.17, -52244.92, -9556.89, 36301.18, 2496.94, -28557.55, 0.00, 0.00, 0.00, 0.00, 0.00, 0.00, 0.00
194, 1638.67, 63120.90, 3395.34, 28166.26, -20181.99, -2822.73, 9474.17, -52244.92, -9560.04, 36279.43, 2482.43, -28559.76, 0.00, 0.00, 0.00, 0.00, 0.00, 0.00, 0.00
195, 1635.66, 63112.83, 3389.44, 28159.87, -20187.07, -2831.83, 9466.34, -52254.62, -9560.04, 36279.43, 2482.43, -28559.76, 0.00, 0.00, 0.00, 0.00, 0.00, 0.00, 0.00
196, 1635.66, 63112.83, 3389.44, 28159.87, -20187.07, -2831.83, 9466.34, -52254.62, -9560.71, 36292.57, 2494.12, -28567.43, 0.00, 0.00, 0.00, 0.00, 0.00, 0.00, 0.00
197, 1634.00, 63116.25, 3389.44, 28163.85, -20183.94, -2827.94, 9470.95, -52249.97, -9560.71, 36292.57, 2494.12, -28567.43, 0.00, 0.00, 0.00, 0.00, 0.00, 0.00, 0.00
198, 1634.00, 63116.25, 3389.44, 28163.85, -20183.94, -2827.94, 9470.95, -52249.97, -9565.94, 36272.30, 2473.09, -28542.35, 0.00, 0.00, 0.00, 0.00, 0.00, 0.00, 0.00
199, 1628.39, 63103.29, 3376.36, 28153.36, -20193.62, -2837.15, 9459.08, -52259.54, -9565.94, 36272.30, 2473.09, -28542.35, 0.00, 0.00, 0.00, 0.00, 0.10, 0.39, 0.94
200, 1628.39, 63103.29, 3376.36, 28153.36, -20193.62, -2837.15, 9459.08, -52259.54, -9560.38, 36294.63, 2486.03, -28556.86, 0.00, 0.00, 0.00, 0.00, 0.00, 0.00, 0.00
201, 1635.81, 63118.22, 3389.24, 28168.23, -20181.90, -2824.46, 9475.13, -52244.36, -9560.38, 36294.63, 2486.03, -28556.86, 0.00, 0.00, 0.00, 0.00, 0.00, 0.00, 0.00
202, 1635.81, 63118.22, 3389.24, 28168.23, -20181.90, -2824.46, 9475.13, -52244.36, -9561.65, 36280.14, 2479.28, -28539.42, 0.00, 0.00, 0.00, 0.00, 0.00, 0.00, 0.00
203, 1626.18, 63106.28, 3376.83, 28151.46, -20191.20, -2837.02, 9460.93, -52259.23, -9561.65, 36280.14, 2479.28, -28539.42, 0.00, 0.00, 0.00, 0.00, 0.00, 0.00, 0.00
204, 1626.18, 63106.28, 3376.83, 28151.46, -20191.20, -2837.02, 9460.93, -52259.23, -9560.24, 36291.90, 2486.65, -28547.58, 0.00, 0.00, 0.00, 0.00, 0.00, 0.00, 0.00
205, 1647.01, 63127.85, 3394.74, 28173.88, -20175.40, -2822.65, 9481.86, -52241.28, -9560.24, 36291.90, 2486.65, -28547.58, 0.00, 0.00, 0.00, 0.00, 0.00, 0.00, 0.00
206, 1647.01, 63127.85, 3394.74, 28173.88, -20175.40, -2822.65, 9481.86, -52241.28, -9557.05, 36288.37, 2491.26, -28533.92, 0.00, 0.00, 0.00, 0.00, 0.00, 0.00, 0.00
207, 1629.93, 63113.01, 3382.44, 28156.27, -20190.15, -2834.38, 9465.49, -52255.85, -9557.05, 36288.37, 2491.26, -28533.92, 0.00, 0.00, 0.00, 0.00, 0.00, 0.00, 0.00
208, 1629.93, 63113.01, 3382.44, 28156.27, -20190.15, -2834.38, 9465.49, -52255.85, -9561.41, 36289.80, 2484.69, -28537.83, 0.00, 0.00, 0.00, 0.00, 0.00, 0.00, 0.00
209, 1645.74, 63128.36, 3395.16, 28173.86, -20178.55, -2822.38, 9480.69, -52242.51, -9561.41, 36289.80, 2484.69, -28537.83, 0.00, 0.00, 0.00, 0.00, 0.10, 0.39, 0.94
210, 1645.74, 63128.36, 3395.16, 28173.86, -20178.55, -2822.38, 9480.69, -52242.51, -9555.01, 36295.36, 2493.45, -28544.72, 0.00, 0.00, 0.00, 0.00, 0.00, 0.00, 0.00
211, 1638.58, 63118.33, 3386.56, 28162.26, -20184.36, -2830.94, 9468.51, -52254.06, -9555.01, 36295.36, 2493.45, -28544.72, 0.00, 0.00, 0.00, 0.00, 0.00, 0.00, 0.00
212, 1638.58, 63118.33, 3386.56, 28162.26, -20184.36, -2830.94, 9468.51, -52254.06, -9555.19, 36290.31, 2487.77, -28516.71, 0.00, 0.00, 0.00, 0.00, 0.00, 0.00, 0.00
213, 1647.01, 63129.89, 3396.46, 28173.50, -20176.96, -2822.42, 9484.34, -52242.64, -9555.19, 36290.31, 2487.77, -28516.71, 0.00, 0.00, 0.00, 0.00, 0.00, 0.00, 0.00
214, 1647.01, 63129.89, 3396.46, 28173.50, -20176.96, -2822.42, 9484.34, -52242.64, -9559.75, 36294.05, 2493.85, -28525.25, 0.00, 0.00, 0.00, 0.00, 0.00, 0.00, 0.00
215, 1635.32, 63110.91, 3384.08, 28159.84, -20188.99, -2833.82, 9468.04, -52259.27, -9559.75, 36294.05, 2493.85, -28525.25, 0.00, 0.00, 0.00, 0.00, 0.00, 0.00, 0.00
216, 1635.32, 63110.91, 3384.08, 28159.84, -20188.99, -2833.82, 9468.04, -52259.27, -9560.87, 36286.96, 2479.68, -28524.00, 0.00, 0.00, 0.00, 0.00, 0.00, 0.00, 0.00
217, 1641.11, 63128.45, 3396.44, 28175.04, -20178.01, -2825.33, 9483.35, -52246.35, -9560.87, 36286.96, 2479.68, -28524.00, 0.00, 0.00, 0.00, 0.00, 0.00, 0.00, 0.00
218, 1641.11, 63128.45, 3396.44, 28175.04, -20178.01, -2825.33, 9483.35, -52246.35, -9558.70, 36293.98, 2497.34, -28503.03, 0.00, 0.00, 0.00, 0.00, 0.00, 0.00, 0.00
219, 1641.47, 63117.17, 3386.78, 28163.04, -20186.69, -2832.79, 9470.86, -52259.38, -9558.70, 36293.98, 2497.34, -28503.03, 0.00, 0.00, 0.00, 0.00, 0.10, 0.38, 0.94
220, 1641.47, 63117.17, 3386.78, 28163.04, -20186.69, -2832.79, 9470.86, -52259.38, -9562.19, 36279.11, 2477.58, -28521.03, 0.00, 0.00, 0.00, 0.00, 0.00, 0.00, 0.00
221, 1641.49, 63124.70, 3391.59, 28173.75, -20183.49, -2828.26, 9482.19, -52252.10, -9562.19, 36279.11, 2477.58, -28521.03, 0.00, 0.00, 0.00, 0.00, 0.00, 0.00, 0.00
222, 1641.49, 63124.70, 3391.59, 28173.75, -20183.49, -2828.26, 9482.19, -52252.10, -9558.39, 36296.46, 2490.19, -28510.01, 0.00, 0.00, 0.00, 0.00, 0.00, 0.00, 0.00
223, 1631.65, 63116.27, 3382.00, 28161.10, -20188.12, -2835.65, 9472.11, -52258.11, -9558.39, 36296.46, 2490.19, -28510.01, 0.00, 0.00, 0.00, 0.00, 0.00, 0.00, 0.00
224, 1631.65, 63116.27, 3382.00, 28161.10, -20188.12, -2835.65, 9472.11, -52258.11, -9567.15, 36272.36, 2469.73, -28511.19, 0.00, 0.00, 0.00, 0.00, 0.00, 0.00, 0.00
225, 1639.17, 63119.83, 3387.47, 28174.82, -20186.44, -2829.24, 9481.25, -52255.70, -9567.15, 36272.36, 2469.73, -28511.19, 0.00, 0.00, 0.00, 0.00, 0.00, 0.00, 0.00
226, 1639.17, 63119.83, 3387.47, 28174.82, -20186.44, -2829.24, 9481.25, -52255.70, -9560.73, 36296.32, 2490.50, -28516.98, 0.00, 0.00, 0.00, 0.00, 0.00, 0.00, 0.00
227, 1632.39, 63111.11, 3381.17, 28165.70, -20189.68, -2835.48, 9474.77, -52256.95, -9560.73, 36296.32, 2490.50, -28516.98, 0.00, 0.00, 0.00, 0.00, 0.00, 0.00, 0.00
228, 1632.39, 63111.11, 3381.17, 28165.70, -20189.68, -2835.48, 9474.77, -52256.95, -9566.05, 36273.06, 2467.88, -28493.69, 0.00, 0.00, 0.00, 0.00, 0.00, 0.00, 0.00
229, 1632.26, 63114.60, 3381.80, 28167.73, -20191.58, -2836.53, 9475.98, -52258.36, -9566.05, 36273.06, 2467.88, -28493.69, 0.00, 0.00, 0.00, 0.00, 0.09, 0.38, 0.95
230, 1632.26, 63114.60, 3381.80, 28167.73, -20191.58, -2836.53, 9475.98, -52258.36, -9559.59, 36300.50, 2495.97, -28514.32, 0.00, 0.00, 0.00, 0.00, 0.00, 0.00, 0.00
231, 1630.22, 63117.08, 3384.01, 28167.42, -20188.83, -2834.67, 9475.96, -52259.94, -9559.59, 36300.50, 2495.97, -28514.32, 0.00, 0.00, 0.00, 0.00, 0.00, 0.00, 0.00
232, 1630.22, 63117.08, 3384.01, 28167.42, -20188.83, -2834.67, 9475.96, -52259.94, -9565.14, 36270.29, 2472.93, -28488.24, 0.00, 0.00, 0.00, 0.00, 0.00, 0.00, 0.00
233, 1636.28, 63111.98, 3383.72, 28172.65, -20189.62, -2832.21, 9479.64, -52259.47, -9565.14, 36270.29, 2472.93, -28488.24, 0.00, 0.00, 0.00, 0.00, 0.00, 0.00, 0.00
234, 1636.28, 63111.98, 3383.72, 28172.65, -20189.62, -2832.21, 9479.64, -52259.47, -9554.86, 36300.95, 2499.10, -28507.39, 0.00, 0.00, 0.00, 0.00, 0.00, 0.00, 0.00
235, 1634.52, 63115.38, 3388.48, 28177.23, -20187.02, -2829.91, 9484.09, -52255.14, -9554.86, 36300.95, 2499.10, -28507.39, 0.00, 0.00, 0.00, 0.00, 0.00, 0.00, 0.00
236, 1634.52, 63115.38, 3388.48, 28177.23, -20187.02, -2829.91, 9484.09, -52255.14, -9561.88, 36274.15, 2467.95, -28466.87, 0.00, 0.00, 0.00, 0.00, 0.00, 0.00, 0.00
237, 1626.67, 63110.95, 3380.52, 28169.61, -20189.19, -2835.48, 9481.16, -52259.83, -9561.88, 36274.15, 2467.95, -28466.87, 0.00, 0.00, 0.00, 0.00, 0.00, 0.00, 0.00
238, 1626.67, 63110.95, 3380.52, 28169.61, -20189.19, -2835.48, 9481.16, -52259.83, -9556.73, 36302.90, 2494.21, -28496.57, 0.00, 0.00, 0.00, 0.00, 0.10, 0.38, 0.94
239, 1634.69, 63113.93, 3385.62, 28178.31, -20185.44, -2828.17, 9487.24, -52254.29, -9556.73, 36302.90, 2494.21, -28496.57, 0.00, 0.00, 0.00, 0.00, 0.00, 0.00, 0.00
240, 1634.69, 63113.93, 3385.62, 28178.31, -20185.44, -2828.17, 9487.24, -52254.29, -9561.65, 36279.18, 2467.99, -28469.04, 0.00, 0.00, 0.00, 0.00, 0.00, 0.00, 0.00
241, 1632.33, 63106.89, 3378.91, 28173.03, -20190.89, -2833.64, 9481.95, -52257.59, -9561.65, 36279.18, 2467.99, -28469.04, 0.00, 0.00, 0.00, 0.00, 0.00, 0.00, 0.00
242, 1632.33, 63106.89, 3378.91, 28173.03, -20190.89, -2833.64, 9481.95, -52257.59, -9556.55, 36306.21, 2485.78, -28490.67, 0.00, 0.00, 0.00, 0.00, 0.00, 0.00, 0.00
243, 1636.28, 63115.67, 3385.80, 28178.82, -20183.04, -2826.82, 9493.30, -52249.05, -9556.55, 36306.21, 2485.78, -28490.67, 0.00, 0.00, 0.00, 0.00, 0.00, 0.00, 0.00
244, 1636.28, 63115.67, 3385.80, 28178.82, -20183.04, -2826.82, 9493.30, -52249.05, -9560.09, 36284.93, 2466.05, -28450.62, 0.00, 0.00, 0.00, 0.00, 0.00, 0.00, 0.00
245, 1628.50, 63103.80, 3374.69, 28169.08, -20193.62, -2837.42, 9479.80, -52260.81, -9560.09, 36284.93, 2466.05, -28450.62, 0.00, 0.00, 0.00, 0.00, 0.00, 0.00, 0.00
246, 1628.50, 63103.80, 3374.69, 28169.08, -20193.62, -2837.42, 9479.80, -52260.81, -9559.26, 36299.88, 2488.91, -28487.34, 0.00, 0.00, 0.00, 0.00, 0.00, 0.00, 0.00
247, 1637.87, 63114.17, 3382.24, 28179.07, -20187.69, -2831.18, 9488.96, -52256.99, -9559.26, 36299.88, 2488.91, -28487.34, 0.00, 0.00, 0.00, 0.00, 0.00, 0.00, 0.00
248, 1637.87, 63114.17, 3382.24, 28179.07, -20187.69, -2831.18, 9488.96, -52256.99, -9564.83, 36278.31, 2467.57, -28459.40, 0.00, 0.00, 0.00, 0.00, 0.10, 0.39, 0.95
249, 1626.96, 63103.44, 3375.60, 28168.47, -20193.17, -2840.03, 9482.62, -52260.75, -9564.83, 36278.31, 2467.57, -28459.40, 0.00, 0.00, 0.00, 0.00, 0.00, 0.00, 0.00
250, 1626.96, 63103.44, 3375.60, 28168.47, -20193.17, -2840.03, 9482.62, -52260.75, -9554.25, 36301.04, 2488.38, -28463.80, 0.00, 0.00, 0.00, 0.00, 0.00, 0.00, 0.00
251, 1631.10, 63119.34, 3389.02, 28183.85, -20182.91, -2828.19, 9497.79, -52249.14, -9554.25, 36301.04, 2488.38, -28463.80, 0.00, 0.00, 0.00, 0.00, 0.00, 0.00, 0.00
252, 1631.10, 63119.34, 3389.02, 28183.85, -20182.91, -2828.19, 9497.79, -52249.14, -9562.50, 36283.41, 2474.43, -28454.60, 0.00, 0.00, 0.00, 0.00, 0.00, 0.00, 0.00
253, 1623.99, 63103.84, 3374.67, 28163.09, -20194.40, -2842.69, 9480.29, -52264.93, -9562.50, 36283.41, 2474.43, -28454.60, 0.00, 0.00, 0.00, 0.00, 0.00, 0.00, 0.00
254, 1623.99, 63103.84, 3374.67, 28163.09, -20194.40, -2842.69, 9480.29, -52264.93, -9558.23, 36290.85, 2481.07, -28465.44, 0.00, 0.00, 0.00, 0.00, 0.00, 0.00, 0.00
255, 1633.76, 63119.80, 3387.70, 28178.53, -20185.64, -2832.44, 9497.17, -52251.70, -9558.23, 36290.85, 2481.07, -28465.44, 0.00, 0.00, 0.00, 0.00, 0.00, 0.00, 0.00
0, 1633.76, 63119.80, 3387.70, 28178.53, -20185.64, -2832.44, 9497.17, -52251.70, -9557.87, 36286.56, 2479.37, -28444.72, 0.00, 0.00, 0.00, 0.00, 0.00, 0.00, 0.00
1, 1625.55, 63106.39, 3377.21, 28168.09, -20192.99, -2839.43, 9484.96, -52263.18, -9557.87, 36286.56, 2479.37, -28444.72, 0.00, 0.00, 0.00, 0.00, 0.00, 0.00, 0.00
2, 1625.55, 63106.39, 3377.21, 28168.09, -20192.99, -2839.43, 9484.96, -52263.18, -9558.25, 36287.25, 2481.94, -28461.64, 0.00, 0.00, 0.00, 0.00, 0.10, 0.39, 0.95
3, 1636.39, 63123.18, 3392.53, 28184.72, -20180.00, -2828.08, 9503.58, -52248.63, -9558.25, 36287.25, 2481.94, -28461.64, 0.00, 0.00, 0.00, 0.00, 0.00, 0.00, 0.00
4, 1636.39, 63123.18, 3392.53, 28184.72, -20180.00, -2828.08, 9503.58, -52248.63, -9556.31, 36291.95, 2486.07, -28443.35, 0.00, 0.00, 0.00, 0.00, 0.00, 0.00, 0.00
5, 1635.10, 63113.95, 3380.72, 28168.88, -20190.91, -2840.59, 9488.52, -52261.19, -9556.31, 36291.95, 2486.07, -28443.35, 0.00, 0.00, 0.00, 0.00, 0.00, 0.00, 0.00
6, 1635.10, 63113.95, 3380.72, 28168.88, -20190.91, -2840.59, 9488.52, -52261.19, -9555.21, 36290.78, 2486.41, -28432.11, 0.00, 0.00, 0.00, 0.00, 0.00, 0.00, 0.00
7, 1641.22, 63132.48, 3397.44, 28187.74, -20178.26, -2828.41, 9507.54, -52247.65, -9555.21, 36290.78, 2486.41, -28432.11, 0.00, 0.00, 0.00, 0.00, 0.00, 0.00, 0.00
8, 1641.22, 63132.48, 3397.44, 28187.74, -20178.26, -2828.41, 9507.54, -52247.65, -9553.29, 36298.56, 2499.82, -28433.32, 0.00, 0.00, 0.00, 0.00, 0.00, 0.00, 0.00
9, 1637.15, 63119.47, 3390.87, 28178.26, -20182.19, -2834.60, 9495.65, -52259.20, -9553.29, 36298.56, 2499.82, -28433.32, 0.00, 0.00, 0.00, 0.00, 0.00, 0.00, 0.00
10, 1637.15, 63119.47, 3390.87, 28178.26, -20182.19, -2834.60, 9495.65, -52259.20, -9552.33, 36289.89, 2492.00, -28445.54, 0.00, 0.00, 0.00, 0.00, 0.00, 0.00, 0.00
11, 1642.76, 63130.06, 3398.58, 28189.26, -20176.85, -2826.94, 9510.96, -52247.63, -9552.33, 36289.89, 2492.00, -28445.54, 0.00, 0.00, 0.00, 0.00, 0.00, 0.00, 0.00
12, 1642.76, 63130.06, 3398.58, 28189.26, -20176.85, -2826.94, 9510.96, -52247.63, -9547.28, 36304.77, 2508.22, -28419.37, 0.00, 0.00, 0.00, 0.00, 0.10, 0.39, 0.94
13, 1636.86, 63117.12, 3390.29, 28181.62, -20181.59, -2834.45, 9501.70, -52255.32, -9547.28, 36304.77, 2508.22, -28419.37, 0.00, 0.00, 0.00, 0.00, 0.00, 0.00, 0.00
14, 1636.86, 63117.12, 3390.29, 28181.62, -20181.59, -2834.45, 9501.70, -52255.32, -9548.35, 36289.49, 2487.53, -28413.22, 0.00, 0.00, 0.00, 0.00, 0.00, 0.00, 0.00
15, 1643.95, 63127.16, 3397.67, 28192.41, -20173.52, -2825.93, 9514.27, -52244.52, -9548.35, 36289.49, 2487.53, -28413.22, 0.00, 0.00, 0.00, 0.00, 0.00, 0.00, 0.00
16, 1643.95, 63127.16, 3397.67, 28192.41, -20173.52, -2825.93, 9514.27, -52244.52, -9542.67, 36312.48, 2509.90, -28425.23, 0.00, 0.00, 0.00, 0.00, 0.00, 0.00, 0.00
17, 1642.00, 63120.63, 3392.39, 28184.07, -20178.30, -2831.05, 9506.69, -52253.13, -9542.67, 36312.48, 2509.90, -28425.23, 0.00, 0.00, 0.00, 0.00, 0.00, 0.00, 0.00
18, 1642.00, 63120.63, 3392.39, 28184.07, -20178.30, -2831.05, 9506.69, -52253.13, -9549.18, 36290.18, 2486.77, -28423.97, 0.00, 0.00, 0.00, 0.00, 0.00, 0.00, 0.00
19, 1642.72, 63127.27, 3398.74, 28191.79, -20178.37, -2827.45, 9513.86, -52248.92, -9549.18, 36290.18, 2486.77, -28423.97, 0.00, 0.00, 0.00, 0.00, 0.00, 0.00, 0.00
20, 1642.72, 63127.27, 3398.74, 28191.79, -20178.37, -2827.45, 9513.86, -52248.92, -9547.70, 36310.77, 2505.88, -28396.44, 0.00, 0.00, 0.00, 0.00, 0.00, 0.00, 0.00
21, 1642.74, 63119.51, 3392.06, 28185.66, -20179.65, -2831.90, 9507.90, -52254.02, -9547.70, 36310.77, 2505.88, -28396.44, 0.00, 0.00, 0.00, 0.00, 0.10, 0.38, 0.94
22, 1642.74, 63119.51, 3392.06, 28185.66, -20179.65, -2831.90, 9507.90, -52254.02, -9551.79, 36286.71, 2483.75, -28397.02, 0.00, 0.00, 0.00, 0.00, 0.00, 0.00, 0.00
23, 1643.68, 63122.84, 3394.81, 28189.48, -20180.34, -2831.41, 9511.72, -52256.30, -9551.79, 36286.71, 2483.75, -28397.02, 0.00, 0.00, 0.00, 0.00, 0.00, 0.00, 0.00
24, 1643.68, 63122.84, 3394.81, 28189.48, -20180.34, -2831.41, 9511.72, -52256.30, -9544.60, 36308.29, 2507.91, -28431.69, 0.00, 0.00, 0.00, 0.00, 0.00, 0.00, 0.00
25, 1644.04, 63125.28, 3396.03, 28188.81, -20177.59, -2829.17, 9514.44, -52253.66, -9544.60, 36308.29, 2507.91, -28431.69, 0.00, 0.00, 0.00, 0.00, 0.00, 0.00, 0.00
26, 1644.04, 63125.28, 3396.03, 28188.81, -20177.59, -2829.17, 9514.44, -52253.66, -9544.44, 36284.77, 2487.88, -28397.46, 0.00, 0.00, 0.00, 0.00, 0.00, 0.00, 0.00
27, 1646.59, 63128.75, 3397.11, 28188.23, -20176.43, -2831.68, 9517.22, -52251.58, -9544.44, 36284.77, 2487.88, -28397.46, 0.00, 0.00, 0.00, 0.00, 0.00, 0.00, 0.00
28, 1646.59, 63128.75, 3397.11, 28188.23, -20176.43, -2831.68, 9517.22, -52251.58, -9538.41, 36319.64, 2514.57, -28383.03, 0.00, 0.00, 0.00, 0.00, 0.00, 0.00, 0.00
29, 1645.54, 63130.69, 3398.78, 28191.12, -20170.10, -2828.70, 9519.05, -52246.51, -9538.41, 36319.64, 2514.57, -28383.03, 0.00, 0.00, 0.00, 0.00, 0.00, 0.00, 0.00
30, 1645.54, 63130.69, 3398.78, 28191.12, -20170.10, -2828.70, 9519.05, -52246.51, -9545.42, 36290.20, 2491.93, -28401.36, 0.00, 0.00, 0.00, 0.00, 0.00, 0.00, 0.00
31, 1642.96, 63128.10, 3396.55, 28188.12, -20173.97, -2832.55, 9516.59, -52256.25, -9545.42, 36290.20, 2491.93, -28401.36, 0.00, 0.00, 0.00, 0.00, 0.10, 0.38, 0.94
32, 1642.96, 63128.10, 3396.55, 28188.12, -20173.97, -2832.55, 9516.59, -52256.25, -9536.97, 36317.00, 2513.83, -28391.30, 0.00, 0.00, 0.00, 0.00, 0.00, 0.00, 0.00
33, 1638.63, 63130.49, 3399.57, 28194.22, -20171.51, -2826.58, 9524.64, -52246.71, -9536.97, 36317.00, 2513.83, -28391.30, 0.00, 0.00, 0.00, 0.00, 0.00, 0.00, 0.00
34, 1638.63, 63130.49, 3399.57, 28194.22, -20171.51, -2826.58, 9524.64, -52246.71, -9539.86, 36296.10, 2500.69, -28373.01, 0.00, 0.00, 0.00, 0.00, 0.00, 0.00, 0.00
35, 1636.82, 63122.71, 3393.67, 28188.95, -20172.36, -2831.30, 9518.92, -52253.28, -9539.86, 36296.10, 2500.69, -28373.01, 0.00, 0.00, 0.00, 0.00, 0.00, 0.00, 0.00
36, 1636.82, 63122.71, 3393.67, 28188.95, -20172.36, -2831.30, 9518.92, -52253.28, -9535.19, 36320.42, 2518.55, -28382.02, 0.00, 0.00, 0.00, 0.00, 0.00, 0.00, 0.00
37, 1641.42, 63131.58, 3400.33, 28198.33, -20163.44, -2822.51, 9530.92, -52242.77, -9535.19, 36320.42, 2518.55, -28382.02, 0.00, 0.00, 0.00, 0.00, 0.00, 0.00, 0.00
38, 1641.42, 63131.58, 3400.33, 28198.33, -20163.44, -2822.51, 9530.92, -52242.77, -9536.10, 36303.34, 2504.51, -28369.30, 0.00, 0.00, 0.00, 0.00, 0.00, 0.00, 0.00
39, 1633.98, 63116.00, 3390.07, 28189.59, -20175.82, -2832.99, 9520.66, -52252.50, -9536.10, 36303.34, 2504.51, -28369.30, 0.00, 0.00, 0.00, 0.00, 0.00, 0.00, 0.00
40, 1633.98, 63116.00, 3390.07, 28189.59, -20175.82, -2832.99, 9520.66, -52252.50, -9534.74, 36318.41, 2509.74, -28369.82, 0.00, 0.00, 0.00, 0.00, 0.00, 0.00, 0.00
41, 1638.18, 63124.88, 3398.40, 28200.32, -20169.43, -2824.59, 9529.24, -52246.02, -9534.74, 36318.41, 2509.74, -28369.82, 0.00, 0.00, 0.00, 0.00, 0.10, 0.38, 0.94
42, 1638.18, 63124.88, 3398.40, 28200.32, -20169.43, -2824.59, 9529.24, -52246.02, -9546.94, 36294.09, 2490.57, -28363.76, 0.00, 0.00, 0.00, 0.00, 0.00, 0.00, 0.00
43, 1629.20, 63107.60, 3384.28, 28187.22, -20181.88, -2837.29, 9516.28, -52261.80, -9546.94, 36294.09, 2490.57, -28363.76, 0.00, 0.00, 0.00, 0.00, 0.00, 0.00, 0.00
44, 1629.20, 63107.60, 3384.28, 28187.22, -20181.88, -2837.29, 9516.28, -52261.80, -9543.28, 36307.37, 2493.47, -28374.85, 0.00, 0.00, 0.00, 0.00, 0.00, 0.00, 0.00
45, 1640.31, 63120.74, 3392.88, 28199.88, -20177.32, -2828.43, 9529.80, -52250.02, -9543.28, 36307.37, 2493.47, -28374.85, 0.00, 0.00, 0.00, 0.00, 0.00, 0.00, 0.00
46, 1640.31, 63120.74, 3392.88, 28199.88, -20177.32, -2828.43, 9529.80, -52250.02, -9542.14, 36303.32, 2487.08, -28358.62, 0.00, 0.00, 0.00, 0.00, 0.00, 0.00, 0.00
47, 1629.71, 63103.11, 3379.32, 28186.11, -20188.92, -2838.05, 9513.62, -52266.38, -9542.14, 36303.32, 2487.08, -28358.62, 0.00, 0.00, 0.00, 0.00, 0.00, 0.00, 0.00
48, 1629.71, 63103.11, 3379.32, 28186.11, -20188.92, -2838.05, 9513.62, -52266.38, -9546.74, 36303.08, 2486.39, -28364.97, 0.00, 0.00, 0.00, 0.00, 0.00, 0.00, 0.00
49, 1641.76, 63122.62, 3395.59, 28205.89, -20171.51, -2823.85, 9534.32, -52249.52, -9546.74, 36303.08, 2486.39, -28364.97, 0.00, 0.00, 0.00, 0.00, 0.00, 0.00, 0.00
50, 1641.76, 63122.62, 3395.59, 28205.89, -20171.51, -2823.85, 9534.32, -52249.52, -9540.46, 36304.44, 2496.42, -28360.79, 0.00, 0.00, 0.00, 0.00, 0.00, 0.00, 0.00
51, 1634.81, 63108.50, 3385.62, 28193.28, -20180.32, -2836.28, 9520.32, -52263.50, -9540.46, 36304.44, 2496.42, -28360.79, 0.00, 0.00, 0.00, 0.00, 0.10, 0.38, 0.93
52, 1634.81, 63108.50, 3385.62, 28193.28, -20180.32, -2836.28, 9520.32, -52263.50, -9545.65, 36298.92, 2488.71, -28357.48, 0.00, 0.00, 0.00, 0.00, 0.00, 0.00, 0.00
53, 1642.47, 63124.41, 3396.44, 28207.88, -20174.10, -2826.04, 9534.65, -52253.04, -9545.65, 36298.92, 2488.71, -28357.48, 0.00, 0.00, 0.00, 0.00, 0.00, 0.00, 0.00
54, 1642.47, 63124.41, 3396.44, 28207.88, -20174.10, -2826.04, 9534.65, -52253.04, -9548.17, 36300.84, 2494.30, -28363.58, 0.00, 0.00, 0.00, 0.00, 0.00, 0.00, 0.00
55, 1627.18, 63106.41, 3382.15, 28191.90, -20182.15, -2839.19, 9516.23, -52266.20, -9548.17, 36300.84, 2494.30, -28363.58, 0.00, 0.00, 0.00, 0.00, 0.00, 0.00, 0.00
56, 1627.18, 63106.41, 3382.15, 28191.90, -20182.15, -2839.19, 9516.23, -52266.20, -9547.21, 36294.79, 2483.28, -28337.94, 0.00, 0.00, 0.00, 0.00, 0.00, 0.00, 0.00
57, 1637.91, 63122.69, 3395.45, 28207.43, -20171.93, -2828.43, 9533.09, -52255.14, -9547.21, 36294.79, 2483.28, -28337.94, 0.00, 0.00, 0.00, 0.00, 0.00, 0.00, 0.00
58, 1637.91, 63122.69, 3395.45, 28207.43, -20171.93, -2828.43, 9533.09, -52255.14, -9544.42, 36306.59, 2501.92, -28364.41, 0.00, 0.00, 0.00, 0.00, 0.00, 0.00, 0.00
59, 1633.82, 63105.92, 3385.86, 28197.44, -20178.21, -2834.20, 9523.70, -52262.24, -9544.42, 36306.59, 2501.92, -28364.41, 0.00, 0.00, 0.00, 0.00, 0.00, 0.00, 0.00
60, 1633.82, 63105.92, 3385.86, 28197.44, -20178.21, -2834.20, 9523.70, -52262.24, -9541.20, 36297.45, 2487.23, -28322.86, 0.00, 0.00, 0.00, 0.00, 0.10, 0.39, 0.94
61, 1636.28, 63118.06, 3395.52, 28210.61, -20170.28, -2825.19, 9536.13, -52250.33, -9541.20, 36297.45, 2487.23, -28322.86, 0.00, 0.00, 0.00, 0.00, 0.00, 0.00, 0.00
62, 1636.28, 63118.06, 3395.52, 28210.61, -20170.28, -2825.19, 9536.13, -52250.33, -9537.74, 36315.77, 2506.52, -28354.26, 0.00, 0.00, 0.00, 0.00, 0.00, 0.00, 0.00
63, 1631.12, 63108.65, 3384.86, 28197.93, -20178.62, -2833.33, 9526.11, -52263.65, -9537.74, 36315.77, 2506.52, -28354.26, 0.00, 0.00, 0.00, 0.00, 0.00, 0.00, 0.00
64, 1631.12, 63108.65, 3384.86, 28197.93, -20178.62, -2833.33, 9526.11, -52263.65, -9543.01, 36291.01, 2482.74, -28319.79, 0.00, 0.00, 0.00, 0.00, 0.00, 0.00, 0.00
65, 1639.57, 63118.87, 3391.94, 28209.76, -20175.02, -2828.30, 9534.32, -52255.67, -9543.01, 36291.01, 2482.74, -28319.79, 0.00, 0.00, 0.00, 0.00, 0.00, 0.00, 0.00
66, 1639.57, 63118.87, 3391.94, 28209.76, -20175.02, -2828.30, 9534.32, -52255.67, -9538.41, 36316.04, 2505.81, -28356.27, 0.00, 0.00, 0.00, 0.00, 0.00, 0.00, 0.00
67, 1636.97, 63116.68, 3389.64, 28200.97, -20175.98, -2834.87, 9526.67, -52263.25, -9538.41, 36316.04, 2505.81, -28356.27, 0.00, 0.00, 0.00, 0.00, 0.00, 0.00, 0.00
68, 1636.97, 63116.68, 3389.64, 28200.97, -20175.98, -2834.87, 9526.67, -52263.25, -9539.68, 36290.45, 2487.64, -28318.25, 0.00, 0.00, 0.00, 0.00, 0.00, 0.00, 0.00
69, 1632.68, 63117.48, 3390.85, 28208.97, -20176.14, -2830.36, 9532.53, -52260.32, -9539.68, 36290.45, 2487.64, -28318.25, 0.00, 0.00, 0.00, 0.00, 0.00, 0.00, 0.00
70, 1632.68, 63117.48, 3390.85, 28208.97, -20176.14, -2830.36, 9532.53, -52260.32, -9539.54, 36314.74, 2505.94, -28319.30, 0.00, 0.00, 0.00, 0.00, 0.10, 0.39, 0.94
71, 1632.08, 63112.14, 3386.58, 28204.03, -20177.05, -2831.34, 9531.10, -52263.59, -9539.54, 36314.74, 2505.94, -28319.30, 0.00, 0.00, 0.00, 0.00, 0.00, 0.00, 0.00
72, 1632.08, 63112.14, 3386.58, 28204.03, -20177.05, -2831.34, 9531.10, -52263.59, -9544.04, 36289.93, 2479.50, -28317.67, 0.00, 0.00, 0.00, 0.00, 0.00, 0.00, 0.00
73, 1636.10, 63111.98, 3390.20, 28209.85, -20173.68, -2829.62, 9535.01, -52258.27, -9544.04, 36289.93, 2479.50, -28317.67, 0.00, 0.00, 0.00, 0.00, 0.00, 0.00, 0.00
74, 1636.10, 63111.98, 3390.20, 28209.85, -20173.68, -2829.62, 9535.01, -52258.27, -9535.03, 36316.22, 2505.59, -28326.28, 0.00, 0.00, 0.00, 0.00, 0.00, 0.00, 0.00
75, 1635.16, 63109.28, 3387.59, 28208.91, -20173.68, -2829.33, 9533.82, -52262.51, -9535.03, 36316.22, 2505.59, -28326.28, 0.00, 0.00, 0.00, 0.00, 0.00, 0.00, 0.00
76, 1635.16, 63109.28, 3387.59, 28208.91, -20173.68, -2829.33, 9533.82, -52262.51, -9545.69, 36284.12, 2474.99, -28302.61, 0.00, 0.00, 0.00, 0.00, 0.00, 0.00, 0.00
77, 1624.93, 63105.86, 3383.23, 28205.24, -20181.23, -2833.98, 9530.27, -52267.16, -9545.69, 36284.12, 2474.99, -28302.61, 0.00, 0.00, 0.00, 0.00, 0.00, 0.00, 0.00
78, 1624.93, 63105.86, 3383.23, 28205.24, -20181.23, -2833.98, 9530.27, -52267.16, -9539.79, 36314.88, 2498.77, -28334.26, 0.00, 0.00, 0.00, 0.00, 0.00, 0.00, 0.00
79, 1640.89, 63112.23, 3389.55, 28212.17, -20172.05, -2828.41, 9537.22, -52260.16, -9539.79, 36314.88, 2498.77, -28334.26, 0.00, 0.00, 0.00, 0.00, 0.00, 0.00, 0.00
80, 1640.89, 63112.23, 3389.55, 28212.17, -20172.05, -2828.41, 9537.22, -52260.16, -9545.20, 36287.43, 2479.46, -28294.13, 0.00, 0.00, 0.00, 0.00, 0.10, 0.38, 0.94
81, 1637.73, 63107.20, 3384.90, 28208.39, -20181.23, -2832.26, 9529.20, -52268.99, -9545.20, 36287.43, 2479.46, -28294.13, 0.00, 0.00, 0.00, 0.00, 0.00, 0.00, 0.00
82, 1637.73, 63107.20, 3384.90, 28208.39, -20181.23, -2832.26, 9529.20, -52268.99, -9545.42, 36307.32, 2490.74, -28319.66, 0.00, 0.00, 0.00, 0.00, 0.00, 0.00, 0.00
83, 1640.64, 63115.31, 3391.12, 28213.24, -20174.68, -2827.92, 9539.43, -52261.33, -9545.42, 36307.32, 2490.74, -28319.66, 0.00, 0.00, 0.00, 0.00, 0.00, 0.00, 0.00
84, 1640.64, 63115.31, 3391.12, 28213.24, -20174.68, -2827.92, 9539.43, -52261.33, -9543.39, 36289.20, 2476.37, -28314.23, 0.00, 0.00, 0.00, 0.00, 0.00, 0.00, 0.00
85, 1625.49, 63108.85, 3381.68, 28203.38, -20183.36, -2835.70, 9529.93, -52269.44, -9543.39, 36289.20, 2476.37, -28314.23, 0.00, 0.00, 0.00, 0.00, 0.00, 0.00, 0.00
86, 1625.49, 63108.85, 3381.68, 28203.38, -20183.36, -2835.70, 9529.93, -52269.44, -9532.42, 36316.80, 2497.11, -28310.38, 0.00, 0.00, 0.00, 0.00, 0.00, 0.00, 0.00
87, 1637.31, 63117.37, 3389.33, 28213.98, -20171.80, -2826.00, 9542.79, -52256.21, -9532.42, 36316.80, 2497.11, -28310.38, 0.00, 0.00, 0.00, 0.00, 0.00, 0.00, 0.00
88, 1637.31, 63117.37, 3389.33, 28213.98, -20171.80, -2826.00, 9542.79, -52256.21, -9538.00, 36296.91, 2487.64, -28284.43, 0.00, 0.00, 0.00, 0.00, 0.00, 0.00, 0.00
89, 1633.80, 63111.38, 3384.19, 28207.28, -20177.75, -2834.72, 9535.61, -52266.33, -9538.00, 36296.91, 2487.64, -28284.43, 0.00, 0.00, 0.00, 0.00, 0.00, 0.00, 0.00
90, 1633.80, 63111.38, 3384.19, 28207.28, -20177.75, -2834.72, 9535.61, -52266.33, -9533.47, 36314.09, 2501.52, -28295.27, 0.00, 0.00, 0.00, 0.00, 0.10, 0.38, 0.94
91, 1637.62, 63126.29, 3396.66, 28218.85, -20164.87, -2824.03, 9549.18, -52255.00, -9533.47, 36314.09, 2501.52, -28295.27, 0.00, 0.00, 0.00, 0.00, 0.00, 0.00, 0.00
92, 1637.62, 63126.29, 3396.66, 28218.85, -20164.87, -2824.03, 9549.18, -52255.00, -9536.44, 36299.88, 2492.85, -28295.05, 0.00, 0.00, 0.00, 0.00, 0.00, 0.00, 0.00
93, 1635.32, 63116.21, 3387.34, 28206.34, -20171.31, -2833.37, 9537.58, -52265.53, -9536.44, 36299.88, 2492.85, -28295.05, 0.00, 0.00, 0.00, 0.00, 0.00, 0.00, 0.00
94, 1635.32, 63116.21, 3387.34, 28206.34, -20171.31, -2833.37, 9537.58, -52265.53, -9532.48, 36311.93, 2507.51, -28278.73, 0.00, 0.00, 0.00, 0.00, 0.00, 0.00, 0.00
95, 1642.18, 63131.96, 3400.30, 28221.29, -20160.80, -2823.05, 9554.79, -52251.05, -9532.48, 36311.93, 2507.51, -28278.73, 0.00, 0.00, 0.00, 0.00, 0.00, 0.00, 0.00
96, 1642.18, 63131.96, 3400.30, 28221.29, -20160.80, -2823.05, 9554.79, -52251.05, -9530.90, 36308.02, 2502.52, -28288.86, 0.00, 0.00, 0.00, 0.00, 0.00, 0.00, 0.00
97, 1622.51, 63108.05, 3380.34, 28199.14, -20174.44, -2838.18, 9534.02, -52268.93, -9530.90, 36308.02, 2502.52, -28288.86, 0.00, 0.00, 0.00, 0.00, 0.00, 0.00, 0.00
98, 1622.51, 63108.05, 3380.34, 28199.14, -20174.44, -2838.18, 9534.02, -52268.93, -9532.30, 36308.66, 2498.57, -28291.96, 0.00, 0.00, 0.00, 0.00, 0.00, 0.00, 0.00
99, 1627.18, 63122.40, 3389.35, 28211.77, -20169.79, -2828.43, 9548.69, -52258.91, -9532.30, 36308.66, 2498.57, -28291.96, 0.00, 0.00, 0.00, 0.00, 0.10, 0.38, 0.94
100, 1627.18, 63122.40, 3389.35, 28211.77, -20169.79, -2828.43, 9548.69, -52258.91, -9535.95, 36311.05, 2494.57, -28283.20, 0.00, 0.00, 0.00, 0.00, 0.00, 0.00, 0.00
101, 1622.69, 63103.31, 3373.79, 28199.03, -20180.61, -2839.95, 9532.57, -52273.98, -9535.95, 36311.05, 2494.57, -28283.20, 0.00, 0.00, 0.00, 0.00, 0.00, 0.00, 0.00
102, 1622.69, 63103.31, 3373.79, 28199.03, -20180.61, -2839.95, 9532.57, -52273.98, -9537.51, 36298.92, 2490.19, -28260.88, 0.00, 0.00, 0.00, 0.00, 0.00, 0.00, 0.00
103, 1638.70, 63121.46, 3392.79, 28217.94, -20168.43, -2825.66, 9549.29, -52260.63, -9537.51, 36298.92, 2490.19, -28260.88, 0.00, 0.00, 0.00, 0.00, 0.00, 0.00, 0.00
104, 1638.70, 63121.46, 3392.79, 28217.94, -20168.43, -2825.66, 9549.29, -52260.63, -9539.17, 36306.34, 2497.78, -28282.89, 0.00, 0.00, 0.00, 0.00, 0.00, 0.00, 0.00
105, 1626.34, 63102.55, 3377.84, 28201.78, -20179.65, -2838.76, 9534.70, -52273.82, -9539.17, 36306.34, 2497.78, -28282.89, 0.00, 0.00, 0.00, 0.00, 0.00, 0.00, 0.00
106, 1626.34, 63102.55, 3377.84, 28201.78, -20179.65, -2838.76, 9534.70, -52273.82, -9538.16, 36300.06, 2491.17, -28261.90, 0.00, 0.00, 0.00, 0.00, 0.00, 0.00, 0.00
107, 1641.76, 63123.29, 3396.15, 28226.10, -20166.06, -2822.15, 9556.85, -52254.58, -9538.16, 36300.06, 2491.17, -28261.90, 0.00, 0.00, 0.00, 0.00, 0.00, 0.00, 0.00
108, 1641.76, 63123.29, 3396.15, 28226.10, -20166.06, -2822.15, 9556.85, -52254.58, -9534.94, 36317.61, 2500.51, -28270.71, 0.00, 0.00, 0.00, 0.00, 0.00, 0.00, 0.00
109, 1628.44, 63103.82, 3380.59, 28208.24, -20175.80, -2835.18, 9541.87, -52270.56, -9534.94, 36317.61, 2500.51, -28270.71, 0.00, 0.00, 0.00, 0.00, 0.10, 0.38, 0.94
110, 1628.44, 63103.82, 3380.59, 28208.24, -20175.80, -2835.18, 9541.87, -52270.56, -9533.49, 36297.93, 2484.82, -28246.03, 0.00, 0.00, 0.00, 0.00, 0.00, 0.00, 0.00
111, 1639.43, 63119.78, 3391.61, 28222.14, -20165.27, -2826.00, 9555.35, -52259.72, -9533.49, 36297.93, 2484.82, -28246.03, 0.00, 0.00, 0.00, 0.00, 0.00, 0.00, 0.00
112, 1639.43, 63119.78, 3391.61, 28222.14, -20165.27, -2826.00, 9555.35, -52259.72, -9531.52, 36317.40, 2506.14, -28279.63, 0.00, 0.00, 0.00, 0.00, 0.00, 0.00, 0.00
113, 1634.81, 63115.54, 3386.04, 28213.42, -20173.48, -2832.17, 9544.51, -52268.41, -9531.52, 36317.40, 2506.14, -28279.63, 0.00, 0.00, 0.00, 0.00, 0.00, 0.00, 0.00
114, 1634.81, 63115.54, 3386.04, 28213.42, -20173.48, -2832.17, 9544.51, -52268.41, -9536.82, 36296.66, 2487.95, -28258.06, 0.00, 0.00, 0.00, 0.00, 0.00, 0.00, 0.00
115, 1638.90, 63124.81, 3393.42, 28220.55, -20166.82, -2825.84, 9555.59, -52258.53, -9536.82, 36296.66, 2487.95, -28258.06, 0.00, 0.00, 0.00, 0.00, 0.00, 0.00, 0.00
116, 1638.90, 63124.81, 3393.42, 28220.55, -20166.82, -2825.84, 9555.59, -52258.53, -9529.04, 36323.66, 2513.48, -28250.84, 0.00, 0.00, 0.00, 0.00, 0.00, 0.00, 0.00
117, 1635.39, 63118.08, 3387.54, 28214.00, -20170.08, -2829.31, 9551.97, -52261.62, -9529.04, 36323.66, 2513.48, -28250.84, 0.00, 0.00, 0.00, 0.00, 0.00, 0.00, 0.00
118, 1635.39, 63118.08, 3387.54, 28214.00, -20170.08, -2829.31, 9551.97, -52261.62, -9534.90, 36296.59, 2486.43, -28246.32, 0.00, 0.00, 0.00, 0.00, 0.00, 0.00, 0.00
119, 1631.86, 63117.08, 3384.70, 28214.81, -20172.43, -2830.85, 9554.28, -52262.71, -9534.90, 36296.59, 2486.43, -28246.32, 0.00, 0.00, 0.00, 0.00, 0.10, 0.38, 0.93
120, 1631.86, 63117.08, 3384.70, 28214.81, -20172.43, -2830.85, 9554.28, -52262.71, -9531.32, 36322.37, 2508.20, -28256.76, 0.00, 0.00, 0.00, 0.00, 0.00, 0.00, 0.00
121, 1625.06, 63109.12, 3380.75, 28210.02, -20174.97, -2836.17, 9546.36, -52270.00, -9531.32, 36322.37, 2508.20, -28256.76, 0.00, 0.00, 0.00, 0.00, 0.00, 0.00, 0.00
122, 1625.06, 63109.12, 3380.75, 28210.02, -20174.97, -2836.17, 9546.36, -52270.00, -9539.41, 36290.22, 2484.17, -28248.58, 0.00, 0.00, 0.00, 0.00, 0.00, 0.00, 0.00
123, 1629.35, 63115.40, 3383.99, 28214.05, -20174.97, -2833.20, 9550.56, -52267.74, -9539.41, 36290.22, 2484.17, -28248.58, 0.00, 0.00, 0.00, 0.00, 0.00, 0.00, 0.00
124, 1629.35, 63115.40, 3383.99, 28214.05, -20174.97, -2833.20, 9550.56, -52267.74, -9532.08, 36320.42, 2513.12, -28250.53, 0.00, 0.00, 0.00, 0.00, 0.00, 0.00, 0.00
125, 1636.93, 63118.73, 3387.94, 28218.56, -20169.88, -2830.22, 9553.87, -52267.34, -9532.08, 36320.42, 2513.12, -28250.53, 0.00, 0.00, 0.00, 0.00, 0.00, 0.00, 0.00
126, 1636.93, 63118.73, 3387.94, 28218.56, -20169.88, -2830.22, 9553.87, -52267.34, -9537.15, 36293.20, 2487.19, -28228.53, 0.00, 0.00, 0.00, 0.00, 0.00, 0.00, 0.00
127, 1636.37, 63116.30, 3386.71, 28217.49, -20172.83, -2831.30, 9553.49, -52268.28, -9537.15, 36293.20, 2487.19, -28228.53, 0.00, 0.00, 0.00, 0.00, 0.00, 0.00, 0.00
128, 1636.37, 63116.30, 3386.71, 28217.49, -20172.83, -2831.30, 9553.49, -52268.28, -9529.84, 36320.46, 2513.74, -28237.83, 0.00, 0.00, 0.00, 0.00, 0.00, 0.00, 0.00
129, 1634.40, 63120.52, 3389.89, 28221.54, -20168.43, -2827.23, 9559.86, -52263.52, -9529.84, 36320.46, 2513.74, -28237.83, 0.00, 0.00, 0.00, 0.00, 0.11, 0.39, 0.94
130, 1634.40, 63120.52, 3389.89, 28221.54, -20168.43, -2827.23, 9559.86, -52263.52, -9535.21, 36298.05, 2488.75, -28225.71, 0.00, 0.00, 0.00, 0.00, 0.00, 0.00, 0.00
131, 1634.31, 63110.75, 3382.49, 28215.39, -20174.21, -2831.83, 9553.65, -52269.89, -9535.21, 36298.05, 2488.75, -28225.71, 0.00, 0.00, 0.00, 0.00, 0.00, 0.00, 0.00
132, 1634.31, 63110.75, 3382.49, 28215.39, -20174.21, -2831.83, 9553.65, -52269.89, -9524.66, 36326.05, 2510.23, -28231.64, 0.00, 0.00, 0.00, 0.00, 0.00, 0.00, 0.00
133, 1644.93, 63128.01, 3394.83, 28225.98, -20163.02, -2822.24, 9568.65, -52256.54, -9524.66, 36326.05, 2510.23, -28231.64, 0.00, 0.00, 0.00, 0.00, 0.00, 0.00, 0.00
134, 1644.93, 63128.01, 3394.83, 28225.98, -20163.02, -2822.24, 9568.65, -52256.54, -9533.53, 36302.45, 2496.62, -28221.42, 0.00, 0.00, 0.00, 0.00, 0.00, 0.00, 0.00
135, 1632.53, 63117.01, 3383.32, 28212.51, -20175.67, -2836.12, 9550.74, -52275.01, -9533.53, 36302.45, 2496.62, -28221.42, 0.00, 0.00, 0.00, 0.00, 0.00, 0.00, 0.00
136, 1632.53, 63117.01, 3383.32, 28212.51, -20175.67, -2836.12, 9550.74, -52275.01, -9535.43, 36312.31, 2504.27, -28247.57, 0.00, 0.00, 0.00, 0.00, 0.00, 0.00, 0.00
137, 1639.86, 63122.87, 3388.17, 28224.62, -20170.41, -2826.27, 9562.12, -52267.00, -9535.43, 36312.31, 2504.27, -28247.57, 0.00, 0.00, 0.00, 0.00, 0.00, 0.00, 0.00
138, 1639.86, 63122.87, 3388.17, 28224.62, -20170.41, -2826.27, 9562.12, -52267.00, -9537.91, 36295.84, 2491.64, -28213.29, 0.00, 0.00, 0.00, 0.00, 0.10, 0.38, 0.94
139, 1635.72, 63110.28, 3379.29, 28213.55, -20179.42, -2834.18, 9551.73, -52277.82, -9537.91, 36295.84, 2491.64, -28213.29, 0.00, 0.00, 0.00, 0.00, 0.00, 0.00, 0.00
140, 1635.72, 63110.28, 3379.29, 28213.55, -20179.42, -2834.18, 9551.73, -52277.82, -9534.70, 36312.66, 2499.95, -28226.14, 0.00, 0.00, 0.00, 0.00, 0.00, 0.00, 0.00
141, 1643.48, 63122.69, 3391.70, 28232.58, -20166.75, -2823.00, 9567.80, -52263.70, -9534.70, 36312.66, 2499.95, -28226.14, 0.00, 0.00, 0.00, 0.00, 0.00, 0.00, 0.00
142, 1643.48, 63122.69, 3391.70, 28232.58, -20166.75, -2823.00, 9567.80, -52263.70, -9539.05, 36300.62, 2492.51, -28222.45, 0.00, 0.00, 0.00, 0.00, 0.00, 0.00, 0.00
143, 1631.12, 63102.73, 3374.67, 28215.30, -20182.02, -2836.21, 9550.65, -52281.82, -9539.05, 36300.62, 2492.51, -28222.45, 0.00, 0.00, 0.00, 0.00, 0.00, 0.00, 0.00
144, 1631.12, 63102.73, 3374.67, 28215.30, -20182.02, -2836.21, 9550.65, -52281.82, -9545.07, 36300.13, 2491.79, -28208.28, 0.00, 0.00, 0.00, 0.00, 0.00, 0.00, 0.00
145, 1642.65, 63117.68, 3387.25, 28229.31, -20173.07, -2827.36, 9565.00, -52269.38, -9545.07, 36300.13, 2491.79, -28208.28, 0.00, 0.00, 0.00, 0.00, 0.00, 0.00, 0.00
146, 1642.65, 63117.68, 3387.25, 28229.31, -20173.07, -2827.36, 9565.00, -52269.38, -9538.72, 36302.96, 2496.22, -28218.88, 0.00, 0.00, 0.00, 0.00, 0.00, 0.00, 0.00
147, 1630.34, 63103.62, 3375.58, 28214.16, -20182.93, -2837.33, 9551.06, -52281.96, -9538.72, 36302.96, 2496.22, -28218.88, 0.00, 0.00, 0.00, 0.00, 0.00, 0.00, 0.00
148, 1630.34, 63103.62, 3375.58, 28214.16, -20182.93, -2837.33, 9551.06, -52281.96, -9538.43, 36303.97, 2491.46, -28218.23, 0.00, 0.00, 0.00, 0.00, 0.10, 0.38, 0.94
149, 1643.37, 63122.20, 3391.83, 28233.90, -20171.71, -2823.23, 9572.74, -52266.76, -9538.43, 36303.97, 2491.46, -28218.23, 0.00, 0.00, 0.00, 0.00, 0.00, 0.00, 0.00
150, 1643.37, 63122.20, 3391.83, 28233.90, -20171.71, -2823.23, 9572.74, -52266.76, -9535.34, 36309.45, 2501.36, -28219.79, 0.00, 0.00, 0.00, 0.00, 0.00, 0.00, 0.00
151, 1638.23, 63110.53, 3382.22, 28222.16, -20178.17, -2830.92, 9561.90, -52275.16, -9535.34, 36309.45, 2501.36, -28219.79, 0.00, 0.00, 0.00, 0.00, 0.00, 0.00, 0.00
152, 1638.23, 63110.53, 3382.22, 28222.16, -20178.17, -2830.92, 9561.90, -52275.16, -9530.05, 36308.06, 2499.73, -28170.46, 0.00, 0.00, 0.00, 0.00, 0.00, 0.00, 0.00
153, 1652.33, 63126.69, 3395.19, 28237.27, -20163.26, -2818.60, 9582.39, -52261.33, -9530.05, 36308.06, 2499.73, -28170.46, 0.00, 0.00, 0.00, 0.00, 0.00, 0.00, 0.00
154, 1652.33, 63126.69, 3395.19, 28237.27, -20163.26, -2818.60, 9582.39, -52261.33, -9532.21, 36319.59, 2507.66, -28195.38, 0.00, 0.00, 0.00, 0.00, 0.00, 0.00, 0.00
155, 1636.55, 63109.90, 3381.08, 28219.86, -20177.14, -2832.28, 9565.43, -52277.73, -9532.21, 36319.59, 2507.66, -28195.38, 0.00, 0.00, 0.00, 0.00, 0.00, 0.00, 0.00
156, 1636.55, 63109.90, 3381.08, 28219.86, -20177.14, -2832.28, 9565.43, -52277.73, -9538.18, 36295.32, 2491.68, -28206.85, 0.00, 0.00, 0.00, 0.00, 0.00, 0.00, 0.00
157, 1647.90, 63125.68, 3392.75, 28230.48, -20172.43, -2826.36, 9577.99, -52267.41, -9538.18, 36295.32, 2491.68, -28206.85, 0.00, 0.00, 0.00, 0.00, 0.00, 0.00, 0.00
158, 1647.90, 63125.68, 3392.75, 28230.48, -20172.43, -2826.36, 9577.99, -52267.41, -9529.73, 36314.43, 2513.05, -28204.50, 0.00, 0.00, 0.00, 0.00, 0.10, 0.38, 0.94
159, 1641.47, 63113.59, 3384.46, 28221.33, -20176.29, -2832.66, 9569.25, -52278.54, -9529.73, 36314.43, 2513.05, -28204.50, 0.00, 0.00, 0.00, 0.00, 0.00, 0.00, 0.00
160, 1641.47, 63113.59, 3384.46, 28221.33, -20176.29, -2832.66, 9569.25, -52278.54, -9538.52, 36289.84, 2490.48, -28182.04, 0.00, 0.00, 0.00, 0.00, 0.00, 0.00, 0.00
161, 1644.82, 63116.36, 3386.78, 28231.57, -20174.15, -2827.67, 9579.17, -52272.05, -9538.52, 36289.84, 2490.48, -28182.04, 0.00, 0.00, 0.00, 0.00, 0.00, 0.00, 0.00
162, 1644.82, 63116.36, 3386.78, 28231.57, -20174.15, -2827.67, 9579.17, -52272.05, -9534.72, 36314.61, 2509.54, -28193.71, 0.00, 0.00, 0.00, 0.00, 0.00, 0.00, 0.00
163, 1634.05, 63106.41, 3378.29, 28218.03, -20181.93, -2836.01, 9571.87, -52279.75, -9534.72, 36314.61, 2509.54, -28193.71, 0.00, 0.00, 0.00, 0.00, 0.00, 0.00, 0.00
164, 1634.05, 63106.41, 3378.29, 28218.03, -20181.93, -2836.01, 9571.87, -52279.75, -9540.53, 36289.89, 2484.20, -28202.11, 0.00, 0.00, 0.00, 0.00, 0.00, 0.00, 0.00
165, 1633.22, 63113.01, 3382.71, 28226.47, -20178.80, -2831.18, 9582.55, -52276.10, -9540.53, 36289.89, 2484.20, -28202.11, 0.00, 0.00, 0.00, 0.00, 0.00, 0.00, 0.00
166, 1633.22, 63113.01, 3382.71, 28226.47, -20178.80, -2831.18, 9582.55, -52276.10, -9535.95, 36314.57, 2508.42, -28197.91, 0.00, 0.00, 0.00, 0.00, 0.00, 0.00, 0.00
167, 1628.35, 63106.68, 3378.15, 28219.84, -20180.14, -2835.14, 9578.82, -52281.85, -9535.95, 36314.57, 2508.42, -28197.91, 0.00, 0.00, 0.00, 0.00, 0.00, 0.00, 0.00
168, 1628.35, 63106.68, 3378.15, 28219.84, -20180.14, -2835.14, 9578.82, -52281.85, -9541.45, 36287.70, 2484.55, -28170.33, 0.00, 0.00, 0.00, 0.00, 0.09, 0.38, 0.93
169, 1631.48, 63110.35, 3379.07, 28223.35, -20179.45, -2833.51, 9589.88, -52275.36, -9541.45, 36287.70, 2484.55, -28170.33, 0.00, 0.00, 0.00, 0.00, 0.00, 0.00, 0.00
170, 1631.48, 63110.35, 3379.07, 28223.35, -20179.45, -2833.51, 9589.88, -52275.36, -9532.77, 36312.89, 2513.32, -28189.55, 0.00, 0.00, 0.00, 0.00, 0.00, 0.00, 0.00
171, 1632.41, 63110.46, 3380.97, 28226.63, -20175.20, -2830.04, 9594.04, -52275.88, -9532.77, 36312.89, 2513.32, -28189.55, 0.00, 0.00, 0.00, 0.00, 0.00, 0.00, 0.00
172, 1632.41, 63110.46, 3380.97, 28226.63, -20175.20, -2830.04, 9594.04, -52275.88, -9534.96, 36287.56, 2487.93, -28177.57, 0.00, 0.00, 0.00, 0.00, 0.00, 0.00, 0.00
173, 1625.22, 63106.57, 3378.38, 28225.60, -20178.53, -2830.76, 9600.05, -52273.44, -9534.96, 36287.56, 2487.93, -28177.57, 0.00, 0.00, 0.00, 0.00, 0.00, 0.00, 0.00
174, 1625.22, 63106.57, 3378.38, 28225.60, -20178.53, -2830.76, 9600.05, -52273.44, -9522.83, 36323.64, 2515.78, -28201.69, 0.00, 0.00, 0.00, 0.00, 0.00, 0.00, 0.00
175, 1627.72, 63107.82, 3381.13, 28231.71, -20171.58, -2828.77, 9605.82, -52272.30, -9522.83, 36323.64, 2515.78, -28201.69, 0.00, 0.00, 0.00, 0.00, 0.00, 0.00, 0.00
176, 1627.72, 63107.82, 3381.13, 28231.71, -20171.58, -2828.77, 9605.82, -52272.30, -9538.70, 36288.84, 2484.28, -28149.65, 0.00, 0.00, 0.00, 0.00, 0.00, 0.00, 0.00
177, 1626.38, 63104.09, 3375.90, 28223.68, -20180.18, -2838.27, 9604.88, -52279.12, -9538.70, 36288.84, 2484.28, -28149.65, 0.00, 0.00, 0.00, 0.00, 0.09, 0.39, 0.93
178, 1626.38, 63104.09, 3375.90, 28223.68, -20180.18, -2838.27, 9604.88, -52279.12, -9528.37, 36315.48, 2510.70, -28179.71, 0.00, 0.00, 0.00, 0.00, 0.00, 0.00, 0.00
179, 1635.79, 63114.64, 3385.02, 28233.65, -20171.35, -2828.97, 9614.69, -52270.07, -9528.37, 36315.48, 2510.70, -28179.71, 0.00, 0.00, 0.00, 0.00, 0.00, 0.00, 0.00
180, 1635.79, 63114.64, 3385.02, 28233.65, -20171.35, -2828.97, 9614.69, -52270.07, -9531.59, 36294.31, 2490.36, -28154.73, 0.00, 0.00, 0.00, 0.00, 0.00, 0.00, 0.00
181, 1627.83, 63106.46, 3377.59, 28223.93, -20176.34, -2835.25, 9610.83, -52277.96, -9531.59, 36294.31, 2490.36, -28154.73, 0.00, 0.00, 0.00, 0.00, 0.00, 0.00, 0.00
182, 1627.83, 63106.46, 3377.59, 28223.93, -20176.34, -2835.25, 9610.83, -52277.96, -9530.60, 36313.16, 2507.31, -28184.56, 0.00, 0.00, 0.00, 0.00, 0.00, 0.00, 0.00
183, 1636.77, 63116.14, 3386.80, 28235.71, -20171.69, -2828.10, 9626.61, -52271.54, -9530.60, 36313.16, 2507.31, -28184.56, 0.00, 0.00, 0.00, 0.00, 0.00, 0.00, 0.00
184, 1636.77, 63116.14, 3386.80, 28235.71, -20171.69, -2828.10, 9626.61, -52271.54, -9533.17, 36298.36, 2490.27, -28141.63, 0.00, 0.00, 0.00, 0.00, 0.00, 0.00, 0.00
185, 1634.45, 63104.85, 3376.92, 28223.57, -20179.06, -2835.79, 9622.18, -52279.21, -9533.17, 36298.36, 2490.27, -28141.63, 0.00, 0.00, 0.00, 0.00, 0.00, 0.00, 0.00
186, 1634.45, 63104.85, 3376.92, 28223.57, -20179.06, -2835.79, 9622.18, -52279.21, -9530.34, 36313.05, 2502.95, -28164.16, 0.00, 0.00, 0.00, 0.00, 0.00, 0.00, 0.00
187, 1640.44, 63118.38, 3386.60, 28237.81, -20171.82, -2825.64, 9639.37, -52268.50, -9530.34, 36313.05, 2502.95, -28164.16, 0.00, 0.00, 0.00, 0.00, 0.09, 0.39, 0.93
188, 1640.44, 63118.38, 3386.60, 28237.81, -20171.82, -2825.64, 9639.37, -52268.50, -9535.79, 36299.43, 2490.95, -28145.56, 0.00, 0.00, 0.00, 0.00, 0.00, 0.00, 0.00
189, 1633.55, 63106.26, 3378.87, 28225.33, -20179.38, -2834.42, 9634.05, -52279.01, -9535.79, 36299.43, 2490.95, -28145.56, 0.00, 0.00, 0.00, 0.00, 0.00, 0.00, 0.00
190, 1633.55, 63106.26, 3378.87, 28225.33, -20179.38, -2834.42, 9634.05, -52279.01, -9529.75, 36311.77, 2503.57, -28151.44, 0.00, 0.00, 0.00, 0.00, 0.00, 0.00, 0.00
191, 1641.51, 63121.75, 3391.61, 28243.51, -20168.36, -2822.09, 9657.27, -52264.43, -9529.75, 36311.77, 2503.57, -28151.44, 0.00, 0.00, 0.00, 0.00, 0.00, 0.00, 0.00
192, 1641.51, 63121.75, 3391.61, 28243.51, -20168.36, -2822.09, 9657.27, -52264.43, -9529.20, 36307.73, 2504.40, -28150.55, 0.00, 0.00, 0.00, 0.00, 0.00, 0.00, 0.00
193, 1639.77, 63109.90, 3381.80, 28231.24, -20170.19, -2830.60, 9651.82, -52272.91, -9529.20, 36307.73, 2504.40, -28150.55, 0.00, 0.00, 0.00, 0.00, 0.00, 0.00, 0.00
194, 1639.77, 63109.90, 3381.80, 28231.24, -20170.19, -2830.60, 9651.82, -52272.91, -9516.88, 36316.29, 2508.27, -28143.46, 0.00, 0.00, 0.00, 0.00, 0.00, 0.00, 0.00
195, 1644.28, 63124.63, 3393.78, 28245.38, -20160.85, -2819.16, 9673.77, -52260.95, -9516.88, 36316.29, 2508.27, -28143.46, 0.00, 0.00, 0.00, 0.00, 0.00, 0.00, 0.00
196, 1644.28, 63124.63, 3393.78, 28245.38, -20160.85, -2819.16, 9673.77, -52260.95, -9523.12, 36314.32, 2506.88, -28113.69, 0.00, 0.00, 0.00, 0.00, 0.00, 0.00, 0.00
197, 1627.27, 63107.24, 3378.26, 28228.69, -20171.67, -2833.73, 9662.59, -52273.53, -9523.12, 36314.32, 2506.88, -28113.69, 0.00, 0.00, 0.00, 0.00, 0.10, 0.38, 0.93
198, 1627.27, 63107.24, 3378.26, 28228.69, -20171.67, -2833.73, 9662.59, -52273.53, -9524.17, 36309.56, 2500.02, -28143.66, 0.00, 0.00, 0.00, 0.00, 0.00, 0.00, 0.00
199, 1637.96, 63115.96, 3385.51, 28241.90, -20166.17, -2822.71, 9684.25, -52263.81, -9524.17, 36309.56, 2500.02, -28143.66, 0.00, 0.00, 0.00, 0.00, 0.00, 0.00, 0.00
200, 1637.96, 63115.96, 3385.51, 28241.90, -20166.17, -2822.71, 9684.25, -52263.81, -9516.97, 36323.93, 2508.80, -28121.67, 0.00, 0.00, 0.00, 0.00, 0.00, 0.00, 0.00
201, 1626.58, 63102.28, 3375.27, 28226.59, -20170.93, -2831.68, 9676.74, -52273.24, -9516.97, 36323.93, 2508.80, -28121.67, 0.00, 0.00, 0.00, 0.00, 0.00, 0.00, 0.00
202, 1626.58, 63102.28, 3375.27, 28226.59, -20170.93, -2831.68, 9676.74, -52273.24, -9519.90, 36306.52, 2498.81, -28105.35, 0.00, 0.00, 0.00, 0.00, 0.00, 0.00, 0.00
203, 1636.42, 63117.37, 3389.22, 28246.19, -20159.44, -2820.97, 9696.95, -52260.66, -9519.90, 36306.52, 2498.81, -28105.35, 0.00, 0.00, 0.00, 0.00, 0.00, 0.00, 0.00
204, 1636.42, 63117.37, 3389.22, 28246.19, -20159.44, -2820.97, 9696.95, -52260.66, -9518.76, 36319.13, 2511.04, -28132.78, 0.00, 0.00, 0.00, 0.00, 0.00, 0.00, 0.00
205, 1622.38, 63098.04, 3371.49, 28227.99, -20176.70, -2834.38, 9686.73, -52276.57, -9518.76, 36319.13, 2511.04, -28132.78, 0.00, 0.00, 0.00, 0.00, 0.00, 0.00, 0.00
206, 1622.38, 63098.04, 3371.49, 28227.99, -20176.70, -2834.38, 9686.73, -52276.57, -9527.45, 36301.02, 2487.06, -28123.01, 0.00, 0.00, 0.00, 0.00, 0.00, 0.00, 0.00
207, 1638.67, 63111.96, 3384.14, 28242.70, -20166.79, -2824.32, 9707.70, -52265.48, -9527.45, 36301.02, 2487.06, -28123.01, 0.00, 0.00, 0.00, 0.00, 0.10, 0.38, 0.93
208, 1638.67, 63111.96, 3384.14, 28242.70, -20166.79, -2824.32, 9707.70, -52265.48, -9525.06, 36317.89, 2506.14, -28125.38, 0.00, 0.00, 0.00, 0.00, 0.00, 0.00, 0.00
209, 1632.79, 63098.86, 3376.05, 28235.35, -20171.55, -2830.00, 9702.29, -52274.20, -9525.06, 36317.89, 2506.14, -28125.38, 0.00, 0.00, 0.00, 0.00, 0.00, 0.00, 0.00
210, 1632.79, 63098.86, 3376.05, 28235.35, -20171.55, -2830.00, 9702.29, -52274.20, -9523.34, 36301.69, 2487.32, -28093.88, 0.00, 0.00, 0.00, 0.00, 0.00, 0.00, 0.00
211, 1632.66, 63105.23, 3382.49, 28244.40, -20168.13, -2823.90, 9718.69, -52269.46, -9523.34, 36301.69, 2487.32, -28093.88, 0.00, 0.00, 0.00, 0.00, 0.00, 0.00, 0.00
212, 1632.66, 63105.23, 3382.49, 28244.40, -20168.13, -2823.90, 9718.69, -52269.46, -9525.93, 36323.28, 2507.42, -28117.44, 0.00, 0.00, 0.00, 0.00, 0.00, 0.00, 0.00
213, 1626.00, 63095.42, 3374.13, 28234.05, -20168.27, -2829.86, 9718.05, -52274.58, -9525.93, 36323.28, 2507.42, -28117.44, 0.00, 0.00, 0.00, 0.00, 0.00, 0.00, 0.00
214, 1626.00, 63095.42, 3374.13, 28234.05, -20168.27, -2829.86, 9718.05, -52274.58, -9523.41, 36300.71, 2487.06, -28111.21, 0.00, 0.00, 0.00, 0.00, 0.00, 0.00, 0.00
215, 1630.27, 63102.06, 3381.91, 28246.17, -20161.45, -2821.28, 9735.30, -52266.73, -9523.41, 36300.71, 2487.06, -28111.21, 0.00, 0.00, 0.00, 0.00, 0.00, 0.00, 0.00
