%OpenBCI Raw EEG Data
%
%Sample Rate = 250.0 Hz
%First Column = SampleIndex
%Other Columns = EEG data in microvolts followed by Accel Data (in G) interleaved with Aux Data
0, 0.00, 0.00, 0.00, 0.00, 0.00, 0.00, 0.00, 0.00, -997.94, 20745.03, 6690.93, -18579.62, 0.00, 0.00, 0.00, 0.00, -0.05, 0.18, 0.46
1, 5194.19, 75577.62, 12776.99, 32813.23, -31427.31, -3541.83, 8010.42, -34702.94, -997.94, 20745.03, 6690.93, -18579.62, 0.00, 0.00, 0.00, 0.00, 0.00, 0.00, 0.00
2, 5194.19, 75577.62, 12776.99, 32813.23, -31427.31, -3541.83, 8010.42, -34702.94, -1985.24, 41536.65, 13398.64, -37139.01, 0.00, 0.00, 0.00, 0.00, 0.00, 0.00, 0.00
3, 5191.48, 75562.44, 12768.17, 32808.38, -31434.02, -3538.93, 8006.46, -34707.16, -1985.24, 41536.65, 13398.64, -37139.01, 0.00, 0.00, 0.00, 0.00, 0.00, 0.00, 0.00
4, 5191.48, 75562.44, 12768.17, 32808.38, -31434.02, -3538.93, 8006.46, -34707.16, -1976.77, 41509.47, 13387.80, -37140.39, 0.00, 0.00, 0.00, 0.00, 0.00, 0.00, 0.00
5, 5191.17, 75568.88, 12771.61, 32810.50, -31428.05, -3541.70, 8016.61, -34706.54, -1976.77, 41509.47, 13387.80, -37140.39, 0.00, 0.00, 0.00, 0.00, 0.00, 0.00, 0.00
6, 5191.17, 75568.88, 12771.61, 32810.50, -31428.05, -3541.70, 8016.61, -34706.54, -2003.16, 41512.75, 13393.39, -37158.16, 0.00, 0.00, 0.00, 0.00, -0.12, 0.36, 0.92
7, 5185.81, 75560.67, 12763.45, 32808.52, -31440.68, -3546.77, 8007.04, -34729.56, -2003.16, 41512.75, 13393.39, -37158.16, 0.00, 0.00, 0.00, 0.00, 0.00, 0.00, 0.00
8, 5185.81, 75560.67, 12763.45, 32808.52, -31440.68, -3546.77, 8007.04, -34729.56, -1989.66, 41484.48, 13376.45, -37156.06, 0.00, 0.00, 0.00, 0.00, 0.00, 0.00, 0.00
9, 5180.31, 75560.78, 12760.74, 32802.64, -31440.30, -3546.82, 8018.08, -34723.32, -1989.66, 41484.48, 13376.45, -37156.06, 0.00, 0.00, 0.00, 0.00, 0.00, 0.00, 0.00
10, 5180.31, 75560.78, 12760.74, 32802.64, -31440.30, -3546.82, 8018.08, -34723.32, -1986.02, 41514.59, 13398.93, -37153.31, 0.00, 0.00, 0.00, 0.00, 0.00, 0.00, 0.00
11, 5187.48, 75570.46, 12769.62, 32810.06, -31434.73, -3544.70, 8022.22, -34725.22, -1986.02, 41514.59, 13398.93, -37153.31, 0.00, 0.00, 0.00, 0.00, 0.00, 0.00, 0.00
12, 5187.48, 75570.46, 12769.62, 32810.06, -31434.73, -3544.70, 8022.22, -34725.22, -1978.98, 41492.73, 13384.27, -37155.66, 0.00, 0.00, 0.00, 0.00, 0.00, 0.00, 0.00
13, 5192.18, 75566.55, 12766.80, 32812.25, -31434.24, -3540.78, 8031.36, -34720.46, -1978.98, 41492.73, 13384.27, -37155.66, 0.00, 0.00, 0.00, 0.00, 0.00, 0.00, 0.00
14, 5192.18, 75566.55, 12766.80, 32812.25, -31434.24, -3540.78, 8031.36, -34720.46, -1993.73, 41497.35, 13400.03, -37181.70, 0.00, 0.00, 0.00, 0.00, 0.00, 0.00, 0.00
15, 5191.10, 75565.92, 12767.45, 32808.70, -31433.44, -3559.09, 8032.55, -34740.09, -1993.73, 41497.35, 13400.03, -37181.70, 0.00, 0.00, 0.00, 0.00, 0.00, 0.00, 0.00
16, 5191.10, 75565.92, 12767.45, 32808.70, -31433.44, -3559.09, 8032.55, -34740.09, -1993.55, 41472.21, 13384.58, -37188.07, 0.00, 0.00, 0.00, 0.00, -0.11, 0.36, 0.92
17, 5183.84, 75559.71, 12759.85, 32802.37, -31442.64, -3555.38, 8027.41, -34742.50, -1993.55, 41472.21, 13384.58, -37188.07, 0.00, 0.00, 0.00, 0.00, 0.00, 0.00, 0.00
18, 5183.84, 75559.71, 12759.85, 32802.37, -31442.64, -3555.38, 8027.41, -34742.50, -1983.61, 41497.18, 13400.23, -37175.42, 0.00, 0.00, 0.00, 0.00, 0.00, 0.00, 0.00
19, 5203.87, 75582.60, 12780.84, 32828.23, -31429.26, -3527.55, 8046.83, -34730.43, -1983.61, 41497.18, 13400.23, -37175.42, 0.00, 0.00, 0.00, 0.00, 0.00, 0.00, 0.00
20, 5203.87, 75582.60, 12780.84, 32828.23, -31429.26, -3527.55, 8046.83, -34730.43, -1984.63, 41470.73, 13389.23, -37163.64, 0.00, 0.00, 0.00, 0.00, 0.00, 0.00, 0.00
21, 5188.60, 75568.01, 12765.66, 32804.78, -31440.57, -3563.25, 8043.39, -34746.55, -1984.63, 41470.73, 13389.23, -37163.64, 0.00, 0.00, 0.00, 0.00, 0.00, 0.00, 0.00
22, 5188.60, 75568.01, 12765.66, 32804.78, -31440.57, -3563.25, 8043.39, -34746.55, -1989.26, 41479.25, 13405.32, -37185.66, 0.00, 0.00, 0.00, 0.00, 0.00, 0.00, 0.00
23, 5202.44, 75582.76, 12776.23, 32817.68, -31432.18, -3558.62, 8057.45, -34738.41, -1989.26, 41479.25, 13405.32, -37185.66, 0.00, 0.00, 0.00, 0.00, 0.00, 0.00, 0.00
24, 5202.44, 75582.76, 12776.23, 32817.68, -31432.18, -3558.62, 8057.45, -34738.41, -1980.05, 41472.18, 13394.04, -37182.95, 0.00, 0.00, 0.00, 0.00, 0.00, 0.00, 0.00
25, 5177.29, 75556.25, 12754.78, 32790.97, -31447.76, -3573.75, 8036.30, -34765.39, -1980.05, 41472.18, 13394.04, -37182.95, 0.00, 0.00, 0.00, 0.00, 0.00, 0.00, 0.00
26, 5177.29, 75556.25, 12754.78, 32790.97, -31447.76, -3573.75, 8036.30, -34765.39, -1967.58, 41485.66, 13395.96, -37192.14, 0.00, 0.00, 0.00, 0.00, -0.11, 0.35, 0.92
27, 5197.18, 75584.59, 12779.21, 32820.36, -31422.86, -3545.43, 8067.86, -34735.53, -1967.58, 41485.66, 13395.96, -37192.14, 0.00, 0.00, 0.00, 0.00, 0.00, 0.00, 0.00
28, 5197.18, 75584.59, 12779.21, 32820.36, -31422.86, -3545.43, 8067.86, -34735.53, -1977.86, 41464.68, 13396.47, -37196.30, 0.00, 0.00, 0.00, 0.00, 0.00, 0.00, 0.00
29, 5184.04, 75558.77, 12754.24, 32797.70, -31457.80, -3565.71, 8032.52, -34784.05, -1977.86, 41464.68, 13396.47, -37196.30, 0.00, 0.00, 0.00, 0.00, 0.00, 0.00, 0.00
30, 5184.04, 75558.77, 12754.24, 32797.70, -31457.80, -3565.71, 8032.52, -34784.05, -1995.97, 41455.15, 13389.23, -37217.55, 0.00, 0.00, 0.00, 0.00, 0.00, 0.00, 0.00
31, 5194.10, 75575.63, 12770.18, 32814.44, -31438.62, -3566.11, 8064.38, -34761.34, -1995.97, 41455.15, 13389.23, -37217.55, 0.00, 0.00, 0.00, 0.00, 0.00, 0.00, 0.00
32, 5194.10, 75575.63, 12770.18, 32814.44, -31438.62, -3566.11, 8064.38, -34761.34, -1970.51, 41471.11, 13388.54, -37207.52, 0.00, 0.00, 0.00, 0.00, 0.00, 0.00, 0.00
33, 5180.53, 75551.04, 12748.27, 32791.71, -31464.33, -3581.73, 8034.87, -34793.57, -1970.51, 41471.11, 13388.54, -37207.52, 0.00, 0.00, 0.00, 0.00, 0.00, 0.00, 0.00
34, 5180.53, 75551.04, 12748.27, 32791.71, -31464.33, -3581.73, 8034.87, -34793.57, -1983.11, 41442.37, 13390.24, -37223.21, 0.00, 0.00, 0.00, 0.00, 0.00, 0.00, 0.00
35, 5197.16, 75578.98, 12772.34, 32815.60, -31439.00, -3565.08, 8054.36, -34787.98, -1983.11, 41442.37, 13390.24, -37223.21, 0.00, 0.00, 0.00, 0.00, 0.00, 0.00, 0.00
36, 5197.16, 75578.98, 12772.34, 32815.60, -31439.00, -3565.08, 8054.36, -34787.98, -1983.40, 41443.98, 13398.13, -37236.80, 0.00, 0.00, 0.00, 0.00, -0.11, 0.35, 0.93
37, 5182.36, 75559.71, 12755.11, 32793.36, -31462.78, -3585.49, 8037.55, -34810.36, -1983.40, 41443.98, 13398.13, -37236.80, 0.00, 0.00, 0.00, 0.00, 0.00, 0.00, 0.00
38, 5182.36, 75559.71, 12755.11, 32793.36, -31462.78, -3585.49, 8037.55, -34810.36, -1983.36, 41443.48, 13388.36, -37232.98, 0.00, 0.00, 0.00, 0.00, 0.00, 0.00, 0.00
39, 5199.64, 75579.34, 12771.50, 32814.24, -31441.91, -3566.29, 8060.33, -34791.14, -1983.36, 41443.48, 13388.36, -37232.98, 0.00, 0.00, 0.00, 0.00, 0.00, 0.00, 0.00
40, 5199.64, 75579.34, 12771.50, 32814.24, -31441.91, -3566.29, 8060.33, -34791.14, -1981.86, 41446.05, 13402.24, -37230.81, 0.00, 0.00, 0.00, 0.00, 0.00, 0.00, 0.00
41, 5181.47, 75559.09, 12754.15, 32793.07, -31468.71, -3589.40, 8036.03, -34830.83, -1981.86, 41446.05, 13402.24, -37230.81, 0.00, 0.00, 0.00, 0.00, 0.00, 0.00, 0.00
42, 5181.47, 75559.09, 12754.15, 32793.07, -31468.71, -3589.40, 8036.03, -34830.83, -1985.51, 41424.22, 13378.97, -37241.47, 0.00, 0.00, 0.00, 0.00, 0.00, 0.00, 0.00
43, 5181.98, 75566.48, 12757.44, 32793.32, -31463.57, -3593.83, 8043.48, -34822.65, -1985.51, 41424.22, 13378.97, -37241.47, 0.00, 0.00, 0.00, 0.00, 0.00, 0.00, 0.00
44, 5181.98, 75566.48, 12757.44, 32793.32, -31463.57, -3593.83, 8043.48, -34822.65, -1996.30, 41415.43, 13399.29, -37261.07, 0.00, 0.00, 0.00, 0.00, 0.00, 0.00, 0.00
45, 5178.16, 75557.55, 12752.16, 32785.34, -31471.84, -3599.08, 8036.28, -34835.10, -1996.30, 41415.43, 13399.29, -37261.07, 0.00, 0.00, 0.00, 0.00, -0.11, 0.35, 0.93
46, 5178.16, 75557.55, 12752.16, 32785.34, -31471.84, -3599.08, 8036.28, -34835.10, -1966.33, 41420.60, 13383.67, -37242.79, 0.00, 0.00, 0.00, 0.00, 0.00, 0.00, 0.00
47, 5192.09, 75570.58, 12761.35, 32794.81, -31457.31, -3594.16, 8053.62, -34817.20, -1966.33, 41420.60, 13383.67, -37242.79, 0.00, 0.00, 0.00, 0.00, 0.00, 0.00, 0.00
48, 5192.09, 75570.58, 12761.35, 32794.81, -31457.31, -3594.16, 8053.62, -34817.20, -1999.90, 41417.78, 13397.34, -37271.04, 0.00, 0.00, 0.00, 0.00, 0.00, 0.00, 0.00
49, 5183.73, 75558.88, 12750.57, 32786.95, -31474.72, -3598.88, 8038.25, -34852.98, -1999.90, 41417.78, 13397.34, -37271.04, 0.00, 0.00, 0.00, 0.00, 0.00, 0.00, 0.00
50, 5183.73, 75558.88, 12750.57, 32786.95, -31474.72, -3598.88, 8038.25, -34852.98, -1984.30, 41396.88, 13378.73, -37258.59, 0.00, 0.00, 0.00, 0.00, 0.00, 0.00, 0.00
51, 5188.60, 75569.52, 12758.98, 32798.90, -31465.22, -3590.92, 8052.69, -34829.29, -1984.30, 41396.88, 13378.73, -37258.59, 0.00, 0.00, 0.00, 0.00, 0.00, 0.00, 0.00
52, 5188.60, 75569.52, 12758.98, 32798.90, -31465.22, -3590.92, 8052.69, -34829.29, -1992.32, 41431.15, 13402.62, -37262.50, 0.00, 0.00, 0.00, 0.00, 0.00, 0.00, 0.00
53, 5182.74, 75561.30, 12752.07, 32790.16, -31478.34, -3606.25, 8042.67, -34854.59, -1992.32, 41431.15, 13402.62, -37262.50, 0.00, 0.00, 0.00, 0.00, 0.00, 0.00, 0.00
54, 5182.74, 75561.30, 12752.07, 32790.16, -31478.34, -3606.25, 8042.67, -34854.59, -1980.48, 41374.55, 13379.26, -37279.18, 0.00, 0.00, 0.00, 0.00, 0.00, 0.00, 0.00
55, 5183.17, 75561.39, 12753.82, 32795.11, -31469.38, -3601.85, 8052.53, -34851.89, -1980.48, 41374.55, 13379.26, -37279.18, 0.00, 0.00, 0.00, 0.00, -0.11, 0.36, 0.93
56, 5183.17, 75561.39, 12753.82, 32795.11, -31469.38, -3601.85, 8052.53, -34851.89, -1995.32, 41406.43, 13392.79, -37279.24, 0.00, 0.00, 0.00, 0.00, 0.00, 0.00, 0.00
57, 5181.31, 75558.64, 12744.47, 32781.87, -31484.44, -3609.11, 8042.96, -34863.22, -1995.32, 41406.43, 13392.79, -37279.24, 0.00, 0.00, 0.00, 0.00, 0.00, 0.00, 0.00
58, 5181.31, 75558.64, 12744.47, 32781.87, -31484.44, -3609.11, 8042.96, -34863.22, -2004.21, 41373.28, 13369.63, -37274.86, 0.00, 0.00, 0.00, 0.00, 0.00, 0.00, 0.00
59, 5175.28, 75553.38, 12747.80, 32787.06, -31476.75, -3603.59, 8052.93, -34858.15, -2004.21, 41373.28, 13369.63, -37274.86, 0.00, 0.00, 0.00, 0.00, 0.00, 0.00, 0.00
60, 5175.28, 75553.38, 12747.80, 32787.06, -31476.75, -3603.59, 8052.93, -34858.15, -1996.75, 41411.19, 13397.55, -37272.00, 0.00, 0.00, 0.00, 0.00, 0.00, 0.00, 0.00
61, 5182.94, 75556.74, 12749.55, 32794.41, -31480.71, -3604.06, 8046.96, -34868.09, -1996.75, 41411.19, 13397.55, -37272.00, 0.00, 0.00, 0.00, 0.00, 0.00, 0.00, 0.00
62, 5182.94, 75556.74, 12749.55, 32794.41, -31480.71, -3604.06, 8046.96, -34868.09, -1995.63, 41365.68, 13374.01, -37279.87, 0.00, 0.00, 0.00, 0.00, 0.00, 0.00, 0.00
63, 5173.29, 75545.27, 12736.63, 32765.42, -31494.72, -3633.14, 8046.99, -34878.73, -1995.63, 41365.68, 13374.01, -37279.87, 0.00, 0.00, 0.00, 0.00, 0.00, 0.00, 0.00
64, 5173.29, 75545.27, 12736.63, 32765.42, -31494.72, -3633.14, 8046.99, -34878.73, -1995.72, 41393.93, 13381.25, -37277.84, 0.00, 0.00, 0.00, 0.00, 0.00, 0.00, 0.00
65, 5185.54, 75566.84, 12755.02, 32798.05, -31475.75, -3601.16, 8069.69, -34857.75, -1995.72, 41393.93, 13381.25, -37277.84, 0.00, 0.00, 0.00, 0.00, -0.10, 0.36, 0.93
66, 5185.54, 75566.84, 12755.02, 32798.05, -31475.75, -3601.16, 8069.69, -34857.75, -2003.59, 41370.95, 13375.19, -37273.54, 0.00, 0.00, 0.00, 0.00, 0.00, 0.00, 0.00
67, 5170.70, 75544.76, 12735.46, 32773.94, -31498.75, -3618.39, 8046.23, -34881.13, -2003.59, 41370.95, 13375.19, -37273.54, 0.00, 0.00, 0.00, 0.00, 0.00, 0.00, 0.00
68, 5170.70, 75544.76, 12735.46, 32773.94, -31498.75, -3618.39, 8046.23, -34881.13, -1993.35, 41400.95, 13377.90, -37266.21, 0.00, 0.00, 0.00, 0.00, 0.00, 0.00, 0.00
69, 5178.65, 75551.73, 12746.57, 32789.16, -31476.84, -3611.10, 8075.33, -34855.96, -1993.35, 41400.95, 13377.90, -37266.21, 0.00, 0.00, 0.00, 0.00, 0.00, 0.00, 0.00
70, 5178.65, 75551.73, 12746.57, 32789.16, -31476.84, -3611.10, 8075.33, -34855.96, -1976.12, 41404.44, 13387.53, -37250.70, 0.00, 0.00, 0.00, 0.00, 0.00, 0.00, 0.00
71, 5176.75, 75551.62, 12741.59, 32776.66, -31488.35, -3618.21, 8062.63, -34874.02, -1976.12, 41404.44, 13387.53, -37250.70, 0.00, 0.00, 0.00, 0.00, 0.00, 0.00, 0.00
72, 5176.75, 75551.62, 12741.59, 32776.66, -31488.35, -3618.21, 8062.63, -34874.02, -1994.98, 41385.30, 13392.34, -37271.69, 0.00, 0.00, 0.00, 0.00, 0.00, 0.00, 0.00
73, 5187.93, 75572.41, 12757.26, 32794.21, -31469.69, -3606.48, 8087.69, -34855.06, -1994.98, 41385.30, 13392.34, -37271.69, 0.00, 0.00, 0.00, 0.00, 0.00, 0.00, 0.00
74, 5187.93, 75572.41, 12757.26, 32794.21, -31469.69, -3606.48, 8087.69, -34855.06, -1984.30, 41393.20, 13379.78, -37249.38, 0.00, 0.00, 0.00, 0.00, 0.00, 0.00, 0.00
75, 5178.05, 75552.45, 12738.79, 32776.57, -31492.85, -3616.56, 8063.08, -34877.57, -1984.30, 41393.20, 13379.78, -37249.38, 0.00, 0.00, 0.00, 0.00, -0.11, 0.36, 0.94
76, 5178.05, 75552.45, 12738.79, 32776.57, -31492.85, -3616.56, 8063.08, -34877.57, -1984.52, 41402.92, 13393.63, -37250.16, 0.00, 0.00, 0.00, 0.00, 0.00, 0.00, 0.00
77, 5196.91, 75582.24, 12765.10, 32798.61, -31465.33, -3601.04, 8097.34, -34849.59, -1984.52, 41402.92, 13393.63, -37250.16, 0.00, 0.00, 0.00, 0.00, 0.00, 0.00, 0.00
78, 5196.91, 75582.24, 12765.10, 32798.61, -31465.33, -3601.04, 8097.34, -34849.59, -1962.86, 41410.70, 13391.24, -37239.48, 0.00, 0.00, 0.00, 0.00, 0.00, 0.00, 0.00
79, 5181.34, 75555.38, 12745.48, 32782.65, -31482.19, -3616.29, 8087.13, -34855.96, -1962.86, 41410.70, 13391.24, -37239.48, 0.00, 0.00, 0.00, 0.00, 0.00, 0.00, 0.00
80, 5181.34, 75555.38, 12745.48, 32782.65, -31482.19, -3616.29, 8087.13, -34855.96, -1962.42, 41418.05, 13385.10, -37236.93, 0.00, 0.00, 0.00, 0.00, 0.00, 0.00, 0.00
81, 5187.82, 75567.27, 12755.69, 32798.34, -31474.68, -3609.61, 8096.18, -34857.05, -1962.42, 41418.05, 13385.10, -37236.93, 0.00, 0.00, 0.00, 0.00, 0.00, 0.00, 0.00
82, 5187.82, 75567.27, 12755.69, 32798.34, -31474.68, -3609.61, 8096.18, -34857.05, -2000.77, 41387.27, 13391.87, -37251.26, 0.00, 0.00, 0.00, 0.00, 0.00, 0.00, 0.00
83, 5176.31, 75549.36, 12739.51, 32777.67, -31493.27, -3625.61, 8075.31, -34883.05, -2000.77, 41387.27, 13391.87, -37251.26, 0.00, 0.00, 0.00, 0.00, 0.00, 0.00, 0.00
84, 5176.31, 75549.36, 12739.51, 32777.67, -31493.27, -3625.61, 8075.31, -34883.05, -1973.88, 41407.05, 13395.29, -37239.84, 0.00, 0.00, 0.00, 0.00, -0.11, 0.36, 0.94
85, 5197.58, 75579.67, 12766.76, 32806.39, -31460.75, -3593.49, 8118.22, -34842.41, -1973.88, 41407.05, 13395.29, -37239.84, 0.00, 0.00, 0.00, 0.00, 0.00, 0.00, 0.00
86, 5197.58, 75579.67, 12766.76, 32806.39, -31460.75, -3593.49, 8118.22, -34842.41, -1966.04, 41420.26, 13394.24, -37234.07, 0.00, 0.00, 0.00, 0.00, 0.00, 0.00, 0.00
87, 5187.82, 75569.03, 12754.46, 32791.02, -31481.92, -3613.43, 8090.64, -34870.55, -1966.04, 41420.26, 13394.24, -37234.07, 0.00, 0.00, 0.00, 0.00, 0.00, 0.00, 0.00
88, 5187.82, 75569.03, 12754.46, 32791.02, -31481.92, -3613.43, 8090.64, -34870.55, -1965.12, 41404.19, 13392.32, -37229.98, 0.00, 0.00, 0.00, 0.00, 0.00, 0.00, 0.00
89, 5190.57, 75574.15, 12758.73, 32799.89, -31470.56, -3609.81, 8111.34, -34855.67, -1965.12, 41404.19, 13392.32, -37229.98, 0.00, 0.00, 0.00, 0.00, 0.00, 0.00, 0.00
90, 5190.57, 75574.15, 12758.73, 32799.89, -31470.56, -3609.81, 8111.34, -34855.67, -1985.55, 41398.98, 13388.00, -37243.23, 0.00, 0.00, 0.00, 0.00, 0.00, 0.00, 0.00
91, 5181.85, 75560.05, 12745.50, 32783.64, -31484.69, -3622.06, 8094.80, -34881.13, -1985.55, 41398.98, 13388.00, -37243.23, 0.00, 0.00, 0.00, 0.00, 0.00, 0.00, 0.00
92, 5181.85, 75560.05, 12745.50, 32783.64, -31484.69, -3622.06, 8094.80, -34881.13, -1974.60, 41399.43, 13396.27, -37235.88, 0.00, 0.00, 0.00, 0.00, 0.00, 0.00, 0.00
93, 5192.18, 75573.55, 12755.67, 32807.22, -31472.71, -3592.62, 8120.21, -34852.09, -1974.60, 41399.43, 13396.27, -37235.88, 0.00, 0.00, 0.00, 0.00, 0.00, 0.00, 0.00
94, 5192.18, 75573.55, 12755.67, 32807.22, -31472.71, -3592.62, 8120.21, -34852.09, -1977.35, 41422.59, 13390.19, -37232.98, 0.00, 0.00, 0.00, 0.00, -0.11, 0.35, 0.93
95, 5182.16, 75563.13, 12744.88, 32780.11, -31491.42, -3630.62, 8106.42, -34869.37, -1977.35, 41422.59, 13390.19, -37232.98, 0.00, 0.00, 0.00, 0.00, 0.00, 0.00, 0.00
96, 5182.16, 75563.13, 12744.88, 32780.11, -31491.42, -3630.62, 8106.42, -34869.37, -1963.53, 41403.21, 13388.78, -37230.99, 0.00, 0.00, 0.00, 0.00, 0.00, 0.00, 0.00
97, 5194.90, 75577.64, 12760.12, 32809.05, -31474.12, -3607.95, 8119.36, -34866.91, -1963.53, 41403.21, 13388.78, -37230.99, 0.00, 0.00, 0.00, 0.00, 0.00, 0.00, 0.00
98, 5194.90, 75577.64, 12760.12, 32809.05, -31474.12, -3607.95, 8119.36, -34866.91, -1980.79, 41400.26, 13395.53, -37241.13, 0.00, 0.00, 0.00, 0.00, 0.00, 0.00, 0.00
99, 5184.55, 75564.07, 12747.65, 32791.42, -31482.43, -3615.31, 8113.93, -34874.33, -1980.79, 41400.26, 13395.53, -37241.13, 0.00, 0.00, 0.00, 0.00, 0.00, 0.00, 0.00
100, 5184.55, 75564.07, 12747.65, 32791.42, -31482.43, -3615.31, 8113.93, -34874.33, -1942.46, 41409.02, 13395.20, -37224.75, 0.00, 0.00, 0.00, 0.00, 0.00, 0.00, 0.00
101, 5197.29, 75572.03, 12759.11, 32805.70, -31471.72, -3609.25, 8128.35, -34857.68, -1942.46, 41409.02, 13395.20, -37224.75, 0.00, 0.00, 0.00, 0.00, 0.00, 0.00, 0.00
102, 5197.29, 75572.03, 12759.11, 32805.70, -31471.72, -3609.25, 8128.35, -34857.68, -1977.19, 41425.78, 13393.63, -37237.94, 0.00, 0.00, 0.00, 0.00, 0.00, 0.00, 0.00
103, 5192.47, 75573.26, 12751.60, 32795.28, -31486.03, -3615.31, 8116.77, -34872.52, -1977.19, 41425.78, 13393.63, -37237.94, 0.00, 0.00, 0.00, 0.00, 0.00, 0.00, 0.00
104, 5192.47, 75573.26, 12751.60, 32795.28, -31486.03, -3615.31, 8116.77, -34872.52, -1943.62, 41407.14, 13395.44, -37210.38, 0.00, 0.00, 0.00, 0.00, -0.10, 0.36, 0.93
105, 5194.86, 75580.09, 12757.79, 32805.61, -31475.66, -3609.72, 8133.20, -34856.96, -1943.62, 41407.14, 13395.44, -37210.38, 0.00, 0.00, 0.00, 0.00, 0.00, 0.00, 0.00
106, 5194.86, 75580.09, 12757.79, 32805.61, -31475.66, -3609.72, 8133.20, -34856.96, -1971.78, 41430.07, 13405.57, -37220.13, 0.00, 0.00, 0.00, 0.00, 0.00, 0.00, 0.00
107, 5187.28, 75569.86, 12752.14, 32794.28, -31482.10, -3613.67, 8132.46, -34863.07, -1971.78, 41430.07, 13405.57, -37220.13, 0.00, 0.00, 0.00, 0.00, 0.00, 0.00, 0.00
108, 5187.28, 75569.86, 12752.14, 32794.28, -31482.10, -3613.67, 8132.46, -34863.07, -1955.11, 41407.63, 13395.24, -37207.43, 0.00, 0.00, 0.00, 0.00, 0.00, 0.00, 0.00
109, 5182.83, 75565.68, 12746.80, 32788.11, -31476.80, -3615.17, 8131.70, -34866.48, -1955.11, 41407.63, 13395.24, -37207.43, 0.00, 0.00, 0.00, 0.00, 0.00, 0.00, 0.00
110, 5182.83, 75565.68, 12746.80, 32788.11, -31476.80, -3615.17, 8131.70, -34866.48, -1933.11, 41444.07, 13402.55, -37210.31, 0.00, 0.00, 0.00, 0.00, 0.00, 0.00, 0.00
111, 5195.01, 75574.91, 12756.10, 32800.18, -31470.56, -3607.17, 8139.23, -34857.72, -1933.11, 41444.07, 13402.55, -37210.31, 0.00, 0.00, 0.00, 0.00, 0.00, 0.00, 0.00
112, 5195.01, 75574.91, 12756.10, 32800.18, -31470.56, -3607.17, 8139.23, -34857.72, -1961.79, 41401.62, 13395.98, -37218.80, 0.00, 0.00, 0.00, 0.00, 0.00, 0.00, 0.00
113, 5183.35, 75567.13, 12747.40, 32785.98, -31483.04, -3630.28, 8135.39, -34871.65, -1961.79, 41401.62, 13395.98, -37218.80, 0.00, 0.00, 0.00, 0.00, 0.00, 0.00, 0.00
114, 5183.35, 75567.13, 12747.40, 32785.98, -31483.04, -3630.28, 8135.39, -34871.65, -1956.56, 41429.11, 13405.28, -37226.02, 0.00, 0.00, 0.00, 0.00, -0.10, 0.35, 0.93
115, 5191.46, 75570.91, 12754.98, 32799.80, -31471.72, -3610.28, 8153.45, -34859.82, -1956.56, 41429.11, 13405.28, -37226.02, 0.00, 0.00, 0.00, 0.00, 0.00, 0.00, 0.00
116, 5191.46, 75570.91, 12754.98, 32799.80, -31471.72, -3610.28, 8153.45, -34859.82, -1944.91, 41399.03, 13393.37, -37219.72, 0.00, 0.00, 0.00, 0.00, 0.00, 0.00, 0.00
117, 5192.71, 75570.40, 12748.14, 32788.40, -31483.37, -3623.02, 8140.77, -34876.86, -1944.91, 41399.03, 13393.37, -37219.72, 0.00, 0.00, 0.00, 0.00, 0.00, 0.00, 0.00
118, 5192.71, 75570.40, 12748.14, 32788.40, -31483.37, -3623.02, 8140.77, -34876.86, -1959.69, 41419.93, 13404.65, -37227.25, 0.00, 0.00, 0.00, 0.00, 0.00, 0.00, 0.00
119, 5202.21, 75584.95, 12763.09, 32807.49, -31465.87, -3604.96, 8156.58, -34855.96, -1959.69, 41419.93, 13404.65, -37227.25, 0.00, 0.00, 0.00, 0.00, 0.00, 0.00, 0.00
120, 5202.21, 75584.95, 12763.09, 32807.49, -31465.87, -3604.96, 8156.58, -34855.96, -1939.01, 41418.03, 13403.51, -37207.79, 0.00, 0.00, 0.00, 0.00, 0.00, 0.00, 0.00
121, 5179.21, 75558.80, 12739.38, 32782.59, -31489.09, -3624.58, 8140.62, -34872.95, -1939.01, 41418.03, 13403.51, -37207.79, 0.00, 0.00, 0.00, 0.00, 0.00, 0.00, 0.00
122, 5179.21, 75558.80, 12739.38, 32782.59, -31489.09, -3624.58, 8140.62, -34872.95, -1939.93, 41430.95, 13392.00, -37219.50, 0.00, 0.00, 0.00, 0.00, 0.00, 0.00, 0.00
123, 5204.22, 75586.09, 12761.88, 32808.52, -31468.64, -3611.57, 8161.31, -34866.42, -1939.93, 41430.95, 13392.00, -37219.50, 0.00, 0.00, 0.00, 0.00, 0.00, 0.00, 0.00
124, 5204.22, 75586.09, 12761.88, 32808.52, -31468.64, -3611.57, 8161.31, -34866.42, -1960.14, 41397.95, 13404.01, -37225.04, 0.00, 0.00, 0.00, 0.00, -0.11, 0.36, 0.93
125, 5190.83, 75571.24, 12750.64, 32797.83, -31480.40, -3618.30, 8146.99, -34876.07, -1960.14, 41397.95, 13404.01, -37225.04, 0.00, 0.00, 0.00, 0.00, 0.00, 0.00, 0.00
126, 5190.83, 75571.24, 12750.64, 32797.83, -31480.40, -3618.30, 8146.99, -34876.07, -1925.63, 41437.45, 13400.99, -37216.28, 0.00, 0.00, 0.00, 0.00, 0.00, 0.00, 0.00
127, 5201.05, 75590.13, 12764.39, 32810.39, -31462.02, -3605.98, 8177.18, -34845.65, -1925.63, 41437.45, 13400.99, -37216.28, 0.00, 0.00, 0.00, 0.00, 0.00, 0.00, 0.00
128, 5201.05, 75590.13, 12764.39, 32810.39, -31462.02, -3605.98, 8177.18, -34845.65, -1927.68, 41435.13, 13413.62, -37194.17, 0.00, 0.00, 0.00, 0.00, 0.00, 0.00, 0.00
129, 5179.50, 75564.72, 12741.83, 32786.54, -31489.52, -3627.04, 8149.09, -34879.54, -1927.68, 41435.13, 13413.62, -37194.17, 0.00, 0.00, 0.00, 0.00, 0.00, 0.00, 0.00
130, 5179.50, 75564.72, 12741.83, 32786.54, -31489.52, -3627.04, 8149.09, -34879.54, -1959.96, 41410.07, 13404.18, -37217.60, 0.00, 0.00, 0.00, 0.00, 0.00, 0.00, 0.00
131, 5205.97, 75590.63, 12765.75, 32811.00, -31463.05, -3597.24, 8176.31, -34857.95, -1959.96, 41410.07, 13404.18, -37217.60, 0.00, 0.00, 0.00, 0.00, 0.00, 0.00, 0.00
132, 5205.97, 75590.63, 12765.75, 32811.00, -31463.05, -3597.24, 8176.31, -34857.95, -1956.45, 41415.77, 13407.58, -37213.29, 0.00, 0.00, 0.00, 0.00, 0.00, 0.00, 0.00
133, 5187.53, 75563.98, 12746.95, 32788.84, -31481.94, -3633.43, 8161.40, -34874.18, -1956.45, 41415.77, 13407.58, -37213.29, 0.00, 0.00, 0.00, 0.00, -0.11, 0.36, 0.93
134, 5187.53, 75563.98, 12746.95, 32788.84, -31481.94, -3633.43, 8161.40, -34874.18, -1917.73, 41433.50, 13412.95, -37197.59, 0.00, 0.00, 0.00, 0.00, 0.00, 0.00, 0.00
135, 5196.98, 75580.92, 12758.69, 32805.23, -31468.80, -3612.98, 8180.60, -34852.29, -1917.73, 41433.50, 13412.95, -37197.59, 0.00, 0.00, 0.00, 0.00, 0.00, 0.00, 0.00
136, 5196.98, 75580.92, 12758.69, 32805.23, -31468.80, -3612.98, 8180.60, -34852.29, -1920.77, 41452.43, 13398.62, -37202.13, 0.00, 0.00, 0.00, 0.00, 0.00, 0.00, 0.00
137, 5183.86, 75565.26, 12746.91, 32788.84, -31476.22, -3623.33, 8165.20, -34872.32, -1920.77, 41452.43, 13398.62, -37202.13, 0.00, 0.00, 0.00, 0.00, 0.00, 0.00, 0.00
138, 5183.86, 75565.26, 12746.91, 32788.84, -31476.22, -3623.33, 8165.20, -34872.32, -1942.77, 41400.17, 13400.18, -37213.84, 0.00, 0.00, 0.00, 0.00, 0.00, 0.00, 0.00
139, 5203.80, 75592.26, 12769.77, 32818.20, -31458.80, -3605.20, 8188.99, -34860.47, -1942.77, 41400.17, 13400.18, -37213.84, 0.00, 0.00, 0.00, 0.00, 0.00, 0.00, 0.00
140, 5203.80, 75592.26, 12769.77, 32818.20, -31458.80, -3605.20, 8188.99, -34860.47, -1944.56, 41423.32, 13421.31, -37214.09, 0.00, 0.00, 0.00, 0.00, 0.00, 0.00, 0.00
141, 5190.28, 75570.28, 12748.79, 32788.29, -31480.17, -3628.47, 8170.03, -34874.49, -1944.56, 41423.32, 13421.31, -37214.09, 0.00, 0.00, 0.00, 0.00, 0.00, 0.00, 0.00
142, 5190.28, 75570.28, 12748.79, 32788.29, -31480.17, -3628.47, 8170.03, -34874.49, -1926.97, 41435.28, 13414.04, -37187.42, 0.00, 0.00, 0.00, 0.00, 0.00, 0.00, 0.00
143, 5209.12, 75596.15, 12775.16, 32815.54, -31453.02, -3608.24, 8202.93, -34847.40, -1926.97, 41435.28, 13414.04, -37187.42, 0.00, 0.00, 0.00, 0.00, -0.11, 0.36, 0.94
144, 5209.12, 75596.15, 12775.16, 32815.54, -31453.02, -3608.24, 8202.93, -34847.40, -1929.34, 41436.58, 13423.18, -37208.72, 0.00, 0.00, 0.00, 0.00, 0.00, 0.00, 0.00
145, 5194.08, 75575.23, 12755.63, 32798.41, -31468.62, -3621.23, 8189.28, -34865.12, -1929.34, 41436.58, 13423.18, -37208.72, 0.00, 0.00, 0.00, 0.00, 0.00, 0.00, 0.00
146, 5194.08, 75575.23, 12755.63, 32798.41, -31468.62, -3621.23, 8189.28, -34865.12, -1913.24, 41419.55, 13415.45, -37196.61, 0.00, 0.00, 0.00, 0.00, 0.00, 0.00, 0.00
147, 5209.48, 75595.56, 12769.42, 32813.52, -31465.76, -3610.19, 8191.98, -34867.74, -1913.24, 41419.55, 13415.45, -37196.61, 0.00, 0.00, 0.00, 0.00, 0.00, 0.00, 0.00
148, 5209.48, 75595.56, 12769.42, 32813.52, -31465.76, -3610.19, 8191.98, -34867.74, -1942.86, 41427.64, 13421.95, -37216.37, 0.00, 0.00, 0.00, 0.00, 0.00, 0.00, 0.00
149, 5195.44, 75584.45, 12758.93, 32798.23, -31473.94, -3620.89, 8181.52, -34872.97, -1942.86, 41427.64, 13421.95, -37216.37, 0.00, 0.00, 0.00, 0.00, 0.00, 0.00, 0.00
150, 5195.44, 75584.45, 12758.93, 32798.23, -31473.94, -3620.89, 8181.52, -34872.97, -1927.19, 41416.11, 13404.74, -37206.63, 0.00, 0.00, 0.00, 0.00, 0.00, 0.00, 0.00
151, 5212.83, 75592.73, 12768.37, 32811.91, -31463.34, -3606.68, 8196.83, -34867.42, -1927.19, 41416.11, 13404.74, -37206.63, 0.00, 0.00, 0.00, 0.00, 0.00, 0.00, 0.00
152, 5212.83, 75592.73, 12768.37, 32811.91, -31463.34, -3606.68, 8196.83, -34867.42, -1934.41, 41435.37, 13421.24, -37202.96, 0.00, 0.00, 0.00, 0.00, 0.00, 0.00, 0.00
153, 5216.09, 75594.58, 12768.50, 32806.84, -31465.78, -3622.21, 8197.48, -34865.05, -1934.41, 41435.37, 13421.24, -37202.96, 0.00, 0.00, 0.00, 0.00, -0.10, 0.36, 0.94
154, 5216.09, 75594.58, 12768.50, 32806.84, -31465.78, -3622.21, 8197.48, -34865.05, -1917.53, 41418.54, 13415.79, -37194.87, 0.00, 0.00, 0.00, 0.00, 0.00, 0.00, 0.00
155, 5205.77, 75583.13, 12760.39, 32804.54, -31471.81, -3616.40, 8201.26, -34863.71, -1917.53, 41418.54, 13415.79, -37194.87, 0.00, 0.00, 0.00, 0.00, 0.00, 0.00, 0.00
156, 5205.77, 75583.13, 12760.39, 32804.54, -31471.81, -3616.40, 8201.26, -34863.71, -1916.62, 41449.10, 13422.22, -37197.79, 0.00, 0.00, 0.00, 0.00, 0.00, 0.00, 0.00
157, 5213.97, 75598.54, 12773.13, 32809.99, -31458.74, -3614.34, 8209.08, -34859.73, -1916.62, 41449.10, 13422.22, -37197.79, 0.00, 0.00, 0.00, 0.00, 0.00, 0.00, 0.00
158, 5213.97, 75598.54, 12773.13, 32809.99, -31458.74, -3614.34, 8209.08, -34859.73, -1926.97, 41411.39, 13421.55, -37197.75, 0.00, 0.00, 0.00, 0.00, 0.00, 0.00, 0.00
159, 5207.69, 75594.78, 12766.82, 32802.84, -31467.90, -3620.60, 8197.52, -34870.75, -1926.97, 41411.39, 13421.55, -37197.75, 0.00, 0.00, 0.00, 0.00, 0.00, 0.00, 0.00
160, 5207.69, 75594.78, 12766.82, 32802.84, -31467.90, -3620.60, 8197.52, -34870.75, -1923.21, 41434.75, 13420.72, -37207.36, 0.00, 0.00, 0.00, 0.00, 0.00, 0.00, 0.00
161, 5212.45, 75599.16, 12770.89, 32815.49, -31466.92, -3607.79, 8206.29, -34872.97, -1923.21, 41434.75, 13420.72, -37207.36, 0.00, 0.00, 0.00, 0.00, 0.00, 0.00, 0.00
162, 5212.45, 75599.16, 12770.89, 32815.49, -31466.92, -3607.79, 8206.29, -34872.97, -1938.25, 41403.45, 13415.61, -37204.72, 0.00, 0.00, 0.00, 0.00, 0.00, 0.00, 0.00
163, 5198.41, 75584.41, 12760.57, 32800.25, -31467.08, -3625.88, 8198.69, -34878.36, -1938.25, 41403.45, 13415.61, -37204.72, 0.00, 0.00, 0.00, 0.00, -0.10, 0.35, 0.93
164, 5198.41, 75584.41, 12760.57, 32800.25, -31467.08, -3625.88, 8198.69, -34878.36, -1920.35, 41444.60, 13422.42, -37194.80, 0.00, 0.00, 0.00, 0.00, 0.00, 0.00, 0.00
165, 5205.70, 75589.46, 12762.15, 32808.71, -31460.17, -3608.93, 8221.02, -34854.28, -1920.35, 41444.60, 13422.42, -37194.80, 0.00, 0.00, 0.00, 0.00, 0.00, 0.00, 0.00
166, 5205.70, 75589.46, 12762.15, 32808.71, -31460.17, -3608.93, 8221.02, -34854.28, -1914.14, 41431.13, 13412.01, -37187.56, 0.00, 0.00, 0.00, 0.00, 0.00, 0.00, 0.00
167, 5200.85, 75582.04, 12760.10, 32805.16, -31471.84, -3617.27, 8200.43, -34880.72, -1914.14, 41431.13, 13412.01, -37187.56, 0.00, 0.00, 0.00, 0.00, 0.00, 0.00, 0.00
168, 5200.85, 75582.04, 12760.10, 32805.16, -31471.84, -3617.27, 8200.43, -34880.72, -1914.58, 41422.30, 13423.25, -37212.64, 0.00, 0.00, 0.00, 0.00, 0.00, 0.00, 0.00
169, 5209.88, 75601.69, 12768.95, 32809.12, -31458.98, -3620.62, 8226.63, -34856.76, -1914.58, 41422.30, 13423.25, -37212.64, 0.00, 0.00, 0.00, 0.00, 0.00, 0.00, 0.00
170, 5209.88, 75601.69, 12768.95, 32809.12, -31458.98, -3620.62, 8226.63, -34856.76, -1918.67, 41421.25, 13419.07, -37193.59, 0.00, 0.00, 0.00, 0.00, 0.00, 0.00, 0.00
171, 5200.89, 75586.22, 12756.65, 32795.75, -31476.64, -3630.46, 8203.36, -34882.82, -1918.67, 41421.25, 13419.07, -37193.59, 0.00, 0.00, 0.00, 0.00, 0.00, 0.00, 0.00
172, 5200.89, 75586.22, 12756.65, 32795.75, -31476.64, -3630.46, 8203.36, -34882.82, -1914.76, 41437.16, 13426.02, -37200.61, 0.00, 0.00, 0.00, 0.00, -0.10, 0.36, 0.93
173, 5209.10, 75599.32, 12768.25, 32812.38, -31463.72, -3612.09, 8223.50, -34865.57, -1914.76, 41437.16, 13426.02, -37200.61, 0.00, 0.00, 0.00, 0.00, 0.00, 0.00, 0.00
174, 5209.10, 75599.32, 12768.25, 32812.38, -31463.72, -3612.09, 8223.50, -34865.57, -1901.75, 41420.95, 13416.92, -37189.64, 0.00, 0.00, 0.00, 0.00, 0.00, 0.00, 0.00
175, 5201.07, 75581.93, 12756.07, 32799.91, -31471.75, -3623.11, 8209.01, -34879.49, -1901.75, 41420.95, 13416.92, -37189.64, 0.00, 0.00, 0.00, 0.00, 0.00, 0.00, 0.00
176, 5201.07, 75581.93, 12756.07, 32799.91, -31471.75, -3623.11, 8209.01, -34879.49, -1930.77, 41413.45, 13429.55, -37211.09, 0.00, 0.00, 0.00, 0.00, 0.00, 0.00, 0.00
177, 5223.69, 75612.64, 12782.78, 32824.92, -31449.62, -3606.61, 8232.91, -34860.11, -1930.77, 41413.45, 13429.55, -37211.09, 0.00, 0.00, 0.00, 0.00, 0.00, 0.00, 0.00
178, 5223.69, 75612.64, 12782.78, 32824.92, -31449.62, -3606.61, 8232.91, -34860.11, -1911.72, 41436.76, 13435.45, -37187.91, 0.00, 0.00, 0.00, 0.00, 0.00, 0.00, 0.00
179, 5200.87, 75586.31, 12758.24, 32796.18, -31473.85, -3632.02, 8212.10, -34884.66, -1911.72, 41436.76, 13435.45, -37187.91, 0.00, 0.00, 0.00, 0.00, 0.00, 0.00, 0.00
180, 5200.87, 75586.31, 12758.24, 32796.18, -31473.85, -3632.02, 8212.10, -34884.66, -1918.16, 41425.29, 13422.92, -37205.64, 0.00, 0.00, 0.00, 0.00, 0.00, 0.00, 0.00
181, 5222.75, 75611.45, 12779.94, 32824.23, -31448.68, -3606.32, 8242.12, -34856.96, -1918.16, 41425.29, 13422.92, -37205.64, 0.00, 0.00, 0.00, 0.00, 0.00, 0.00, 0.00
182, 5222.75, 75611.45, 12779.94, 32824.23, -31448.68, -3606.32, 8242.12, -34856.96, -1909.31, 41438.79, 13438.70, -37189.93, 0.00, 0.00, 0.00, 0.00, -0.10, 0.35, 0.93
183, 5204.54, 75587.80, 12761.84, 32803.55, -31468.62, -3622.57, 8220.21, -34879.25, -1909.31, 41438.79, 13438.70, -37189.93, 0.00, 0.00, 0.00, 0.00, 0.00, 0.00, 0.00
184, 5204.54, 75587.80, 12761.84, 32803.55, -31468.62, -3622.57, 8220.21, -34879.25, -1915.21, 41406.76, 13424.05, -37207.20, 0.00, 0.00, 0.00, 0.00, 0.00, 0.00, 0.00
185, 5225.59, 75608.48, 12779.39, 32822.98, -31451.45, -3607.88, 8238.25, -34871.85, -1915.21, 41406.76, 13424.05, -37207.20, 0.00, 0.00, 0.00, 0.00, 0.00, 0.00, 0.00
186, 5225.59, 75608.48, 12779.39, 32822.98, -31451.45, -3607.88, 8238.25, -34871.85, -1909.87, 41428.31, 13439.08, -37200.03, 0.00, 0.00, 0.00, 0.00, 0.00, 0.00, 0.00
187, 5207.96, 75583.74, 12756.39, 32794.61, -31473.04, -3633.21, 8221.66, -34882.24, -1909.87, 41428.31, 13439.08, -37200.03, 0.00, 0.00, 0.00, 0.00, 0.00, 0.00, 0.00
188, 5207.96, 75583.74, 12756.39, 32794.61, -31473.04, -3633.21, 8221.66, -34882.24, -1902.60, 41416.95, 13416.19, -37200.05, 0.00, 0.00, 0.00, 0.00, 0.00, 0.00, 0.00
189, 5216.99, 75603.39, 12774.45, 32819.69, -31455.36, -3614.90, 8242.92, -34870.89, -1902.60, 41416.95, 13416.19, -37200.05, 0.00, 0.00, 0.00, 0.00, 0.00, 0.00, 0.00
190, 5216.99, 75603.39, 12774.45, 32819.69, -31455.36, -3614.90, 8242.92, -34870.89, -1910.90, 41445.63, 13428.57, -37192.45, 0.00, 0.00, 0.00, 0.00, 0.00, 0.00, 0.00
191, 5194.34, 75580.12, 12754.02, 32799.08, -31473.56, -3623.26, 8225.58, -34878.46, -1910.90, 41445.63, 13428.57, -37192.45, 0.00, 0.00, 0.00, 0.00, 0.00, 0.00, 0.00
192, 5194.34, 75580.12, 12754.02, 32799.08, -31473.56, -3623.26, 8225.58, -34878.46, -1902.36, 41416.73, 13415.61, -37193.46, 0.00, 0.00, 0.00, 0.00, -0.10, 0.35, 0.93
193, 5210.91, 75597.87, 12771.27, 32815.06, -31455.97, -3610.25, 8242.90, -34873.91, -1902.36, 41416.73, 13415.61, -37193.46, 0.00, 0.00, 0.00, 0.00, 0.00, 0.00, 0.00
194, 5210.91, 75597.87, 12771.27, 32815.06, -31455.97, -3610.25, 8242.90, -34873.91, -1904.50, 41434.12, 13431.99, -37198.40, 0.00, 0.00, 0.00, 0.00, 0.00, 0.00, 0.00
195, 5207.31, 75589.44, 12760.79, 32800.13, -31458.87, -3631.69, 8240.10, -34874.89, -1904.50, 41434.12, 13431.99, -37198.40, 0.00, 0.00, 0.00, 0.00, 0.00, 0.00, 0.00
196, 5207.31, 75589.44, 12760.79, 32800.13, -31458.87, -3631.69, 8240.10, -34874.89, -1880.81, 41435.06, 13421.60, -37173.21, 0.00, 0.00, 0.00, 0.00, 0.00, 0.00, 0.00
197, 5212.74, 75596.52, 12766.02, 32804.65, -31460.97, -3625.36, 8245.42, -34868.27, -1880.81, 41435.06, 13421.60, -37173.21, 0.00, 0.00, 0.00, 0.00, 0.00, 0.00, 0.00
198, 5212.74, 75596.52, 12766.02, 32804.65, -31460.97, -3625.36, 8245.42, -34868.27, -1910.34, 41441.41, 13423.27, -37196.01, 0.00, 0.00, 0.00, 0.00, 0.00, 0.00, 0.00
199, 5200.87, 75583.83, 12757.19, 32800.63, -31473.18, -3625.68, 8235.12, -34884.14, -1910.34, 41441.41, 13423.27, -37196.01, 0.00, 0.00, 0.00, 0.00, 0.00, 0.00, 0.00
200, 5200.87, 75583.83, 12757.19, 32800.63, -31473.18, -3625.68, 8235.12, -34884.14, -1889.55, 41425.52, 13419.54, -37183.31, 0.00, 0.00, 0.00, 0.00, 0.00, 0.00, 0.00
201, 5208.94, 75592.08, 12767.18, 32810.44, -31458.74, -3616.80, 8255.08, -34868.16, -1889.55, 41425.52, 13419.54, -37183.31, 0.00, 0.00, 0.00, 0.00, 0.00, 0.00, 0.00
202, 5208.94, 75592.08, 12767.18, 32810.44, -31458.74, -3616.80, 8255.08, -34868.16, -1914.07, 41431.21, 13425.55, -37203.54, 0.00, 0.00, 0.00, 0.00, -0.10, 0.35, 0.93
203, 5207.29, 75590.18, 12763.70, 32808.07, -31457.53, -3620.13, 8244.58, -34884.28, -1914.07, 41431.21, 13425.55, -37203.54, 0.00, 0.00, 0.00, 0.00, 0.00, 0.00, 0.00
204, 5207.29, 75590.18, 12763.70, 32808.07, -31457.53, -3620.13, 8244.58, -34884.28, -1883.31, 41419.75, 13417.68, -37186.02, 0.00, 0.00, 0.00, 0.00, 0.00, 0.00, 0.00
205, 5201.25, 75584.26, 12755.49, 32801.90, -31469.60, -3627.58, 8241.78, -34884.55, -1883.31, 41419.75, 13417.68, -37186.02, 0.00, 0.00, 0.00, 0.00, 0.00, 0.00, 0.00
206, 5201.25, 75584.26, 12755.49, 32801.90, -31469.60, -3627.58, 8241.78, -34884.55, -1898.98, 41441.25, 13426.78, -37195.34, 0.00, 0.00, 0.00, 0.00, 0.00, 0.00, 0.00
207, 5211.47, 75597.48, 12768.14, 32810.71, -31456.95, -3623.11, 8257.34, -34872.65, -1898.98, 41441.25, 13426.78, -37195.34, 0.00, 0.00, 0.00, 0.00, 0.00, 0.00, 0.00
208, 5211.47, 75597.48, 12768.14, 32810.71, -31456.95, -3623.11, 8257.34, -34872.65, -1890.24, 41422.50, 13418.13, -37185.50, 0.00, 0.00, 0.00, 0.00, 0.00, 0.00, 0.00
209, 5199.95, 75585.44, 12758.75, 32804.27, -31465.64, -3627.11, 8253.31, -34879.94, -1890.24, 41422.50, 13418.13, -37185.50, 0.00, 0.00, 0.00, 0.00, 0.00, 0.00, 0.00
210, 5199.95, 75585.44, 12758.75, 32804.27, -31465.64, -3627.11, 8253.31, -34879.94, -1900.41, 41448.05, 13429.44, -37183.80, 0.00, 0.00, 0.00, 0.00, 0.00, 0.00, 0.00
211, 5217.12, 75597.15, 12771.23, 32816.81, -31451.07, -3615.15, 8264.24, -34871.71, -1900.41, 41448.05, 13429.44, -37183.80, 0.00, 0.00, 0.00, 0.00, -0.11, 0.36, 0.93
212, 5217.12, 75597.15, 12771.23, 32816.81, -31451.07, -3615.15, 8264.24, -34871.71, -1885.88, 41422.43, 13421.06, -37187.02, 0.00, 0.00, 0.00, 0.00, 0.00, 0.00, 0.00
213, 5205.79, 75589.33, 12762.00, 32801.90, -31461.89, -3627.42, 8256.78, -34880.10, -1885.88, 41422.43, 13421.06, -37187.02, 0.00, 0.00, 0.00, 0.00, 0.00, 0.00, 0.00
214, 5205.79, 75589.33, 12762.00, 32801.90, -31461.89, -3627.42, 8256.78, -34880.10, -1883.98, 41443.08, 13428.17, -37187.00, 0.00, 0.00, 0.00, 0.00, 0.00, 0.00, 0.00
215, 5218.44, 75600.66, 12770.13, 32816.90, -31455.36, -3612.33, 8266.68, -34869.39, -1883.98, 41443.08, 13428.17, -37187.00, 0.00, 0.00, 0.00, 0.00, 0.00, 0.00, 0.00
216, 5218.44, 75600.66, 12770.13, 32816.90, -31455.36, -3612.33, 8266.68, -34869.39, -1888.16, 41436.82, 13419.65, -37180.85, 0.00, 0.00, 0.00, 0.00, 0.00, 0.00, 0.00
217, 5201.38, 75578.35, 12753.97, 32797.79, -31474.83, -3632.96, 8251.97, -34893.39, -1888.16, 41436.82, 13419.65, -37180.85, 0.00, 0.00, 0.00, 0.00, 0.00, 0.00, 0.00
218, 5201.38, 75578.35, 12753.97, 32797.79, -31474.83, -3632.96, 8251.97, -34893.39, -1898.60, 41428.00, 13415.72, -37198.71, 0.00, 0.00, 0.00, 0.00, 0.00, 0.00, 0.00
219, 5218.33, 75596.28, 12770.58, 32824.83, -31450.83, -3607.44, 8270.75, -34873.04, -1898.60, 41428.00, 13415.72, -37198.71, 0.00, 0.00, 0.00, 0.00, 0.00, 0.00, 0.00
220, 5218.33, 75596.28, 12770.58, 32824.83, -31450.83, -3607.44, 8270.75, -34873.04, -1873.19, 41443.31, 13424.26, -37174.64, 0.00, 0.00, 0.00, 0.00, 0.00, 0.00, 0.00
221, 5201.41, 75578.60, 12754.53, 32800.47, -31465.85, -3634.66, 8259.17, -34881.62, -1873.19, 41443.31, 13424.26, -37174.64, 0.00, 0.00, 0.00, 0.00, -0.11, 0.36, 0.92
222, 5201.41, 75578.60, 12754.53, 32800.47, -31465.85, -3634.66, 8259.17, -34881.62, -1890.94, 41438.77, 13419.20, -37183.91, 0.00, 0.00, 0.00, 0.00, 0.00, 0.00, 0.00
223, 5224.45, 75610.56, 12790.92, 32835.81, -31431.16, -3601.96, 8296.03, -34860.05, -1890.94, 41438.77, 13419.20, -37183.91, 0.00, 0.00, 0.00, 0.00, 0.00, 0.00, 0.00
224, 5224.45, 75610.56, 12790.92, 32835.81, -31431.16, -3601.96, 8296.03, -34860.05, -1864.40, 41444.74, 13462.17, -37168.40, 0.00, 0.00, 0.00, 0.00, 0.00, 0.00, 0.00
225, 5196.76, 75562.38, 12740.83, 32790.19, -31484.44, -3637.21, 8248.96, -34905.62, -1864.40, 41444.74, 13462.17, -37168.40, 0.00, 0.00, 0.00, 0.00, 0.00, 0.00, 0.00
226, 5196.76, 75562.38, 12740.83, 32790.19, -31484.44, -3637.21, 8248.96, -34905.62, -1908.62, 41408.44, 13372.33, -37208.21, 0.00, 0.00, 0.00, 0.00, 0.00, 0.00, 0.00
227, 5209.63, 75587.16, 12757.37, 32791.33, -31470.12, -3631.00, 8266.52, -34884.21, -1908.62, 41408.44, 13372.33, -37208.21, 0.00, 0.00, 0.00, 0.00, 0.00, 0.00, 0.00
228, 5209.63, 75587.16, 12757.37, 32791.33, -31470.12, -3631.00, 8266.52, -34884.21, -1883.49, 41436.76, 13440.73, -37186.73, 0.00, 0.00, 0.00, 0.00, 0.00, 0.00, 0.00
229, 5213.07, 75589.44, 12765.26, 32788.55, -31472.02, -3633.54, 8254.83, -34897.22, -1883.49, 41436.76, 13440.73, -37186.73, 0.00, 0.00, 0.00, 0.00, 0.00, 0.00, 0.00
230, 5213.07, 75589.44, 12765.26, 32788.55, -31472.02, -3633.54, 8254.83, -34897.22, -1878.40, 41436.45, 13441.67, -37176.89, 0.00, 0.00, 0.00, 0.00, 0.00, 0.00, 0.00
231, 5236.97, 75615.57, 12785.33, 32803.87, -31457.96, -3620.18, 8281.77, -34875.52, -1878.40, 41436.45, 13441.67, -37176.89, 0.00, 0.00, 0.00, 0.00, -0.11, 0.36, 0.93
232, 5236.97, 75615.57, 12785.33, 32803.87, -31457.96, -3620.18, 8281.77, -34875.52, -1890.69, 41428.35, 13451.50, -37182.50, 0.00, 0.00, 0.00, 0.00, 0.00, 0.00, 0.00
233, 5218.33, 75595.61, 12770.92, 32778.99, -31471.99, -3642.10, 8262.50, -34901.33, -1890.69, 41428.35, 13451.50, -37182.50, 0.00, 0.00, 0.00, 0.00, 0.00, 0.00, 0.00
234, 5218.33, 75595.61, 12770.92, 32778.99, -31471.99, -3642.10, 8262.50, -34901.33, -1886.96, 41420.42, 13445.40, -37188.23, 0.00, 0.00, 0.00, 0.00, 0.00, 0.00, 0.00
235, 5228.34, 75614.32, 12783.79, 32791.19, -31455.03, -3627.80, 8280.83, -34881.13, -1886.96, 41420.42, 13445.40, -37188.23, 0.00, 0.00, 0.00, 0.00, 0.00, 0.00, 0.00
236, 5228.34, 75614.32, 12783.79, 32791.19, -31455.03, -3627.80, 8280.83, -34881.13, -1878.75, 41440.69, 13455.41, -37192.03, 0.00, 0.00, 0.00, 0.00, 0.00, 0.00, 0.00
237, 5220.63, 75597.04, 12768.72, 32780.55, -31477.76, -3638.98, 8265.70, -34897.60, -1878.75, 41440.69, 13455.41, -37192.03, 0.00, 0.00, 0.00, 0.00, 0.00, 0.00, 0.00
238, 5220.63, 75597.04, 12768.72, 32780.55, -31477.76, -3638.98, 8265.70, -34897.60, -1883.29, 41427.84, 13438.61, -37172.92, 0.00, 0.00, 0.00, 0.00, 0.00, 0.00, 0.00
239, 5229.35, 75610.74, 12782.02, 32796.76, -31463.68, -3631.35, 8283.71, -34887.61, -1883.29, 41427.84, 13438.61, -37172.92, 0.00, 0.00, 0.00, 0.00, 0.00, 0.00, 0.00
240, 5229.35, 75610.74, 12782.02, 32796.76, -31463.68, -3631.35, 8283.71, -34887.61, -1884.30, 41434.32, 13457.02, -37188.09, 0.00, 0.00, 0.00, 0.00, 0.00, 0.00, 0.00
241, 5226.33, 75597.98, 12772.61, 32786.12, -31470.52, -3634.80, 8266.12, -34903.39, -1884.30, 41434.32, 13457.02, -37188.09, 0.00, 0.00, 0.00, 0.00, -0.10, 0.36, 0.94
242, 5226.33, 75597.98, 12772.61, 32786.12, -31470.52, -3634.80, 8266.12, -34903.39, -1877.88, 41418.68, 13444.08, -37184.88, 0.00, 0.00, 0.00, 0.00, 0.00, 0.00, 0.00
243, 5229.75, 75612.04, 12786.90, 32801.56, -31456.99, -3629.99, 8294.02, -34880.52, -1877.88, 41418.68, 13444.08, -37184.88, 0.00, 0.00, 0.00, 0.00, 0.00, 0.00, 0.00
244, 5229.75, 75612.04, 12786.90, 32801.56, -31456.99, -3629.99, 8294.02, -34880.52, -1883.22, 41442.41, 13453.54, -37180.47, 0.00, 0.00, 0.00, 0.00, 0.00, 0.00, 0.00
245, 5225.19, 75597.11, 12771.38, 32789.02, -31469.29, -3635.67, 8279.00, -34895.27, -1883.22, 41442.41, 13453.54, -37180.47, 0.00, 0.00, 0.00, 0.00, 0.00, 0.00, 0.00
246, 5225.19, 75597.11, 12771.38, 32789.02, -31469.29, -3635.67, 8279.00, -34895.27, -1865.14, 41430.28, 13443.32, -37171.62, 0.00, 0.00, 0.00, 0.00, 0.00, 0.00, 0.00
247, 5229.62, 75607.92, 12781.02, 32797.92, -31464.44, -3628.65, 8286.60, -34886.29, -1865.14, 41430.28, 13443.32, -37171.62, 0.00, 0.00, 0.00, 0.00, 0.00, 0.00, 0.00
248, 5229.62, 75607.92, 12781.02, 32797.92, -31464.44, -3628.65, 8286.60, -34886.29, -1883.92, 41441.21, 13449.71, -37186.28, 0.00, 0.00, 0.00, 0.00, 0.00, 0.00, 0.00
249, 5226.35, 75599.50, 12773.42, 32788.00, -31467.19, -3634.68, 8281.14, -34895.57, -1883.92, 41441.21, 13449.71, -37186.28, 0.00, 0.00, 0.00, 0.00, 0.00, 0.00, 0.00
250, 5226.35, 75599.50, 12773.42, 32788.00, -31467.19, -3634.68, 8281.14, -34895.57, -1870.13, 41424.31, 13443.05, -37168.16, 0.00, 0.00, 0.00, 0.00, -0.11, 0.36, 0.94
251, 5228.65, 75605.89, 12777.69, 32792.33, -31466.05, -3637.05, 8285.30, -34891.88, -1870.13, 41424.31, 13443.05, -37168.16, 0.00, 0.00, 0.00, 0.00, 0.00, 0.00, 0.00
252, 5228.65, 75605.89, 12777.69, 32792.33, -31466.05, -3637.05, 8285.30, -34891.88, -1879.98, 41443.60, 13460.64, -37183.98, 0.00, 0.00, 0.00, 0.00, 0.00, 0.00, 0.00
253, 5236.54, 75613.63, 12786.25, 32798.99, -31458.76, -3633.48, 8292.56, -34888.77, -1879.98, 41443.60, 13460.64, -37183.98, 0.00, 0.00, 0.00, 0.00, 0.00, 0.00, 0.00
254, 5236.54, 75613.63, 12786.25, 32798.99, -31458.76, -3633.48, 8292.56, -34888.77, -1867.94, 41420.89, 13450.16, -37175.89, 0.00, 0.00, 0.00, 0.00, 0.00, 0.00, 0.00
255, 5229.95, 75606.29, 12778.31, 32793.99, -31463.39, -3633.66, 8288.52, -34893.08, -1867.94, 41420.89, 13450.16, -37175.89, 0.00, 0.00, 0.00, 0.00, 0.00, 0.00, 0.00
0, 5229.95, 75606.29, 12778.31, 32793.99, -31463.39, -3633.66, 8288.52, -34893.08, -1876.45, 41448.96, 13459.37, -37186.55, 0.00, 0.00, 0.00, 0.00, 0.00, 0.00, 0.00
1, 5236.81, 75616.62, 12786.07, 32801.16, -31460.55, -3630.48, 8297.37, -34891.21, -1876.45, 41448.96, 13459.37, -37186.55, 0.00, 0.00, 0.00, 0.00, 0.00, 0.00, 0.00
2, 5236.81, 75616.62, 12786.07, 32801.16, -31460.55, -3630.48, 8297.37, -34891.21, -1859.98, 41434.43, 13453.67, -37162.99, 0.00, 0.00, 0.00, 0.00, 0.00, 0.00, 0.00
3, 5231.69, 75609.29, 12782.38, 32793.18, -31458.07, -3630.75, 8298.76, -34881.66, -1859.98, 41434.43, 13453.67, -37162.99, 0.00, 0.00, 0.00, 0.00, 0.00, 0.00, 0.00
4, 5231.69, 75609.29, 12782.38, 32793.18, -31458.07, -3630.75, 8298.76, -34881.66, -1854.50, 41466.53, 13464.29, -37158.30, 0.00, 0.00, 0.00, 0.00, -0.10, 0.36, 0.94
5, 5233.19, 75613.47, 12787.43, 32803.66, -31448.61, -3621.70, 8310.65, -34877.64, -1854.50, 41466.53, 13464.29, -37158.30, 0.00, 0.00, 0.00, 0.00, 0.00, 0.00, 0.00
6, 5233.19, 75613.47, 12787.43, 32803.66, -31448.61, -3621.70, 8310.65, -34877.64, -1864.27, 41433.27, 13446.74, -37165.85, 0.00, 0.00, 0.00, 0.00, 0.00, 0.00, 0.00
7, 5212.69, 75595.23, 12769.33, 32780.93, -31473.02, -3645.23, 8288.56, -34902.54, -1864.27, 41433.27, 13446.74, -37165.85, 0.00, 0.00, 0.00, 0.00, 0.00, 0.00, 0.00
8, 5212.69, 75595.23, 12769.33, 32780.93, -31473.02, -3645.23, 8288.56, -34902.54, -1869.08, 41448.11, 13452.75, -37173.97, 0.00, 0.00, 0.00, 0.00, 0.00, 0.00, 0.00
9, 5234.71, 75610.41, 12780.97, 32798.84, -31458.78, -3634.28, 8309.93, -34887.32, -1869.08, 41448.11, 13452.75, -37173.97, 0.00, 0.00, 0.00, 0.00, 0.00, 0.00, 0.00
10, 5234.71, 75610.41, 12780.97, 32798.84, -31458.78, -3634.28, 8309.93, -34887.32, -1859.89, 41435.80, 13449.51, -37168.18, 0.00, 0.00, 0.00, 0.00, 0.00, 0.00, 0.00
11, 5216.03, 75595.79, 12765.77, 32780.15, -31472.28, -3645.79, 8293.39, -34900.23, -1859.89, 41435.80, 13449.51, -37168.18, 0.00, 0.00, 0.00, 0.00, 0.00, 0.00, 0.00
12, 5216.03, 75595.79, 12765.77, 32780.15, -31472.28, -3645.79, 8293.39, -34900.23, -1864.76, 41448.87, 13446.85, -37172.96, 0.00, 0.00, 0.00, 0.00, 0.00, 0.00, 0.00
13, 5235.31, 75623.19, 12787.30, 32804.83, -31452.81, -3625.79, 8315.47, -34882.09, -1864.76, 41448.87, 13446.85, -37172.96, 0.00, 0.00, 0.00, 0.00, 0.00, 0.00, 0.00
14, 5235.31, 75623.19, 12787.30, 32804.83, -31452.81, -3625.79, 8315.47, -34882.09, -1855.22, 41442.64, 13455.37, -37170.66, 0.00, 0.00, 0.00, 0.00, -0.11, 0.36, 0.93
15, 5221.01, 75599.61, 12768.01, 32778.90, -31468.77, -3644.56, 8290.19, -34903.77, -1855.22, 41442.64, 13455.37, -37170.66, 0.00, 0.00, 0.00, 0.00, 0.00, 0.00, 0.00
16, 5221.01, 75599.61, 12768.01, 32778.90, -31468.77, -3644.56, 8290.19, -34903.77, -1851.66, 41452.11, 13462.34, -37163.11, 0.00, 0.00, 0.00, 0.00, 0.00, 0.00, 0.00
17, 5243.12, 75628.71, 12792.77, 32807.78, -31447.34, -3622.32, 8324.50, -34878.11, -1851.66, 41452.11, 13462.34, -37163.11, 0.00, 0.00, 0.00, 0.00, 0.00, 0.00, 0.00
18, 5243.12, 75628.71, 12792.77, 32807.78, -31447.34, -3622.32, 8324.50, -34878.11, -1853.50, 41444.29, 13463.55, -37166.84, 0.00, 0.00, 0.00, 0.00, 0.00, 0.00, 0.00
19, 5225.12, 75602.54, 12769.06, 32775.55, -31472.51, -3655.38, 8297.46, -34903.37, -1853.50, 41444.29, 13463.55, -37166.84, 0.00, 0.00, 0.00, 0.00, 0.00, 0.00, 0.00
20, 5225.12, 75602.54, 12769.06, 32775.55, -31472.51, -3655.38, 8297.46, -34903.37, -1850.23, 41449.95, 13452.17, -37166.99, 0.00, 0.00, 0.00, 0.00, 0.00, 0.00, 0.00
21, 5242.06, 75628.71, 12793.13, 32808.18, -31446.76, -3619.26, 8332.10, -34873.75, -1850.23, 41449.95, 13452.17, -37166.99, 0.00, 0.00, 0.00, 0.00, 0.00, 0.00, 0.00
22, 5242.06, 75628.71, 12793.13, 32808.18, -31446.76, -3619.26, 8332.10, -34873.75, -1854.28, 41454.50, 13460.02, -37160.96, 0.00, 0.00, 0.00, 0.00, 0.00, 0.00, 0.00
23, 5215.58, 75601.47, 12762.26, 32775.88, -31479.17, -3655.09, 8297.66, -34910.68, -1854.28, 41454.50, 13460.02, -37160.96, 0.00, 0.00, 0.00, 0.00, 0.00, 0.00, 0.00
24, 5215.58, 75601.47, 12762.26, 32775.88, -31479.17, -3655.09, 8297.66, -34910.68, -1858.41, 41431.19, 13452.42, -37183.00, 0.00, 0.00, 0.00, 0.00, -0.11, 0.36, 0.93
25, 5246.20, 75633.65, 12794.41, 32807.15, -31446.91, -3625.05, 8332.35, -34883.96, -1858.41, 41431.19, 13452.42, -37183.00, 0.00, 0.00, 0.00, 0.00, 0.00, 0.00, 0.00
26, 5246.20, 75633.65, 12794.41, 32807.15, -31446.91, -3625.05, 8332.35, -34883.96, -1850.61, 41452.74, 13467.22, -37170.08, 0.00, 0.00, 0.00, 0.00, 0.00, 0.00, 0.00
27, 5229.95, 75606.29, 12772.12, 32783.23, -31467.70, -3647.67, 8298.98, -34908.42, -1850.61, 41452.74, 13467.22, -37170.08, 0.00, 0.00, 0.00, 0.00, 0.00, 0.00, 0.00
28, 5229.95, 75606.29, 12772.12, 32783.23, -31467.70, -3647.67, 8298.98, -34908.42, -1845.20, 41445.68, 13453.00, -37173.86, 0.00, 0.00, 0.00, 0.00, 0.00, 0.00, 0.00
29, 5245.69, 75629.00, 12792.91, 32805.34, -31448.05, -3632.36, 8335.01, -34878.09, -1845.20, 41445.68, 13453.00, -37173.86, 0.00, 0.00, 0.00, 0.00, 0.00, 0.00, 0.00
30, 5245.69, 75629.00, 12792.91, 32805.34, -31448.05, -3632.36, 8335.01, -34878.09, -1851.37, 41459.58, 13468.13, -37167.38, 0.00, 0.00, 0.00, 0.00, 0.00, 0.00, 0.00
31, 5230.20, 75616.44, 12779.59, 32787.35, -31460.26, -3643.60, 8321.04, -34896.28, -1851.37, 41459.58, 13468.13, -37167.38, 0.00, 0.00, 0.00, 0.00, 0.00, 0.00, 0.00
32, 5230.20, 75616.44, 12779.59, 32787.35, -31460.26, -3643.60, 8321.04, -34896.28, -1837.60, 41444.63, 13464.53, -37157.54, 0.00, 0.00, 0.00, 0.00, 0.00, 0.00, 0.00
33, 5250.87, 75636.42, 12797.13, 32810.19, -31438.93, -3624.72, 8341.47, -34879.54, -1837.60, 41444.63, 13464.53, -37157.54, 0.00, 0.00, 0.00, 0.00, -0.11, 0.36, 0.93
34, 5250.87, 75636.42, 12797.13, 32810.19, -31438.93, -3624.72, 8341.47, -34879.54, -1840.87, 41459.67, 13470.90, -37168.43, 0.00, 0.00, 0.00, 0.00, 0.00, 0.00, 0.00
35, 5239.16, 75618.99, 12780.41, 32787.88, -31458.40, -3641.46, 8325.24, -34897.82, -1840.87, 41459.67, 13470.90, -37168.43, 0.00, 0.00, 0.00, 0.00, 0.00, 0.00, 0.00
36, 5239.16, 75618.99, 12780.41, 32787.88, -31458.40, -3641.46, 8325.24, -34897.82, -1834.70, 41443.04, 13454.77, -37162.37, 0.00, 0.00, 0.00, 0.00, 0.00, 0.00, 0.00
37, 5236.30, 75625.18, 12787.05, 32794.99, -31451.00, -3634.10, 8339.91, -34887.54, -1834.70, 41443.04, 13454.77, -37162.37, 0.00, 0.00, 0.00, 0.00, 0.00, 0.00, 0.00
38, 5236.30, 75625.18, 12787.05, 32794.99, -31451.00, -3634.10, 8339.91, -34887.54, -1841.92, 41469.77, 13468.58, -37173.65, 0.00, 0.00, 0.00, 0.00, 0.00, 0.00, 0.00
39, 5228.50, 75615.79, 12778.31, 32784.87, -31454.42, -3645.08, 8328.10, -34892.50, -1841.92, 41469.77, 13468.58, -37173.65, 0.00, 0.00, 0.00, 0.00, 0.00, 0.00, 0.00
40, 5228.50, 75615.79, 12778.31, 32784.87, -31454.42, -3645.08, 8328.10, -34892.50, -1822.61, 41455.49, 13463.57, -37160.33, 0.00, 0.00, 0.00, 0.00, 0.00, 0.00, 0.00
41, 5239.16, 75628.89, 12788.66, 32796.09, -31442.89, -3636.63, 8344.78, -34883.96, -1822.61, 41455.49, 13463.57, -37160.33, 0.00, 0.00, 0.00, 0.00, 0.00, 0.00, 0.00
42, 5239.16, 75628.89, 12788.66, 32796.09, -31442.89, -3636.63, 8344.78, -34883.96, -1841.98, 41466.46, 13470.90, -37166.08, 0.00, 0.00, 0.00, 0.00, 0.00, 0.00, 0.00
43, 5237.21, 75624.84, 12785.49, 32795.60, -31448.70, -3633.23, 8344.78, -34886.36, -1841.98, 41466.46, 13470.90, -37166.08, 0.00, 0.00, 0.00, 0.00, -0.11, 0.36, 0.93
44, 5237.21, 75624.84, 12785.49, 32795.60, -31448.70, -3633.23, 8344.78, -34886.36, -1818.81, 41457.12, 13472.29, -37150.50, 0.00, 0.00, 0.00, 0.00, 0.00, 0.00, 0.00
45, 5238.38, 75632.13, 12791.10, 32798.05, -31440.77, -3634.51, 8355.15, -34878.76, -1818.81, 41457.12, 13472.29, -37150.50, 0.00, 0.00, 0.00, 0.00, 0.00, 0.00, 0.00
46, 5238.38, 75632.13, 12791.10, 32798.05, -31440.77, -3634.51, 8355.15, -34878.76, -1838.21, 41470.53, 13470.12, -37170.30, 0.00, 0.00, 0.00, 0.00, 0.00, 0.00, 0.00
47, 5234.64, 75625.09, 12783.01, 32794.34, -31442.94, -3639.40, 8349.54, -34884.50, -1838.21, 41470.53, 13470.12, -37170.30, 0.00, 0.00, 0.00, 0.00, 0.00, 0.00, 0.00
48, 5234.64, 75625.09, 12783.01, 32794.34, -31442.94, -3639.40, 8349.54, -34884.50, -1828.98, 41447.35, 13459.33, -37165.16, 0.00, 0.00, 0.00, 0.00, 0.00, 0.00, 0.00
49, 5230.82, 75622.74, 12782.02, 32792.69, -31446.15, -3638.06, 8350.52, -34886.07, -1828.98, 41447.35, 13459.33, -37165.16, 0.00, 0.00, 0.00, 0.00, 0.00, 0.00, 0.00
50, 5230.82, 75622.74, 12782.02, 32792.69, -31446.15, -3638.06, 8350.52, -34886.07, -1823.39, 41487.09, 13470.64, -37154.52, 0.00, 0.00, 0.00, 0.00, 0.00, 0.00, 0.00
51, 5240.66, 75632.51, 12790.56, 32802.59, -31434.13, -3622.70, 8366.48, -34869.41, -1823.39, 41487.09, 13470.64, -37154.52, 0.00, 0.00, 0.00, 0.00, 0.00, 0.00, 0.00
52, 5240.66, 75632.51, 12790.56, 32802.59, -31434.13, -3622.70, 8366.48, -34869.41, -1818.78, 41461.81, 13463.15, -37155.46, 0.00, 0.00, 0.00, 0.00, 0.00, 0.00, 0.00
53, 5229.48, 75622.21, 12784.04, 32797.45, -31442.47, -3625.92, 8363.08, -34873.97, -1818.78, 41461.81, 13463.15, -37155.46, 0.00, 0.00, 0.00, 0.00, -0.11, 0.36, 0.93
54, 5229.48, 75622.21, 12784.04, 32797.45, -31442.47, -3625.92, 8363.08, -34873.97, -1814.72, 41503.19, 13471.33, -37136.57, 0.00, 0.00, 0.00, 0.00, 0.00, 0.00, 0.00
55, 5242.06, 75633.67, 12793.80, 32804.13, -31426.84, -3629.79, 8379.96, -34859.15, -1814.72, 41503.19, 13471.33, -37136.57, 0.00, 0.00, 0.00, 0.00, 0.00, 0.00, 0.00
56, 5242.06, 75633.67, 12793.80, 32804.13, -31426.84, -3629.79, 8379.96, -34859.15, -1818.96, 41460.25, 13457.69, -37162.93, 0.00, 0.00, 0.00, 0.00, 0.00, 0.00, 0.00
57, 5226.40, 75612.28, 12774.18, 32788.62, -31446.96, -3642.95, 8359.31, -34881.48, -1818.96, 41460.25, 13457.69, -37162.93, 0.00, 0.00, 0.00, 0.00, 0.00, 0.00, 0.00
58, 5226.40, 75612.28, 12774.18, 32788.62, -31446.96, -3642.95, 8359.31, -34881.48, -1822.87, 41477.66, 13458.30, -37164.98, 0.00, 0.00, 0.00, 0.00, 0.00, 0.00, 0.00
59, 5239.94, 75628.82, 12789.15, 32802.64, -31431.33, -3627.13, 8382.73, -34860.23, -1822.87, 41477.66, 13458.30, -37164.98, 0.00, 0.00, 0.00, 0.00, 0.00, 0.00, 0.00
60, 5239.94, 75628.82, 12789.15, 32802.64, -31431.33, -3627.13, 8382.73, -34860.23, -1807.59, 41478.49, 13461.14, -37145.76, 0.00, 0.00, 0.00, 0.00, 0.00, 0.00, 0.00
61, 5224.83, 75616.13, 12779.50, 32795.24, -31439.63, -3624.11, 8369.90, -34870.22, -1807.59, 41478.49, 13461.14, -37145.76, 0.00, 0.00, 0.00, 0.00, 0.00, 0.00, 0.00
62, 5224.83, 75616.13, 12779.50, 32795.24, -31439.63, -3624.11, 8369.90, -34870.22, -1818.14, 41493.33, 13459.93, -37136.53, 0.00, 0.00, 0.00, 0.00, 0.00, 0.00, 0.00
63, 5237.33, 75632.96, 12794.36, 32810.06, -31419.71, -3614.21, 8399.83, -34846.46, -1818.14, 41493.33, 13459.93, -37136.53, 0.00, 0.00, 0.00, 0.00, -0.11, 0.36, 0.93
64, 5237.33, 75632.96, 12794.36, 32810.06, -31419.71, -3614.21, 8399.83, -34846.46, -1807.43, 41483.52, 13461.83, -37139.19, 0.00, 0.00, 0.00, 0.00, 0.00, 0.00, 0.00
65, 5219.69, 75604.68, 12764.14, 32778.81, -31447.88, -3645.44, 8366.26, -34873.97, -1807.43, 41483.52, 13461.83, -37139.19, 0.00, 0.00, 0.00, 0.00, 0.00, 0.00, 0.00
66, 5219.69, 75604.68, 12764.14, 32778.81, -31447.88, -3645.44, 8366.26, -34873.97, -1809.02, 41488.30, 13457.16, -37143.79, 0.00, 0.00, 0.00, 0.00, 0.00, 0.00, 0.00
67, 5236.37, 75631.44, 12791.32, 32811.93, -31420.27, -3614.70, 8402.91, -34843.44, -1809.02, 41488.30, 13457.16, -37143.79, 0.00, 0.00, 0.00, 0.00, 0.00, 0.00, 0.00
68, 5236.37, 75631.44, 12791.32, 32811.93, -31420.27, -3614.70, 8402.91, -34843.44, -1810.25, 41486.13, 13456.08, -37139.59, 0.00, 0.00, 0.00, 0.00, 0.00, 0.00, 0.00
69, 5220.63, 75601.45, 12767.88, 32785.34, -31442.29, -3636.23, 8376.00, -34870.60, -1810.25, 41486.13, 13456.08, -37139.59, 0.00, 0.00, 0.00, 0.00, 0.00, 0.00, 0.00
70, 5220.63, 75601.45, 12767.88, 32785.34, -31442.29, -3636.23, 8376.00, -34870.60, -1805.64, 41490.20, 13453.20, -37139.19, 0.00, 0.00, 0.00, 0.00, 0.00, 0.00, 0.00
71, 5235.31, 75626.01, 12790.81, 32810.35, -31419.15, -3615.73, 8409.44, -34839.39, -1805.64, 41490.20, 13453.20, -37139.19, 0.00, 0.00, 0.00, 0.00, 0.00, 0.00, 0.00
72, 5235.31, 75626.01, 12790.81, 32810.35, -31419.15, -3615.73, 8409.44, -34839.39, -1803.61, 41505.11, 13459.88, -37122.04, 0.00, 0.00, 0.00, 0.00, -0.11, 0.36, 0.93
73, 5219.00, 75604.66, 12768.21, 32788.15, -31441.15, -3628.00, 8382.17, -34860.76, -1803.61, 41505.11, 13459.88, -37122.04, 0.00, 0.00, 0.00, 0.00, 0.00, 0.00, 0.00
74, 5219.00, 75604.66, 12768.21, 32788.15, -31441.15, -3628.00, 8382.17, -34860.76, -1804.97, 41489.84, 13451.86, -37133.51, 0.00, 0.00, 0.00, 0.00, 0.00, 0.00, 0.00
75, 5234.69, 75627.02, 12788.17, 32807.82, -31419.67, -3620.65, 8410.51, -34837.70, -1804.97, 41489.84, 13451.86, -37133.51, 0.00, 0.00, 0.00, 0.00, 0.00, 0.00, 0.00
76, 5234.69, 75627.02, 12788.17, 32807.82, -31419.67, -3620.65, 8410.51, -34837.70, -1793.57, 41506.68, 13467.28, -37137.78, 0.00, 0.00, 0.00, 0.00, 0.00, 0.00, 0.00
77, 5210.48, 75604.20, 12767.05, 32778.34, -31437.46, -3642.75, 8388.79, -34859.78, -1793.57, 41506.68, 13467.28, -37137.78, 0.00, 0.00, 0.00, 0.00, 0.00, 0.00, 0.00
78, 5210.48, 75604.20, 12767.05, 32778.34, -31437.46, -3642.75, 8388.79, -34859.78, -1799.70, 41487.52, 13456.24, -37128.77, 0.00, 0.00, 0.00, 0.00, 0.00, 0.00, 0.00
79, 5230.38, 75622.43, 12782.36, 32807.96, -31419.58, -3609.78, 8411.72, -34835.95, -1799.70, 41487.52, 13456.24, -37128.77, 0.00, 0.00, 0.00, 0.00, 0.00, 0.00, 0.00
80, 5230.38, 75622.43, 12782.36, 32807.96, -31419.58, -3609.78, 8411.72, -34835.95, -1793.97, 41516.00, 13466.17, -37121.26, 0.00, 0.00, 0.00, 0.00, 0.00, 0.00, 0.00
81, 5219.47, 75610.80, 12770.92, 32787.57, -31428.41, -3631.42, 8401.89, -34848.89, -1793.97, 41516.00, 13466.17, -37121.26, 0.00, 0.00, 0.00, 0.00, 0.00, 0.00, 0.00
82, 5219.47, 75610.80, 12770.92, 32787.57, -31428.41, -3631.42, 8401.89, -34848.89, -1791.65, 41488.34, 13463.15, -37126.31, 0.00, 0.00, 0.00, 0.00, -0.11, 0.36, 0.93
83, 5224.97, 75626.56, 12783.72, 32803.51, -31420.76, -3624.31, 8417.47, -34838.03, -1791.65, 41488.34, 13463.15, -37126.31, 0.00, 0.00, 0.00, 0.00, 0.00, 0.00, 0.00
84, 5224.97, 75626.56, 12783.72, 32803.51, -31420.76, -3624.31, 8417.47, -34838.03, -1798.00, 41509.91, 13466.84, -37128.13, 0.00, 0.00, 0.00, 0.00, 0.00, 0.00, 0.00
85, 5207.46, 75604.66, 12766.82, 32781.45, -31431.98, -3635.31, 8395.52, -34854.48, -1798.00, 41509.91, 13466.84, -37128.13, 0.00, 0.00, 0.00, 0.00, 0.00, 0.00, 0.00
86, 5207.46, 75604.66, 12766.82, 32781.45, -31431.98, -3635.31, 8395.52, -34854.48, -1792.65, 41488.43, 13452.40, -37132.21, 0.00, 0.00, 0.00, 0.00, 0.00, 0.00, 0.00
87, 5225.32, 75617.96, 12776.99, 32800.74, -31421.50, -3620.38, 8410.92, -34844.80, -1792.65, 41488.43, 13452.40, -37132.21, 0.00, 0.00, 0.00, 0.00, 0.00, 0.00, 0.00
88, 5225.32, 75617.96, 12776.99, 32800.74, -31421.50, -3620.38, 8410.92, -34844.80, -1795.98, 41510.50, 13468.20, -37130.70, 0.00, 0.00, 0.00, 0.00, 0.00, 0.00, 0.00
89, 5223.09, 75612.77, 12773.60, 32791.62, -31427.65, -3625.99, 8407.63, -34848.83, -1795.98, 41510.50, 13468.20, -37130.70, 0.00, 0.00, 0.00, 0.00, 0.00, 0.00, 0.00
90, 5223.09, 75612.77, 12773.60, 32791.62, -31427.65, -3625.99, 8407.63, -34848.83, -1785.52, 41489.02, 13464.74, -37121.38, 0.00, 0.00, 0.00, 0.00, 0.00, 0.00, 0.00
91, 5229.88, 75625.20, 12785.53, 32798.95, -31418.06, -3625.97, 8420.28, -34839.13, -1785.52, 41489.02, 13464.74, -37121.38, 0.00, 0.00, 0.00, 0.00, 0.00, 0.00, 0.00
92, 5229.88, 75625.20, 12785.53, 32798.95, -31418.06, -3625.97, 8420.28, -34839.13, -1787.83, 41518.99, 13474.39, -37117.08, 0.00, 0.00, 0.00, 0.00, -0.10, 0.37, 0.93
93, 5223.80, 75621.00, 12782.63, 32796.22, -31421.95, -3625.25, 8414.60, -34845.36, -1787.83, 41518.99, 13474.39, -37117.08, 0.00, 0.00, 0.00, 0.00, 0.00, 0.00, 0.00
94, 5223.80, 75621.00, 12782.63, 32796.22, -31421.95, -3625.25, 8414.60, -34845.36, -1784.74, 41489.35, 13459.68, -37123.56, 0.00, 0.00, 0.00, 0.00, 0.00, 0.00, 0.00
95, 5227.20, 75621.09, 12778.63, 32794.19, -31421.05, -3627.62, 8413.51, -34846.28, -1784.74, 41489.35, 13459.68, -37123.56, 0.00, 0.00, 0.00, 0.00, 0.00, 0.00, 0.00
96, 5227.20, 75621.09, 12778.63, 32794.19, -31421.05, -3627.62, 8413.51, -34846.28, -1790.40, 41517.31, 13469.65, -37127.01, 0.00, 0.00, 0.00, 0.00, 0.00, 0.00, 0.00
97, 5233.93, 75621.41, 12779.45, 32796.13, -31424.05, -3622.08, 8412.48, -34846.79, -1790.40, 41517.31, 13469.65, -37127.01, 0.00, 0.00, 0.00, 0.00, 0.00, 0.00, 0.00
98, 5233.93, 75621.41, 12779.45, 32796.13, -31424.05, -3622.08, 8412.48, -34846.79, -1790.75, 41486.58, 13454.99, -37127.77, 0.00, 0.00, 0.00, 0.00, 0.00, 0.00, 0.00
99, 5229.21, 75621.13, 12778.02, 32789.92, -31430.42, -3636.90, 8409.93, -34854.35, -1790.75, 41486.58, 13454.99, -37127.77, 0.00, 0.00, 0.00, 0.00, 0.00, 0.00, 0.00
100, 5229.21, 75621.13, 12778.02, 32789.92, -31430.42, -3636.90, 8409.93, -34854.35, -1794.09, 41510.96, 13468.00, -37131.68, 0.00, 0.00, 0.00, 0.00, 0.00, 0.00, 0.00
101, 5237.53, 75633.20, 12784.79, 32795.24, -31421.10, -3628.43, 8418.47, -34846.91, -1794.09, 41510.96, 13468.00, -37131.68, 0.00, 0.00, 0.00, 0.00, 0.00, 0.00, 0.00
102, 5237.53, 75633.20, 12784.79, 32795.24, -31421.10, -3628.43, 8418.47, -34846.91, -1789.39, 41478.51, 13459.66, -37132.77, 0.00, 0.00, 0.00, 0.00, -0.10, 0.37, 0.93
103, 5231.52, 75619.64, 12776.14, 32788.62, -31431.98, -3635.38, 8405.80, -34861.99, -1789.39, 41478.51, 13459.66, -37132.77, 0.00, 0.00, 0.00, 0.00, 0.00, 0.00, 0.00
104, 5231.52, 75619.64, 12776.14, 32788.62, -31431.98, -3635.38, 8405.80, -34861.99, -1792.05, 41507.41, 13466.03, -37135.30, 0.00, 0.00, 0.00, 0.00, 0.00, 0.00, 0.00
105, 5240.97, 75632.60, 12784.97, 32799.02, -31420.70, -3628.31, 8421.13, -34846.12, -1792.05, 41507.41, 13466.03, -37135.30, 0.00, 0.00, 0.00, 0.00, 0.00, 0.00, 0.00
106, 5240.97, 75632.60, 12784.97, 32799.02, -31420.70, -3628.31, 8421.13, -34846.12, -1785.03, 41490.91, 13462.59, -37129.73, 0.00, 0.00, 0.00, 0.00, 0.00, 0.00, 0.00
107, 5231.36, 75616.66, 12771.85, 32780.42, -31437.97, -3638.82, 8403.25, -34865.14, -1785.03, 41490.91, 13462.59, -37129.73, 0.00, 0.00, 0.00, 0.00, 0.00, 0.00, 0.00
108, 5231.36, 75616.66, 12771.85, 32780.42, -31437.97, -3638.82, 8403.25, -34865.14, -1791.87, 41498.14, 13464.65, -37132.24, 0.00, 0.00, 0.00, 0.00, 0.00, 0.00, 0.00
109, 5244.70, 75636.60, 12788.26, 32802.17, -31421.70, -3625.32, 8424.10, -34847.57, -1791.87, 41498.14, 13464.65, -37132.24, 0.00, 0.00, 0.00, 0.00, 0.00, 0.00, 0.00
110, 5244.70, 75636.60, 12788.26, 32802.17, -31421.70, -3625.32, 8424.10, -34847.57, -1789.39, 41481.39, 13460.22, -37131.77, 0.00, 0.00, 0.00, 0.00, 0.00, 0.00, 0.00
111, 5223.76, 75613.18, 12768.14, 32778.90, -31442.15, -3646.53, 8401.46, -34873.30, -1789.39, 41481.39, 13460.22, -37131.77, 0.00, 0.00, 0.00, 0.00, -0.10, 0.36, 0.93
112, 5223.76, 75613.18, 12768.14, 32778.90, -31442.15, -3646.53, 8401.46, -34873.30, -1791.16, 41497.33, 13463.57, -37144.71, 0.00, 0.00, 0.00, 0.00, 0.00, 0.00, 0.00
113, 5244.10, 75637.70, 12790.12, 32802.84, -31417.61, -3620.49, 8423.84, -34849.05, -1791.16, 41497.33, 13463.57, -37144.71, 0.00, 0.00, 0.00, 0.00, 0.00, 0.00, 0.00
114, 5244.10, 75637.70, 12790.12, 32802.84, -31417.61, -3620.49, 8423.84, -34849.05, -1784.54, 41489.13, 13468.49, -37136.93, 0.00, 0.00, 0.00, 0.00, 0.00, 0.00, 0.00
115, 5215.62, 75603.09, 12761.33, 32774.70, -31446.85, -3649.15, 8397.46, -34880.21, -1784.54, 41489.13, 13468.49, -37136.93, 0.00, 0.00, 0.00, 0.00, 0.00, 0.00, 0.00
116, 5215.62, 75603.09, 12761.33, 32774.70, -31446.85, -3649.15, 8397.46, -34880.21, -1799.81, 41481.30, 13450.39, -37136.95, 0.00, 0.00, 0.00, 0.00, 0.00, 0.00, 0.00
117, 5234.02, 75625.41, 12777.69, 32793.18, -31427.51, -3636.56, 8427.75, -34854.68, -1799.81, 41481.30, 13450.39, -37136.95, 0.00, 0.00, 0.00, 0.00, 0.00, 0.00, 0.00
118, 5234.02, 75625.41, 12777.69, 32793.18, -31427.51, -3636.56, 8427.75, -34854.68, -1792.52, 41491.56, 13462.77, -37130.27, 0.00, 0.00, 0.00, 0.00, 0.00, 0.00, 0.00
119, 5220.83, 75609.60, 12762.47, 32774.54, -31442.27, -3646.62, 8402.91, -34877.01, -1792.52, 41491.56, 13462.77, -37130.27, 0.00, 0.00, 0.00, 0.00, 0.00, 0.00, 0.00
120, 5220.83, 75609.60, 12762.47, 32774.54, -31442.27, -3646.62, 8402.91, -34877.01, -1790.11, 41477.32, 13458.03, -37142.32, 0.00, 0.00, 0.00, 0.00, 0.00, 0.00, 0.00
121, 5231.14, 75637.02, 12783.12, 32795.53, -31420.65, -3632.63, 8425.74, -34856.18, -1790.11, 41477.32, 13458.03, -37142.32, 0.00, 0.00, 0.00, 0.00, -0.10, 0.35, 0.93
122, 5231.14, 75637.02, 12783.12, 32795.53, -31420.65, -3632.63, 8425.74, -34856.18, -1787.63, 41493.71, 13469.21, -37145.38, 0.00, 0.00, 0.00, 0.00, 0.00, 0.00, 0.00
123, 5218.53, 75607.92, 12761.55, 32772.39, -31446.56, -3646.84, 8399.23, -34880.57, -1787.63, 41493.71, 13469.21, -37145.38, 0.00, 0.00, 0.00, 0.00, 0.00, 0.00, 0.00
124, 5218.53, 75607.92, 12761.55, 32772.39, -31446.56, -3646.84, 8399.23, -34880.57, -1789.77, 41480.79, 13454.25, -37137.89, 0.00, 0.00, 0.00, 0.00, 0.00, 0.00, 0.00
125, 5232.90, 75623.70, 12776.93, 32790.68, -31427.49, -3638.42, 8424.80, -34862.95, -1789.77, 41480.79, 13454.25, -37137.89, 0.00, 0.00, 0.00, 0.00, 0.00, 0.00, 0.00
126, 5232.90, 75623.70, 12776.93, 32790.68, -31427.49, -3638.42, 8424.80, -34862.95, -1789.97, 41485.57, 13468.02, -37144.11, 0.00, 0.00, 0.00, 0.00, 0.00, 0.00, 0.00
127, 5222.86, 75612.38, 12766.98, 32776.20, -31435.54, -3643.69, 8409.93, -34874.96, -1789.97, 41485.57, 13468.02, -37144.11, 0.00, 0.00, 0.00, 0.00, 0.00, 0.00, 0.00
128, 5222.86, 75612.38, 12766.98, 32776.20, -31435.54, -3643.69, 8409.93, -34874.96, -1777.66, 41484.28, 13463.39, -37130.38, 0.00, 0.00, 0.00, 0.00, 0.00, 0.00, 0.00
129, 5231.65, 75625.94, 12777.11, 32793.54, -31428.32, -3627.64, 8422.38, -34862.68, -1777.66, 41484.28, 13463.39, -37130.38, 0.00, 0.00, 0.00, 0.00, 0.00, 0.00, 0.00
130, 5231.65, 75625.94, 12777.11, 32793.54, -31428.32, -3627.64, 8422.38, -34862.68, -1789.61, 41494.52, 13465.79, -37143.30, 0.00, 0.00, 0.00, 0.00, 0.00, 0.00, 0.00
131, 5217.99, 75610.80, 12760.14, 32770.20, -31445.55, -3653.93, 8403.83, -34886.00, -1789.61, 41494.52, 13465.79, -37143.30, 0.00, 0.00, 0.00, 0.00, -0.10, 0.36, 0.93
132, 5217.99, 75610.80, 12760.14, 32770.20, -31445.55, -3653.93, 8403.83, -34886.00, -1783.29, 41470.93, 13453.96, -37137.54, 0.00, 0.00, 0.00, 0.00, 0.00, 0.00, 0.00
133, 5228.79, 75619.46, 12772.88, 32786.07, -31432.56, -3643.22, 8420.19, -34872.68, -1783.29, 41470.93, 13453.96, -37137.54, 0.00, 0.00, 0.00, 0.00, 0.00, 0.00, 0.00
134, 5228.79, 75619.46, 12772.88, 32786.07, -31432.56, -3643.22, 8420.19, -34872.68, -1790.11, 41495.21, 13471.17, -37155.19, 0.00, 0.00, 0.00, 0.00, 0.00, 0.00, 0.00
135, 5223.45, 75608.70, 12761.13, 32772.86, -31445.97, -3651.00, 8403.29, -34887.14, -1790.11, 41495.21, 13471.17, -37155.19, 0.00, 0.00, 0.00, 0.00, 0.00, 0.00, 0.00
136, 5223.45, 75608.70, 12761.13, 32772.86, -31445.97, -3651.00, 8403.29, -34887.14, -1788.32, 41457.88, 13448.84, -37145.04, 0.00, 0.00, 0.00, 0.00, 0.00, 0.00, 0.00
137, 5220.58, 75619.23, 12767.36, 32780.00, -31435.51, -3645.50, 8415.79, -34880.23, -1788.32, 41457.88, 13448.84, -37145.04, 0.00, 0.00, 0.00, 0.00, 0.00, 0.00, 0.00
138, 5220.58, 75619.23, 12767.36, 32780.00, -31435.51, -3645.50, 8415.79, -34880.23, -1789.79, 41485.69, 13467.64, -37150.81, 0.00, 0.00, 0.00, 0.00, 0.00, 0.00, 0.00
139, 5217.55, 75611.88, 12762.20, 32775.59, -31440.25, -3648.97, 8410.31, -34885.21, -1789.79, 41485.69, 13467.64, -37150.81, 0.00, 0.00, 0.00, 0.00, 0.00, 0.00, 0.00
140, 5217.55, 75611.88, 12762.20, 32775.59, -31440.25, -3648.97, 8410.31, -34885.21, -1777.30, 41467.58, 13457.58, -37137.00, 0.00, 0.00, 0.00, 0.00, 0.00, 0.00, 0.00
141, 5228.36, 75615.03, 12764.75, 32777.51, -31440.07, -3647.92, 8413.38, -34881.13, -1777.30, 41467.58, 13457.58, -37137.00, 0.00, 0.00, 0.00, 0.00, -0.10, 0.36, 0.93
142, 5228.36, 75615.03, 12764.75, 32777.51, -31440.07, -3647.92, 8413.38, -34881.13, -1783.87, 41490.25, 13465.70, -37148.53, 0.00, 0.00, 0.00, 0.00, 0.00, 0.00, 0.00
143, 5229.91, 75618.03, 12767.81, 32780.96, -31434.80, -3646.44, 8417.11, -34879.47, -1783.87, 41490.25, 13465.70, -37148.53, 0.00, 0.00, 0.00, 0.00, 0.00, 0.00, 0.00
144, 5229.91, 75618.03, 12767.81, 32780.96, -31434.80, -3646.44, 8417.11, -34879.47, -1773.81, 41468.88, 13457.92, -37139.03, 0.00, 0.00, 0.00, 0.00, 0.00, 0.00, 0.00
145, 5220.74, 75612.59, 12759.56, 32776.93, -31443.70, -3646.42, 8410.67, -34890.00, -1773.81, 41468.88, 13457.92, -37139.03, 0.00, 0.00, 0.00, 0.00, 0.00, 0.00, 0.00
146, 5220.74, 75612.59, 12759.56, 32776.93, -31443.70, -3646.42, 8410.67, -34890.00, -1788.90, 41486.29, 13457.98, -37158.52, 0.00, 0.00, 0.00, 0.00, 0.00, 0.00, 0.00
147, 5220.16, 75615.14, 12764.19, 32780.15, -31437.88, -3647.60, 8416.10, -34886.02, -1788.90, 41486.29, 13457.98, -37158.52, 0.00, 0.00, 0.00, 0.00, 0.00, 0.00, 0.00
148, 5220.16, 75615.14, 12764.19, 32780.15, -31437.88, -3647.60, 8416.10, -34886.02, -1779.29, 41462.73, 13450.45, -37140.20, 0.00, 0.00, 0.00, 0.00, 0.00, 0.00, 0.00
149, 5209.99, 75604.30, 12754.31, 32771.03, -31446.27, -3659.43, 8410.56, -34891.99, -1779.29, 41462.73, 13450.45, -37140.20, 0.00, 0.00, 0.00, 0.00, 0.00, 0.00, 0.00
150, 5209.99, 75604.30, 12754.31, 32771.03, -31446.27, -3659.43, 8410.56, -34891.99, -1780.63, 41492.05, 13455.21, -37142.23, 0.00, 0.00, 0.00, 0.00, -0.11, 0.36, 0.93
151, 5225.30, 75620.02, 12766.78, 32782.99, -31431.71, -3646.78, 8427.43, -34877.21, -1780.63, 41492.05, 13455.21, -37142.23, 0.00, 0.00, 0.00, 0.00, 0.00, 0.00, 0.00
152, 5225.30, 75620.02, 12766.78, 32782.99, -31431.71, -3646.78, 8427.43, -34877.21, -1778.19, 41470.09, 13446.18, -37130.79, 0.00, 0.00, 0.00, 0.00, 0.00, 0.00, 0.00
153, 5212.94, 75604.80, 12753.39, 32771.57, -31446.33, -3650.98, 8411.01, -34892.35, -1778.19, 41470.09, 13446.18, -37130.79, 0.00, 0.00, 0.00, 0.00, 0.00, 0.00, 0.00
154, 5212.94, 75604.80, 12753.39, 32771.57, -31446.33, -3650.98, 8411.01, -34892.35, -1780.79, 41489.66, 13452.13, -37141.20, 0.00, 0.00, 0.00, 0.00, 0.00, 0.00, 0.00
155, 5221.88, 75617.91, 12766.53, 32789.34, -31429.05, -3638.06, 8427.97, -34879.23, -1780.79, 41489.66, 13452.13, -37141.20, 0.00, 0.00, 0.00, 0.00, 0.00, 0.00, 0.00
156, 5221.88, 75617.91, 12766.53, 32789.34, -31429.05, -3638.06, 8427.97, -34879.23, -1765.39, 41483.88, 13444.60, -37132.21, 0.00, 0.00, 0.00, 0.00, 0.00, 0.00, 0.00
157, 5203.69, 75596.32, 12749.75, 32770.03, -31442.40, -3653.53, 8411.32, -34892.95, -1765.39, 41483.88, 13444.60, -37132.21, 0.00, 0.00, 0.00, 0.00, 0.00, 0.00, 0.00
158, 5203.69, 75596.32, 12749.75, 32770.03, -31442.40, -3653.53, 8411.32, -34892.95, -1774.37, 41494.98, 13440.33, -37130.43, 0.00, 0.00, 0.00, 0.00, 0.00, 0.00, 0.00
159, 5217.57, 75617.16, 12764.77, 32790.75, -31433.19, -3637.34, 8431.59, -34875.71, -1774.37, 41494.98, 13440.33, -37130.43, 0.00, 0.00, 0.00, 0.00, 0.00, 0.00, 0.00
160, 5217.57, 75617.16, 12764.77, 32790.75, -31433.19, -3637.34, 8431.59, -34875.71, -1775.96, 41475.16, 13439.14, -37133.45, 0.00, 0.00, 0.00, 0.00, -0.10, 0.36, 0.94
161, 5207.53, 75594.96, 12743.27, 32763.68, -31451.68, -3664.17, 8410.94, -34900.93, -1775.96, 41475.16, 13439.14, -37133.45, 0.00, 0.00, 0.00, 0.00, 0.00, 0.00, 0.00
162, 5207.53, 75594.96, 12743.27, 32763.68, -31451.68, -3664.17, 8410.94, -34900.93, -1778.82, 41480.52, 13444.64, -37139.01, 0.00, 0.00, 0.00, 0.00, 0.00, 0.00, 0.00
163, 5231.78, 75622.84, 12771.65, 32792.51, -31425.43, -3638.26, 8434.81, -34878.84, -1778.82, 41480.52, 13444.64, -37139.01, 0.00, 0.00, 0.00, 0.00, 0.00, 0.00, 0.00
164, 5231.78, 75622.84, 12771.65, 32792.51, -31425.43, -3638.26, 8434.81, -34878.84, -1773.83, 41475.23, 13449.65, -37139.07, 0.00, 0.00, 0.00, 0.00, 0.00, 0.00, 0.00
165, 5209.10, 75600.44, 12751.07, 32768.28, -31445.19, -3657.19, 8407.30, -34903.52, -1773.83, 41475.23, 13449.65, -37139.07, 0.00, 0.00, 0.00, 0.00, 0.00, 0.00, 0.00
166, 5209.10, 75600.44, 12751.07, 32768.28, -31445.19, -3657.19, 8407.30, -34903.52, -1769.25, 41484.86, 13452.20, -37133.15, 0.00, 0.00, 0.00, 0.00, 0.00, 0.00, 0.00
167, 5232.19, 75631.98, 12778.25, 32795.75, -31420.72, -3637.32, 8443.93, -34870.31, -1769.25, 41484.86, 13452.20, -37133.15, 0.00, 0.00, 0.00, 0.00, 0.00, 0.00, 0.00
168, 5232.19, 75631.98, 12778.25, 32795.75, -31420.72, -3637.32, 8443.93, -34870.31, -1766.99, 41485.89, 13460.96, -37132.62, 0.00, 0.00, 0.00, 0.00, 0.00, 0.00, 0.00
169, 5218.57, 75606.36, 12753.41, 32772.42, -31445.17, -3657.97, 8416.77, -34898.80, -1766.99, 41485.89, 13460.96, -37132.62, 0.00, 0.00, 0.00, 0.00, 0.00, 0.00, 0.00
170, 5218.57, 75606.36, 12753.41, 32772.42, -31445.17, -3657.97, 8416.77, -34898.80, -1767.31, 41478.00, 13444.82, -37130.20, 0.00, 0.00, 0.00, 0.00, -0.10, 0.37, 0.94
171, 5232.43, 75625.88, 12771.36, 32790.93, -31428.79, -3642.19, 8435.97, -34881.13, -1767.31, 41478.00, 13444.82, -37130.20, 0.00, 0.00, 0.00, 0.00, 0.00, 0.00, 0.00
172, 5232.43, 75625.88, 12771.36, 32790.93, -31428.79, -3642.19, 8435.97, -34881.13, -1771.24, 41479.63, 13458.86, -37138.79, 0.00, 0.00, 0.00, 0.00, 0.00, 0.00, 0.00
173, 5218.13, 75606.13, 12754.93, 32768.13, -31443.31, -3663.18, 8412.44, -34902.49, -1771.24, 41479.63, 13458.86, -37138.79, 0.00, 0.00, 0.00, 0.00, 0.00, 0.00, 0.00
174, 5218.13, 75606.13, 12754.93, 32768.13, -31443.31, -3663.18, 8412.44, -34902.49, -1769.50, 41474.11, 13446.63, -37139.57, 0.00, 0.00, 0.00, 0.00, 0.00, 0.00, 0.00
175, 5232.43, 75627.95, 12773.37, 32791.06, -31430.55, -3642.02, 8438.81, -34882.31, -1769.50, 41474.11, 13446.63, -37139.57, 0.00, 0.00, 0.00, 0.00, 0.00, 0.00, 0.00
176, 5232.43, 75627.95, 12773.37, 32791.06, -31430.55, -3642.02, 8438.81, -34882.31, -1773.39, 41483.90, 13461.14, -37137.20, 0.00, 0.00, 0.00, 0.00, 0.00, 0.00, 0.00
177, 5217.52, 75607.12, 12753.17, 32769.89, -31450.27, -3656.99, 8414.40, -34907.32, -1773.39, 41483.90, 13461.14, -37137.20, 0.00, 0.00, 0.00, 0.00, 0.00, 0.00, 0.00
178, 5217.52, 75607.12, 12753.17, 32769.89, -31450.27, -3656.99, 8414.40, -34907.32, -1764.13, 41470.42, 13449.09, -37129.38, 0.00, 0.00, 0.00, 0.00, 0.00, 0.00, 0.00
179, 5238.13, 75630.63, 12772.68, 32790.37, -31427.42, -3642.75, 8441.72, -34879.70, -1764.13, 41470.42, 13449.09, -37129.38, 0.00, 0.00, 0.00, 0.00, 0.00, 0.00, 0.00
180, 5238.13, 75630.63, 12772.68, 32790.37, -31427.42, -3642.75, 8441.72, -34879.70, -1766.50, 41495.25, 13465.23, -37131.32, 0.00, 0.00, 0.00, 0.00, -0.10, 0.36, 0.93
181, 5218.15, 75612.26, 12754.08, 32767.52, -31443.70, -3660.21, 8420.26, -34900.73, -1766.50, 41495.25, 13465.23, -37131.32, 0.00, 0.00, 0.00, 0.00, 0.00, 0.00, 0.00
182, 5218.15, 75612.26, 12754.08, 32767.52, -31443.70, -3660.21, 8420.26, -34900.73, -1764.27, 41472.23, 13454.01, -37127.72, 0.00, 0.00, 0.00, 0.00, 0.00, 0.00, 0.00
183, 5227.42, 75628.00, 12771.74, 32788.38, -31429.99, -3644.03, 8437.85, -34885.55, -1764.27, 41472.23, 13454.01, -37127.72, 0.00, 0.00, 0.00, 0.00, 0.00, 0.00, 0.00
184, 5227.42, 75628.00, 12771.74, 32788.38, -31429.99, -3644.03, 8437.85, -34885.55, -1768.27, 41492.70, 13466.77, -37146.52, 0.00, 0.00, 0.00, 0.00, 0.00, 0.00, 0.00
185, 5217.77, 75612.33, 12756.79, 32773.31, -31441.91, -3654.93, 8424.30, -34899.83, -1768.27, 41492.70, 13466.77, -37146.52, 0.00, 0.00, 0.00, 0.00, 0.00, 0.00, 0.00
186, 5217.77, 75612.33, 12756.79, 32773.31, -31441.91, -3654.93, 8424.30, -34899.83, -1758.55, 41469.10, 13453.69, -37123.86, 0.00, 0.00, 0.00, 0.00, 0.00, 0.00, 0.00
187, 5227.22, 75618.01, 12762.53, 32781.47, -31437.82, -3654.47, 8435.39, -34891.47, -1758.55, 41469.10, 13453.69, -37123.86, 0.00, 0.00, 0.00, 0.00, 0.00, 0.00, 0.00
188, 5227.22, 75618.01, 12762.53, 32781.47, -31437.82, -3654.47, 8435.39, -34891.47, -1767.75, 41495.25, 13462.01, -37127.81, 0.00, 0.00, 0.00, 0.00, 0.00, 0.00, 0.00
189, 5218.57, 75610.88, 12755.76, 32771.28, -31441.08, -3657.17, 8429.78, -34898.05, -1767.75, 41495.25, 13462.01, -37127.81, 0.00, 0.00, 0.00, 0.00, -0.10, 0.36, 0.93
190, 5218.57, 75610.88, 12755.76, 32771.28, -31441.08, -3657.17, 8429.78, -34898.05, -1757.76, 41467.04, 13453.69, -37121.60, 0.00, 0.00, 0.00, 0.00, 0.00, 0.00, 0.00
191, 5217.72, 75611.61, 12759.00, 32775.82, -31436.97, -3655.16, 8434.59, -34892.10, -1757.76, 41467.04, 13453.69, -37121.60, 0.00, 0.00, 0.00, 0.00, 0.00, 0.00, 0.00
192, 5217.72, 75611.61, 12759.00, 32775.82, -31436.97, -3655.16, 8434.59, -34892.10, -1764.45, 41495.63, 13463.35, -37137.91, 0.00, 0.00, 0.00, 0.00, 0.00, 0.00, 0.00
193, 5217.72, 75616.42, 12762.53, 32777.20, -31441.73, -3650.91, 8434.32, -34894.89, -1764.45, 41495.63, 13463.35, -37137.91, 0.00, 0.00, 0.00, 0.00, 0.00, 0.00, 0.00
194, 5217.72, 75616.42, 12762.53, 32777.20, -31441.73, -3650.91, 8434.32, -34894.89, -1757.34, 41467.89, 13455.01, -37122.29, 0.00, 0.00, 0.00, 0.00, 0.00, 0.00, 0.00
195, 5222.08, 75611.23, 12757.08, 32772.02, -31442.31, -3659.87, 8432.93, -34896.08, -1757.34, 41467.89, 13455.01, -37122.29, 0.00, 0.00, 0.00, 0.00, 0.00, 0.00, 0.00
196, 5222.08, 75611.23, 12757.08, 32772.02, -31442.31, -3659.87, 8432.93, -34896.08, -1762.86, 41495.90, 13465.90, -37133.18, 0.00, 0.00, 0.00, 0.00, 0.00, 0.00, 0.00
197, 5231.47, 75623.62, 12767.63, 32784.98, -31428.96, -3647.65, 8440.64, -34891.54, -1762.86, 41495.90, 13465.90, -37133.18, 0.00, 0.00, 0.00, 0.00, 0.00, 0.00, 0.00
198, 5231.47, 75623.62, 12767.63, 32784.98, -31428.96, -3647.65, 8440.64, -34891.54, -1749.65, 41474.80, 13459.75, -37123.52, 0.00, 0.00, 0.00, 0.00, 0.00, 0.00, 0.00
199, 5217.75, 75613.11, 12755.67, 32770.29, -31442.33, -3651.87, 8427.88, -34900.86, -1749.65, 41474.80, 13459.75, -37123.52, 0.00, 0.00, 0.00, 0.00, -0.10, 0.36, 0.93
200, 5217.75, 75613.11, 12755.67, 32770.29, -31442.33, -3651.87, 8427.88, -34900.86, -1757.41, 41494.34, 13459.42, -37132.77, 0.00, 0.00, 0.00, 0.00, 0.00, 0.00, 0.00
201, 5221.97, 75622.07, 12764.66, 32779.75, -31434.26, -3653.82, 8446.25, -34887.74, -1757.41, 41494.34, 13459.42, -37132.77, 0.00, 0.00, 0.00, 0.00, 0.00, 0.00, 0.00
202, 5221.97, 75622.07, 12764.66, 32779.75, -31434.26, -3653.82, 8446.25, -34887.74, -1754.48, 41474.27, 13459.21, -37119.65, 0.00, 0.00, 0.00, 0.00, 0.00, 0.00, 0.00
203, 5213.68, 75608.62, 12751.13, 32767.54, -31446.69, -3664.48, 8438.23, -34901.02, -1754.48, 41474.27, 13459.21, -37119.65, 0.00, 0.00, 0.00, 0.00, 0.00, 0.00, 0.00
204, 5213.68, 75608.62, 12751.13, 32767.54, -31446.69, -3664.48, 8438.23, -34901.02, -1759.33, 41495.50, 13458.21, -37129.80, 0.00, 0.00, 0.00, 0.00, 0.00, 0.00, 0.00
205, 5222.04, 75619.57, 12763.52, 32781.74, -31429.41, -3650.00, 8448.13, -34888.93, -1759.33, 41495.50, 13458.21, -37129.80, 0.00, 0.00, 0.00, 0.00, 0.00, 0.00, 0.00
206, 5222.04, 75619.57, 12763.52, 32781.74, -31429.41, -3650.00, 8448.13, -34888.93, -1757.54, 41474.89, 13453.63, -37126.34, 0.00, 0.00, 0.00, 0.00, 0.00, 0.00, 0.00
207, 5213.68, 75600.73, 12747.27, 32767.05, -31448.30, -3659.43, 8427.05, -34908.55, -1757.54, 41474.89, 13453.63, -37126.34, 0.00, 0.00, 0.00, 0.00, 0.00, 0.00, 0.00
208, 5213.68, 75600.73, 12747.27, 32767.05, -31448.30, -3659.43, 8427.05, -34908.55, -1759.02, 41486.20, 13452.29, -37128.88, 0.00, 0.00, 0.00, 0.00, 0.00, 0.00, 0.00
209, 5222.08, 75615.77, 12759.49, 32782.01, -31433.14, -3651.11, 8452.11, -34887.47, -1759.02, 41486.20, 13452.29, -37128.88, 0.00, 0.00, 0.00, 0.00, -0.10, 0.36, 0.93
210, 5222.08, 75615.77, 12759.49, 32782.01, -31433.14, -3651.11, 8452.11, -34887.47, -1751.62, 41479.94, 13456.24, -37117.62, 0.00, 0.00, 0.00, 0.00, 0.00, 0.00, 0.00
211, 5206.46, 75602.52, 12746.33, 32761.91, -31450.51, -3664.59, 8430.27, -34908.30, -1751.62, 41479.94, 13456.24, -37117.62, 0.00, 0.00, 0.00, 0.00, 0.00, 0.00, 0.00
212, 5206.46, 75602.52, 12746.33, 32761.91, -31450.51, -3664.59, 8430.27, -34908.30, -1752.31, 41487.81, 13451.91, -37128.68, 0.00, 0.00, 0.00, 0.00, 0.00, 0.00, 0.00
213, 5224.12, 75617.70, 12760.95, 32781.52, -31426.42, -3649.93, 8454.21, -34884.05, -1752.31, 41487.81, 13451.91, -37128.68, 0.00, 0.00, 0.00, 0.00, 0.00, 0.00, 0.00
214, 5224.12, 75617.70, 12760.95, 32781.52, -31426.42, -3649.93, 8454.21, -34884.05, -1746.65, 41487.43, 13457.94, -37127.52, 0.00, 0.00, 0.00, 0.00, 0.00, 0.00, 0.00
215, 5213.37, 75601.09, 12749.32, 32766.94, -31445.33, -3661.98, 8433.54, -34905.22, -1746.65, 41487.43, 13457.94, -37127.52, 0.00, 0.00, 0.00, 0.00, 0.00, 0.00, 0.00
216, 5213.37, 75601.09, 12749.32, 32766.94, -31445.33, -3661.98, 8433.54, -34905.22, -1749.87, 41489.13, 13456.98, -37122.00, 0.00, 0.00, 0.00, 0.00, 0.00, 0.00, 0.00
217, 5219.31, 75616.62, 12760.21, 32782.09, -31431.25, -3643.67, 8455.33, -34887.56, -1749.87, 41489.13, 13456.98, -37122.00, 0.00, 0.00, 0.00, 0.00, 0.00, 0.00, 0.00
218, 5219.31, 75616.62, 12760.21, 32782.09, -31431.25, -3643.67, 8455.33, -34887.56, -1757.83, 41482.33, 13453.63, -37124.23, 0.00, 0.00, 0.00, 0.00, 0.00, 0.00, 0.00
219, 5207.40, 75595.67, 12742.28, 32761.22, -31451.92, -3669.87, 8431.55, -34913.58, -1757.83, 41482.33, 13453.63, -37124.23, 0.00, 0.00, 0.00, 0.00, -0.09, 0.36, 0.93
220, 5207.40, 75595.67, 12742.28, 32761.22, -31451.92, -3669.87, 8431.55, -34913.58, -1752.38, 41476.39, 13449.45, -37122.91, 0.00, 0.00, 0.00, 0.00, 0.00, 0.00, 0.00
221, 5220.85, 75622.30, 12765.68, 32783.28, -31426.44, -3647.18, 8461.36, -34883.67, -1752.38, 41476.39, 13449.45, -37122.91, 0.00, 0.00, 0.00, 0.00, 0.00, 0.00, 0.00
222, 5220.85, 75622.30, 12765.68, 32783.28, -31426.44, -3647.18, 8461.36, -34883.67, -1751.86, 41493.69, 13464.11, -37125.06, 0.00, 0.00, 0.00, 0.00, 0.00, 0.00, 0.00
223, 5218.37, 75609.16, 12758.42, 32771.19, -31433.73, -3654.91, 8446.72, -34900.68, -1751.86, 41493.69, 13464.11, -37125.06, 0.00, 0.00, 0.00, 0.00, 0.00, 0.00, 0.00
224, 5218.37, 75609.16, 12758.42, 32771.19, -31433.73, -3654.91, 8446.72, -34900.68, -1739.21, 41487.70, 13487.04, -37113.86, 0.00, 0.00, 0.00, 0.00, 0.00, 0.00, 0.00
225, 5239.07, 75631.53, 12777.78, 32791.33, -31424.18, -3646.15, 8466.68, -34884.93, -1739.21, 41487.70, 13487.04, -37113.86, 0.00, 0.00, 0.00, 0.00, 0.00, 0.00, 0.00
226, 5239.07, 75631.53, 12777.78, 32791.33, -31424.18, -3646.15, 8466.68, -34884.93, -1759.42, 41484.95, 13447.08, -37132.88, 0.00, 0.00, 0.00, 0.00, 0.00, 0.00, 0.00
227, 5226.75, 75615.84, 12755.92, 32753.89, -31453.17, -3671.18, 8434.52, -34912.77, -1759.42, 41484.95, 13447.08, -37132.88, 0.00, 0.00, 0.00, 0.00, 0.00, 0.00, 0.00
228, 5226.75, 75615.84, 12755.92, 32753.89, -31453.17, -3671.18, 8434.52, -34912.77, -1743.55, 41476.32, 13486.46, -37119.81, 0.00, 0.00, 0.00, 0.00, -0.10, 0.36, 0.93
229, 5247.21, 75639.80, 12782.18, 32773.56, -31431.80, -3655.07, 8454.44, -34895.36, -1743.55, 41476.32, 13486.46, -37119.81, 0.00, 0.00, 0.00, 0.00, 0.00, 0.00, 0.00
230, 5247.21, 75639.80, 12782.18, 32773.56, -31431.80, -3655.07, 8454.44, -34895.36, -1760.18, 41488.12, 13479.08, -37131.72, 0.00, 0.00, 0.00, 0.00, 0.00, 0.00, 0.00
231, 5232.05, 75622.27, 12762.06, 32743.20, -31454.16, -3672.95, 8436.20, -34914.07, -1760.18, 41488.12, 13479.08, -37131.72, 0.00, 0.00, 0.00, 0.00, 0.00, 0.00, 0.00
232, 5232.05, 75622.27, 12762.06, 32743.20, -31454.16, -3672.95, 8436.20, -34914.07, -1746.05, 41467.69, 13481.28, -37124.23, 0.00, 0.00, 0.00, 0.00, 0.00, 0.00, 0.00
233, 5239.09, 75642.26, 12779.72, 32757.91, -31437.19, -3659.67, 8457.39, -34897.73, -1746.05, 41467.69, 13481.28, -37124.23, 0.00, 0.00, 0.00, 0.00, 0.00, 0.00, 0.00
234, 5239.09, 75642.26, 12779.72, 32757.91, -31437.19, -3659.67, 8457.39, -34897.73, -1747.75, 41499.28, 13499.92, -37120.66, 0.00, 0.00, 0.00, 0.00, 0.00, 0.00, 0.00
235, 5240.37, 75635.53, 12775.43, 32750.71, -31438.96, -3663.76, 8450.81, -34903.32, -1747.75, 41499.28, 13499.92, -37120.66, 0.00, 0.00, 0.00, 0.00, 0.00, 0.00, 0.00
236, 5240.37, 75635.53, 12775.43, 32750.71, -31438.96, -3663.76, 8450.81, -34903.32, -1740.53, 41472.18, 13493.21, -37118.16, 0.00, 0.00, 0.00, 0.00, 0.00, 0.00, 0.00
237, 5243.23, 75641.36, 12780.01, 32760.04, -31437.15, -3662.53, 8456.96, -34901.18, -1740.53, 41472.18, 13493.21, -37118.16, 0.00, 0.00, 0.00, 0.00, 0.00, 0.00, 0.00
238, 5243.23, 75641.36, 12780.01, 32760.04, -31437.15, -3662.53, 8456.96, -34901.18, -1746.59, 41491.56, 13504.75, -37131.07, 0.00, 0.00, 0.00, 0.00, -0.10, 0.36, 0.94
239, 5248.23, 75642.44, 12780.01, 32761.49, -31435.27, -3656.39, 8453.90, -34903.61, -1746.59, 41491.56, 13504.75, -37131.07, 0.00, 0.00, 0.00, 0.00, 0.00, 0.00, 0.00
240, 5248.23, 75642.44, 12780.01, 32761.49, -31435.27, -3656.39, 8453.90, -34903.61, -1735.14, 41477.50, 13494.96, -37112.16, 0.00, 0.00, 0.00, 0.00, 0.00, 0.00, 0.00
241, 5242.42, 75640.49, 12780.44, 32757.35, -31435.58, -3664.90, 8455.40, -34901.71, -1735.14, 41477.50, 13494.96, -37112.16, 0.00, 0.00, 0.00, 0.00, 0.00, 0.00, 0.00
242, 5242.42, 75640.49, 12780.44, 32757.35, -31435.58, -3664.90, 8455.40, -34901.71, -1750.95, 41492.75, 13497.15, -37134.52, 0.00, 0.00, 0.00, 0.00, 0.00, 0.00, 0.00
243, 5243.45, 75640.96, 12779.59, 32760.01, -31443.18, -3663.83, 8452.56, -34905.38, -1750.95, 41492.75, 13497.15, -37134.52, 0.00, 0.00, 0.00, 0.00, 0.00, 0.00, 0.00
244, 5243.45, 75640.96, 12779.59, 32760.01, -31443.18, -3663.83, 8452.56, -34905.38, -1742.83, 41468.99, 13487.94, -37122.49, 0.00, 0.00, 0.00, 0.00, 0.00, 0.00, 0.00
245, 5242.96, 75636.89, 12774.04, 32758.51, -31442.02, -3662.60, 8452.42, -34907.07, -1742.83, 41468.99, 13487.94, -37122.49, 0.00, 0.00, 0.00, 0.00, 0.00, 0.00, 0.00
246, 5242.96, 75636.89, 12774.04, 32758.51, -31442.02, -3662.60, 8452.42, -34907.07, -1742.79, 41498.88, 13499.65, -37121.60, 0.00, 0.00, 0.00, 0.00, 0.00, 0.00, 0.00
247, 5250.56, 75646.98, 12784.04, 32765.33, -31428.94, -3655.99, 8468.96, -34892.17, -1742.79, 41498.88, 13499.65, -37121.60, 0.00, 0.00, 0.00, 0.00, 0.00, 0.00, 0.00
248, 5250.56, 75646.98, 12784.04, 32765.33, -31428.94, -3655.99, 8468.96, -34892.17, -1738.38, 41475.25, 13489.25, -37114.54, 0.00, 0.00, 0.00, 0.00, -0.10, 0.36, 0.94
249, 5238.49, 75630.73, 12771.38, 32753.71, -31441.73, -3665.98, 8449.58, -34910.65, -1738.38, 41475.25, 13489.25, -37114.54, 0.00, 0.00, 0.00, 0.00, 0.00, 0.00, 0.00
250, 5238.49, 75630.73, 12771.38, 32753.71, -31441.73, -3665.98, 8449.58, -34910.65, -1741.38, 41499.54, 13494.55, -37117.60, 0.00, 0.00, 0.00, 0.00, 0.00, 0.00, 0.00
251, 5246.09, 75648.41, 12789.22, 32771.77, -31427.76, -3650.15, 8467.87, -34893.62, -1741.38, 41499.54, 13494.55, -37117.60, 0.00, 0.00, 0.00, 0.00, 0.00, 0.00, 0.00
252, 5246.09, 75648.41, 12789.22, 32771.77, -31427.76, -3650.15, 8467.87, -34893.62, -1732.55, 41481.19, 13496.27, -37112.81, 0.00, 0.00, 0.00, 0.00, 0.00, 0.00, 0.00
253, 5238.33, 75631.46, 12772.10, 32755.16, -31443.67, -3666.38, 8453.70, -34908.82, -1732.55, 41481.19, 13496.27, -37112.81, 0.00, 0.00, 0.00, 0.00, 0.00, 0.00, 0.00
254, 5238.33, 75631.46, 12772.10, 32755.16, -31443.67, -3666.38, 8453.70, -34908.82, -1744.71, 41487.27, 13493.30, -37127.81, 0.00, 0.00, 0.00, 0.00, 0.00, 0.00, 0.00
255, 5248.73, 75646.21, 12786.67, 32769.18, -31425.52, -3657.48, 8472.96, -34895.21, -1744.71, 41487.27, 13493.30, -37127.81, 0.00, 0.00, 0.00, 0.00, 0.00, 0.00, 0.00
0, 5248.73, 75646.21, 12786.67, 32769.18, -31425.52, -3657.48, 8472.96, -34895.21, -1734.76, 41479.67, 13497.32, -37120.32, 0.00, 0.00, 0.00, 0.00, 0.00, 0.00, 0.00
1, 5233.79, 75628.42, 12773.17, 32752.75, -31437.55, -3666.94, 8453.45, -34912.53, -1734.76, 41479.67, 13497.32, -37120.32, 0.00, 0.00, 0.00, 0.00, 0.00, 0.00, 0.00
2, 5233.79, 75628.42, 12773.17, 32752.75, -31437.55, -3666.94, 8453.45, -34912.53, -1738.07, 41491.21, 13494.98, -37120.61, 0.00, 0.00, 0.00, 0.00, -0.11, 0.36, 0.94
3, 5258.43, 75653.66, 12791.68, 32776.62, -31420.70, -3646.69, 8476.92, -34888.55, -1738.07, 41491.21, 13494.98, -37120.61, 0.00, 0.00, 0.00, 0.00, 0.00, 0.00, 0.00
4, 5258.43, 75653.66, 12791.68, 32776.62, -31420.70, -3646.69, 8476.92, -34888.55, -1731.19, 41487.50, 13503.49, -37117.62, 0.00, 0.00, 0.00, 0.00, 0.00, 0.00, 0.00
5, 5233.95, 75633.02, 12773.51, 32749.17, -31442.40, -3667.61, 8453.03, -34911.84, -1731.19, 41487.50, 13503.49, -37117.62, 0.00, 0.00, 0.00, 0.00, 0.00, 0.00, 0.00
6, 5233.95, 75633.02, 12773.51, 32749.17, -31442.40, -3667.61, 8453.03, -34911.84, -1738.68, 41486.09, 13489.70, -37122.40, 0.00, 0.00, 0.00, 0.00, 0.00, 0.00, 0.00
7, 5257.00, 75653.84, 12792.04, 32777.47, -31422.08, -3647.54, 8481.59, -34887.50, -1738.68, 41486.09, 13489.70, -37122.40, 0.00, 0.00, 0.00, 0.00, 0.00, 0.00, 0.00
8, 5257.00, 75653.84, 12792.04, 32777.47, -31422.08, -3647.54, 8481.59, -34887.50, -1730.40, 41494.67, 13497.88, -37112.21, 0.00, 0.00, 0.00, 0.00, 0.00, 0.00, 0.00
9, 5230.55, 75623.75, 12766.78, 32748.08, -31442.78, -3673.29, 8454.23, -34912.15, -1730.40, 41494.67, 13497.88, -37112.21, 0.00, 0.00, 0.00, 0.00, 0.00, 0.00, 0.00
10, 5230.55, 75623.75, 12766.78, 32748.08, -31442.78, -3673.29, 8454.23, -34912.15, -1735.88, 41483.05, 13488.52, -37121.62, 0.00, 0.00, 0.00, 0.00, 0.00, 0.00, 0.00
11, 5246.74, 75646.59, 12787.99, 32768.64, -31423.18, -3652.43, 8479.13, -34891.36, -1735.88, 41483.05, 13488.52, -37121.62, 0.00, 0.00, 0.00, 0.00, -0.11, 0.36, 0.93
12, 5246.74, 75646.59, 12787.99, 32768.64, -31423.18, -3652.43, 8479.13, -34891.36, -1734.61, 41491.56, 13495.42, -37123.59, 0.00, 0.00, 0.00, 0.00, 0.00, 0.00, 0.00
13, 5233.10, 75630.95, 12772.23, 32753.62, -31437.41, -3666.18, 8458.28, -34911.68, -1734.61, 41491.56, 13495.42, -37123.59, 0.00, 0.00, 0.00, 0.00, 0.00, 0.00, 0.00
14, 5233.10, 75630.95, 12772.23, 32753.62, -31437.41, -3666.18, 8458.28, -34911.68, -1724.66, 41488.19, 13488.99, -37113.06, 0.00, 0.00, 0.00, 0.00, 0.00, 0.00, 0.00
15, 5253.58, 75647.55, 12785.53, 32771.50, -31424.32, -3649.26, 8483.63, -34888.93, -1724.66, 41488.19, 13488.99, -37113.06, 0.00, 0.00, 0.00, 0.00, 0.00, 0.00, 0.00
16, 5253.58, 75647.55, 12785.53, 32771.50, -31424.32, -3649.26, 8483.63, -34888.93, -1728.71, 41500.57, 13496.05, -37120.70, 0.00, 0.00, 0.00, 0.00, 0.00, 0.00, 0.00
17, 5236.14, 75626.43, 12770.65, 32749.35, -31441.13, -3668.82, 8458.82, -34913.27, -1728.71, 41500.57, 13496.05, -37120.70, 0.00, 0.00, 0.00, 0.00, 0.00, 0.00, 0.00
18, 5236.14, 75626.43, 12770.65, 32749.35, -31441.13, -3668.82, 8458.82, -34913.27, -1725.69, 41482.58, 13491.33, -37119.72, 0.00, 0.00, 0.00, 0.00, 0.00, 0.00, 0.00
19, 5248.48, 75647.02, 12788.91, 32768.15, -31421.28, -3654.58, 8482.20, -34888.93, -1725.69, 41482.58, 13491.33, -37119.72, 0.00, 0.00, 0.00, 0.00, 0.00, 0.00, 0.00
20, 5248.48, 75647.02, 12788.91, 32768.15, -31421.28, -3654.58, 8482.20, -34888.93, -1726.85, 41499.97, 13499.83, -37122.91, 0.00, 0.00, 0.00, 0.00, 0.00, 0.00, 0.00
21, 5231.05, 75627.98, 12770.47, 32751.76, -31437.62, -3665.98, 8460.47, -34912.13, -1726.85, 41499.97, 13499.83, -37122.91, 0.00, 0.00, 0.00, 0.00, -0.11, 0.36, 0.92
22, 5231.05, 75627.98, 12770.47, 32751.76, -31437.62, -3665.98, 8460.47, -34912.13, -1721.42, 41484.57, 13487.22, -37116.37, 0.00, 0.00, 0.00, 0.00, 0.00, 0.00, 0.00
23, 5254.90, 75649.50, 12787.41, 32769.51, -31422.89, -3650.82, 8483.29, -34891.61, -1721.42, 41484.57, 13487.22, -37116.37, 0.00, 0.00, 0.00, 0.00, 0.00, 0.00, 0.00
24, 5254.90, 75649.50, 12787.41, 32769.51, -31422.89, -3650.82, 8483.29, -34891.61, -1726.18, 41504.13, 13512.28, -37113.13, 0.00, 0.00, 0.00, 0.00, 0.00, 0.00, 0.00
25, 5248.39, 75640.98, 12781.00, 32760.46, -31430.93, -3659.07, 8473.68, -34902.85, -1726.18, 41504.13, 13512.28, -37113.13, 0.00, 0.00, 0.00, 0.00, 0.00, 0.00, 0.00
26, 5248.39, 75640.98, 12781.00, 32760.46, -31430.93, -3659.07, 8473.68, -34902.85, -1722.18, 41476.99, 13493.05, -37111.61, 0.00, 0.00, 0.00, 0.00, 0.00, 0.00, 0.00
27, 5245.04, 75644.42, 12784.44, 32765.49, -31430.08, -3655.02, 8477.57, -34899.92, -1722.18, 41476.99, 13493.05, -37111.61, 0.00, 0.00, 0.00, 0.00, 0.00, 0.00, 0.00
28, 5245.04, 75644.42, 12784.44, 32765.49, -31430.08, -3655.02, 8477.57, -34899.92, -1723.41, 41503.99, 13501.93, -37121.15, 0.00, 0.00, 0.00, 0.00, 0.00, 0.00, 0.00
29, 5250.63, 75642.46, 12781.26, 32764.48, -31428.32, -3661.06, 8473.90, -34903.90, -1723.41, 41503.99, 13501.93, -37121.15, 0.00, 0.00, 0.00, 0.00, 0.00, 0.00, 0.00
30, 5250.63, 75642.46, 12781.26, 32764.48, -31428.32, -3661.06, 8473.90, -34903.90, -1716.08, 41477.35, 13495.54, -37115.63, 0.00, 0.00, 0.00, 0.00, 0.00, 0.00, 0.00
31, 5249.55, 75645.72, 12785.02, 32764.68, -31424.18, -3657.75, 8481.79, -34898.92, -1716.08, 41477.35, 13495.54, -37115.63, 0.00, 0.00, 0.00, 0.00, -0.10, 0.36, 0.93
32, 5249.55, 75645.72, 12785.02, 32764.68, -31424.18, -3657.75, 8481.79, -34898.92, -1729.98, 41495.90, 13502.55, -37124.82, 0.00, 0.00, 0.00, 0.00, 0.00, 0.00, 0.00
33, 5244.43, 75640.42, 12779.12, 32760.66, -31433.08, -3657.97, 8476.14, -34900.93, -1729.98, 41495.90, 13502.55, -37124.82, 0.00, 0.00, 0.00, 0.00, 0.00, 0.00, 0.00
34, 5244.43, 75640.42, 12779.12, 32760.66, -31433.08, -3657.97, 8476.14, -34900.93, -1715.47, 41482.07, 13492.21, -37104.54, 0.00, 0.00, 0.00, 0.00, 0.00, 0.00, 0.00
35, 5246.40, 75640.20, 12777.89, 32760.41, -31434.33, -3663.70, 8479.65, -34900.26, -1715.47, 41482.07, 13492.21, -37104.54, 0.00, 0.00, 0.00, 0.00, 0.00, 0.00, 0.00
36, 5246.40, 75640.20, 12777.89, 32760.41, -31434.33, -3663.70, 8479.65, -34900.26, -1718.74, 41507.75, 13506.35, -37112.28, 0.00, 0.00, 0.00, 0.00, 0.00, 0.00, 0.00
37, 5251.99, 75645.79, 12780.55, 32764.37, -31424.12, -3656.32, 8484.72, -34897.33, -1718.74, 41507.75, 13506.35, -37112.28, 0.00, 0.00, 0.00, 0.00, 0.00, 0.00, 0.00
38, 5251.99, 75645.79, 12780.55, 32764.37, -31424.12, -3656.32, 8484.72, -34897.33, -1715.79, 41476.79, 13491.18, -37118.87, 0.00, 0.00, 0.00, 0.00, 0.00, 0.00, 0.00
39, 5235.34, 75633.43, 12772.34, 32755.88, -31438.60, -3662.49, 8468.61, -34914.52, -1715.79, 41476.79, 13491.18, -37118.87, 0.00, 0.00, 0.00, 0.00, 0.00, 0.00, 0.00
40, 5235.34, 75633.43, 12772.34, 32755.88, -31438.60, -3662.49, 8468.61, -34914.52, -1729.04, 41494.31, 13493.86, -37130.25, 0.00, 0.00, 0.00, 0.00, 0.00, 0.00, 0.00
41, 5247.83, 75642.64, 12781.82, 32766.27, -31430.66, -3657.15, 8483.16, -34901.78, -1729.04, 41494.31, 13493.86, -37130.25, 0.00, 0.00, 0.00, 0.00, -0.11, 0.36, 0.93
42, 5247.83, 75642.64, 12781.82, 32766.27, -31430.66, -3657.15, 8483.16, -34901.78, -1718.83, 41478.67, 13487.27, -37108.72, 0.00, 0.00, 0.00, 0.00, 0.00, 0.00, 0.00
43, 5236.28, 75626.50, 12766.96, 32750.24, -31440.99, -3672.12, 8472.92, -34912.64, -1718.83, 41478.67, 13487.27, -37108.72, 0.00, 0.00, 0.00, 0.00, 0.00, 0.00, 0.00
44, 5236.28, 75626.50, 12766.96, 32750.24, -31440.99, -3672.12, 8472.92, -34912.64, -1719.36, 41498.18, 13494.71, -37121.87, 0.00, 0.00, 0.00, 0.00, 0.00, 0.00, 0.00
45, 5252.44, 75641.79, 12782.07, 32769.49, -31423.31, -3655.34, 8493.46, -34890.29, -1719.36, 41498.18, 13494.71, -37121.87, 0.00, 0.00, 0.00, 0.00, 0.00, 0.00, 0.00
46, 5252.44, 75641.79, 12782.07, 32769.49, -31423.31, -3655.34, 8493.46, -34890.29, -1711.23, 41484.05, 13491.71, -37109.32, 0.00, 0.00, 0.00, 0.00, 0.00, 0.00, 0.00
47, 5234.62, 75629.41, 12772.72, 32753.98, -31438.87, -3667.27, 8474.71, -34911.34, -1711.23, 41484.05, 13491.71, -37109.32, 0.00, 0.00, 0.00, 0.00, 0.00, 0.00, 0.00
48, 5234.62, 75629.41, 12772.72, 32753.98, -31438.87, -3667.27, 8474.71, -34911.34, -1716.57, 41493.38, 13493.10, -37119.25, 0.00, 0.00, 0.00, 0.00, 0.00, 0.00, 0.00
49, 5247.68, 75645.30, 12782.81, 32770.34, -31423.56, -3653.93, 8494.13, -34895.43, -1716.57, 41493.38, 13493.10, -37119.25, 0.00, 0.00, 0.00, 0.00, 0.00, 0.00, 0.00
50, 5247.68, 75645.30, 12782.81, 32770.34, -31423.56, -3653.93, 8494.13, -34895.43, -1713.04, 41486.33, 13491.76, -37111.14, 0.00, 0.00, 0.00, 0.00, -0.11, 0.36, 0.93
51, 5238.67, 75622.99, 12763.74, 32751.54, -31442.69, -3667.21, 8474.98, -34911.77, -1713.04, 41486.33, 13491.76, -37111.14, 0.00, 0.00, 0.00, 0.00, 0.00, 0.00, 0.00
52, 5238.67, 75622.99, 12763.74, 32751.54, -31442.69, -3667.21, 8474.98, -34911.77, -1705.35, 41503.81, 13497.50, -37105.04, 0.00, 0.00, 0.00, 0.00, 0.00, 0.00, 0.00
53, 5253.22, 75648.72, 12788.59, 32775.32, -31412.98, -3644.50, 8504.35, -34881.37, -1705.35, 41503.81, 13497.50, -37105.04, 0.00, 0.00, 0.00, 0.00, 0.00, 0.00, 0.00
54, 5253.22, 75648.72, 12788.59, 32775.32, -31412.98, -3644.50, 8504.35, -34881.37, -1703.20, 41502.85, 13494.84, -37103.13, 0.00, 0.00, 0.00, 0.00, 0.00, 0.00, 0.00
55, 5229.88, 75624.51, 12766.49, 32750.40, -31437.19, -3665.71, 8476.16, -34910.70, -1703.20, 41502.85, 13494.84, -37103.13, 0.00, 0.00, 0.00, 0.00, 0.00, 0.00, 0.00
56, 5229.88, 75624.51, 12766.49, 32750.40, -31437.19, -3665.71, 8476.16, -34910.70, -1709.91, 41491.79, 13486.48, -37117.28, 0.00, 0.00, 0.00, 0.00, 0.00, 0.00, 0.00
57, 5243.03, 75641.90, 12778.45, 32768.33, -31428.29, -3654.31, 8499.25, -34895.27, -1709.91, 41491.79, 13486.48, -37117.28, 0.00, 0.00, 0.00, 0.00, 0.00, 0.00, 0.00
58, 5243.03, 75641.90, 12778.45, 32768.33, -31428.29, -3654.31, 8499.25, -34895.27, -1716.23, 41480.63, 13494.42, -37119.38, 0.00, 0.00, 0.00, 0.00, 0.00, 0.00, 0.00
59, 5231.07, 75616.59, 12756.54, 32744.70, -31450.00, -3672.66, 8472.12, -34918.39, -1716.23, 41480.63, 13494.42, -37119.38, 0.00, 0.00, 0.00, 0.00, 0.00, 0.00, 0.00
60, 5231.07, 75616.59, 12756.54, 32744.70, -31450.00, -3672.66, 8472.12, -34918.39, -1712.64, 41487.23, 13482.75, -37110.42, 0.00, 0.00, 0.00, 0.00, -0.11, 0.36, 0.93
61, 5250.36, 75645.68, 12784.01, 32771.21, -31420.36, -3650.98, 8503.52, -34889.44, -1712.64, 41487.23, 13482.75, -37110.42, 0.00, 0.00, 0.00, 0.00, 0.00, 0.00, 0.00
62, 5250.36, 75645.68, 12784.01, 32771.21, -31420.36, -3650.98, 8503.52, -34889.44, -1707.87, 41499.88, 13498.11, -37110.49, 0.00, 0.00, 0.00, 0.00, 0.00, 0.00, 0.00
63, 5227.34, 75619.37, 12761.79, 32745.57, -31438.02, -3669.44, 8479.63, -34914.23, -1707.87, 41499.88, 13498.11, -37110.49, 0.00, 0.00, 0.00, 0.00, 0.00, 0.00, 0.00
64, 5227.34, 75619.37, 12761.79, 32745.57, -31438.02, -3669.44, 8479.63, -34914.23, -1702.49, 41485.66, 13484.99, -37113.50, 0.00, 0.00, 0.00, 0.00, 0.00, 0.00, 0.00
65, 5244.19, 75646.44, 12785.06, 32774.63, -31421.77, -3646.51, 8501.89, -34892.37, -1702.49, 41485.66, 13484.99, -37113.50, 0.00, 0.00, 0.00, 0.00, 0.00, 0.00, 0.00
66, 5244.19, 75646.44, 12785.06, 32774.63, -31421.77, -3646.51, 8501.89, -34892.37, -1703.27, 41508.17, 13502.42, -37106.24, 0.00, 0.00, 0.00, 0.00, 0.00, 0.00, 0.00
67, 5238.13, 75627.39, 12768.19, 32752.75, -31435.58, -3670.09, 8491.18, -34902.79, -1703.27, 41508.17, 13502.42, -37106.24, 0.00, 0.00, 0.00, 0.00, 0.00, 0.00, 0.00
68, 5238.13, 75627.39, 12768.19, 32752.75, -31435.58, -3670.09, 8491.18, -34902.79, -1698.22, 41486.02, 13489.01, -37098.93, 0.00, 0.00, 0.00, 0.00, 0.00, 0.00, 0.00
69, 5242.69, 75635.57, 12776.57, 32764.17, -31424.94, -3655.63, 8505.58, -34893.51, -1698.22, 41486.02, 13489.01, -37098.93, 0.00, 0.00, 0.00, 0.00, 0.00, 0.00, 0.00
70, 5242.69, 75635.57, 12776.57, 32764.17, -31424.94, -3655.63, 8505.58, -34893.51, -1713.06, 41492.50, 13491.29, -37122.47, 0.00, 0.00, 0.00, 0.00, -0.11, 0.36, 0.94
71, 5223.51, 75614.59, 12759.07, 32742.96, -31442.04, -3670.94, 8479.92, -34917.02, -1713.06, 41492.50, 13491.29, -37122.47, 0.00, 0.00, 0.00, 0.00, 0.00, 0.00, 0.00
72, 5223.51, 75614.59, 12759.07, 32742.96, -31442.04, -3670.94, 8479.92, -34917.02, -1702.04, 41479.94, 13483.69, -37108.36, 0.00, 0.00, 0.00, 0.00, 0.00, 0.00, 0.00
73, 5240.32, 75630.16, 12773.26, 32765.20, -31429.59, -3651.72, 8505.24, -34893.31, -1702.04, 41479.94, 13483.69, -37108.36, 0.00, 0.00, 0.00, 0.00, 0.00, 0.00, 0.00
74, 5240.32, 75630.16, 12773.26, 32765.20, -31429.59, -3651.72, 8505.24, -34893.31, -1708.12, 41514.48, 13484.27, -37111.81, 0.00, 0.00, 0.00, 0.00, 0.00, 0.00, 0.00
75, 5225.08, 75615.75, 12757.75, 32745.75, -31443.23, -3669.46, 8490.65, -34909.40, -1708.12, 41514.48, 13484.27, -37111.81, 0.00, 0.00, 0.00, 0.00, 0.00, 0.00, 0.00
76, 5225.08, 75615.75, 12757.75, 32745.75, -31443.23, -3669.46, 8490.65, -34909.40, -1702.31, 41484.10, 13471.51, -37105.37, 0.00, 0.00, 0.00, 0.00, 0.00, 0.00, 0.00
77, 5237.66, 75630.92, 12768.43, 32758.02, -31432.81, -3656.66, 8498.87, -34903.57, -1702.31, 41484.10, 13471.51, -37105.37, 0.00, 0.00, 0.00, 0.00, 0.00, 0.00, 0.00
78, 5237.66, 75630.92, 12768.43, 32758.02, -31432.81, -3656.66, 8498.87, -34903.57, -1709.13, 41500.97, 13490.82, -37108.95, 0.00, 0.00, 0.00, 0.00, 0.00, 0.00, 0.00
79, 5236.72, 75629.20, 12771.76, 32757.20, -31431.49, -3659.38, 8497.44, -34904.53, -1709.13, 41500.97, 13490.82, -37108.95, 0.00, 0.00, 0.00, 0.00, 0.00, 0.00, 0.00
80, 5236.72, 75629.20, 12771.76, 32757.20, -31431.49, -3659.38, 8497.44, -34904.53, -1697.64, 41483.79, 13485.99, -37100.14, 0.00, 0.00, 0.00, 0.00, -0.11, 0.36, 0.94
81, 5249.17, 75636.45, 12774.96, 32760.08, -31433.03, -3657.71, 8507.72, -34897.71, -1697.64, 41483.79, 13485.99, -37100.14, 0.00, 0.00, 0.00, 0.00, 0.00, 0.00, 0.00
82, 5249.17, 75636.45, 12774.96, 32760.08, -31433.03, -3657.71, 8507.72, -34897.71, -1706.47, 41503.30, 13498.20, -37114.07, 0.00, 0.00, 0.00, 0.00, 0.00, 0.00, 0.00
83, 5243.09, 75634.26, 12773.51, 32757.06, -31430.33, -3658.94, 8507.23, -34899.01, -1706.47, 41503.30, 13498.20, -37114.07, 0.00, 0.00, 0.00, 0.00, 0.00, 0.00, 0.00
84, 5243.09, 75634.26, 12773.51, 32757.06, -31430.33, -3658.94, 8507.23, -34899.01, -1693.86, 41486.16, 13485.21, -37100.83, 0.00, 0.00, 0.00, 0.00, 0.00, 0.00, 0.00
85, 5241.42, 75634.84, 12773.37, 32758.80, -31432.14, -3657.44, 8507.30, -34898.63, -1693.86, 41486.16, 13485.21, -37100.83, 0.00, 0.00, 0.00, 0.00, 0.00, 0.00, 0.00
86, 5241.42, 75634.84, 12773.37, 32758.80, -31432.14, -3657.44, 8507.30, -34898.63, -1697.23, 41516.38, 13499.85, -37108.84, 0.00, 0.00, 0.00, 0.00, 0.00, 0.00, 0.00
87, 5251.39, 75641.74, 12777.26, 32763.21, -31424.05, -3649.75, 8509.78, -34897.46, -1697.23, 41516.38, 13499.85, -37108.84, 0.00, 0.00, 0.00, 0.00, 0.00, 0.00, 0.00
88, 5251.39, 75641.74, 12777.26, 32763.21, -31424.05, -3649.75, 8509.78, -34897.46, -1698.06, 41480.23, 13485.23, -37108.45, 0.00, 0.00, 0.00, 0.00, 0.00, 0.00, 0.00
89, 5238.85, 75630.90, 12768.84, 32752.23, -31434.98, -3665.22, 8502.58, -34903.66, -1698.06, 41480.23, 13485.23, -37108.45, 0.00, 0.00, 0.00, 0.00, -0.10, 0.36, 0.93
90, 5238.85, 75630.90, 12768.84, 32752.23, -31434.98, -3665.22, 8502.58, -34903.66, -1699.65, 41510.36, 13498.55, -37105.01, 0.00, 0.00, 0.00, 0.00, 0.00, 0.00, 0.00
91, 5247.83, 75642.80, 12779.39, 32765.02, -31424.67, -3652.41, 8520.80, -34889.42, -1699.65, 41510.36, 13498.55, -37105.01, 0.00, 0.00, 0.00, 0.00, 0.00, 0.00, 0.00
92, 5247.83, 75642.80, 12779.39, 32765.02, -31424.67, -3652.41, 8520.80, -34889.42, -1694.84, 41483.96, 13488.54, -37100.86, 0.00, 0.00, 0.00, 0.00, 0.00, 0.00, 0.00
93, 5232.79, 75622.45, 12760.36, 32745.84, -31439.31, -3663.96, 8506.16, -34907.66, -1694.84, 41483.96, 13488.54, -37100.86, 0.00, 0.00, 0.00, 0.00, 0.00, 0.00, 0.00
94, 5232.79, 75622.45, 12760.36, 32745.84, -31439.31, -3663.96, 8506.16, -34907.66, -1697.10, 41508.04, 13490.60, -37110.91, 0.00, 0.00, 0.00, 0.00, 0.00, 0.00, 0.00
95, 5247.52, 75639.91, 12774.60, 32760.93, -31424.16, -3652.34, 8522.14, -34893.24, -1697.10, 41508.04, 13490.60, -37110.91, 0.00, 0.00, 0.00, 0.00, 0.00, 0.00, 0.00
96, 5247.52, 75639.91, 12774.60, 32760.93, -31424.16, -3652.34, 8522.14, -34893.24, -1698.87, 41488.57, 13484.23, -37108.14, 0.00, 0.00, 0.00, 0.00, 0.00, 0.00, 0.00
97, 5233.08, 75623.33, 12760.43, 32745.13, -31442.78, -3668.14, 8500.39, -34912.29, -1698.87, 41488.57, 13484.23, -37108.14, 0.00, 0.00, 0.00, 0.00, 0.00, 0.00, 0.00
98, 5233.08, 75623.33, 12760.43, 32745.13, -31442.78, -3668.14, 8500.39, -34912.29, -1699.45, 41502.89, 13492.32, -37107.88, 0.00, 0.00, 0.00, 0.00, 0.00, 0.00, 0.00
99, 5244.93, 75648.47, 12782.85, 32766.74, -31418.86, -3649.28, 8531.86, -34886.33, -1699.45, 41502.89, 13492.32, -37107.88, 0.00, 0.00, 0.00, 0.00, -0.10, 0.36, 0.93
100, 5244.93, 75648.47, 12782.85, 32766.74, -31418.86, -3649.28, 8531.86, -34886.33, -1685.28, 41502.74, 13502.44, -37100.43, 0.00, 0.00, 0.00, 0.00, 0.00, 0.00, 0.00
101, 5241.13, 75636.00, 12771.54, 32754.87, -31428.38, -3656.86, 8521.25, -34899.18, -1685.28, 41502.74, 13502.44, -37100.43, 0.00, 0.00, 0.00, 0.00, 0.00, 0.00, 0.00
102, 5241.13, 75636.00, 12771.54, 32754.87, -31428.38, -3656.86, 8521.25, -34899.18, -1688.16, 41503.99, 13498.58, -37098.42, 0.00, 0.00, 0.00, 0.00, 0.00, 0.00, 0.00
103, 5257.38, 75651.38, 12787.48, 32773.04, -31410.97, -3644.14, 8541.03, -34884.59, -1688.16, 41503.99, 13498.58, -37098.42, 0.00, 0.00, 0.00, 0.00, 0.00, 0.00, 0.00
104, 5257.38, 75651.38, 12787.48, 32773.04, -31410.97, -3644.14, 8541.03, -34884.59, -1688.45, 41499.79, 13501.71, -37102.22, 0.00, 0.00, 0.00, 0.00, 0.00, 0.00, 0.00
105, 5230.49, 75623.17, 12763.38, 32744.88, -31436.68, -3662.51, 8513.31, -34909.11, -1688.45, 41499.79, 13501.71, -37102.22, 0.00, 0.00, 0.00, 0.00, 0.00, 0.00, 0.00
106, 5230.49, 75623.17, 12763.38, 32744.88, -31436.68, -3662.51, 8513.31, -34909.11, -1692.23, 41502.00, 13489.88, -37102.82, 0.00, 0.00, 0.00, 0.00, 0.00, 0.00, 0.00
107, 5250.60, 75649.86, 12783.97, 32770.63, -31416.36, -3638.42, 8542.32, -34882.36, -1692.23, 41502.00, 13489.88, -37102.82, 0.00, 0.00, 0.00, 0.00, 0.00, 0.00, 0.00
108, 5250.60, 75649.86, 12783.97, 32770.63, -31416.36, -3638.42, 8542.32, -34882.36, -1684.32, 41510.68, 13504.75, -37097.88, 0.00, 0.00, 0.00, 0.00, 0.00, 0.00, 0.00
109, 5238.69, 75626.84, 12764.19, 32746.31, -31435.56, -3662.74, 8518.05, -34909.18, -1684.32, 41510.68, 13504.75, -37097.88, 0.00, 0.00, 0.00, 0.00, -0.10, 0.36, 0.93
110, 5238.69, 75626.84, 12764.19, 32746.31, -31435.56, -3662.74, 8518.05, -34909.18, -1686.26, 41495.59, 13491.60, -37103.92, 0.00, 0.00, 0.00, 0.00, 0.00, 0.00, 0.00
111, 5254.16, 75648.76, 12784.19, 32770.56, -31417.46, -3649.17, 8544.60, -34887.32, -1686.26, 41495.59, 13491.60, -37103.92, 0.00, 0.00, 0.00, 0.00, 0.00, 0.00, 0.00
112, 5254.16, 75648.76, 12784.19, 32770.56, -31417.46, -3649.17, 8544.60, -34887.32, -1690.24, 41508.33, 13503.22, -37101.79, 0.00, 0.00, 0.00, 0.00, 0.00, 0.00, 0.00
113, 5238.80, 75634.68, 12771.36, 32752.39, -31429.66, -3658.85, 8528.04, -34903.19, -1690.24, 41508.33, 13503.22, -37101.79, 0.00, 0.00, 0.00, 0.00, 0.00, 0.00, 0.00
114, 5238.80, 75634.68, 12771.36, 32752.39, -31429.66, -3658.85, 8528.04, -34903.19, -1677.54, 41498.25, 13493.95, -37102.17, 0.00, 0.00, 0.00, 0.00, 0.00, 0.00, 0.00
115, 5251.39, 75646.50, 12782.20, 32772.51, -31415.87, -3640.83, 8550.59, -34885.59, -1677.54, 41498.25, 13493.95, -37102.17, 0.00, 0.00, 0.00, 0.00, 0.00, 0.00, 0.00
116, 5251.39, 75646.50, 12782.20, 32772.51, -31415.87, -3640.83, 8550.59, -34885.59, -1686.89, 41508.68, 13500.81, -37101.41, 0.00, 0.00, 0.00, 0.00, 0.00, 0.00, 0.00
117, 5239.94, 75627.05, 12766.62, 32752.14, -31433.12, -3658.58, 8529.65, -34905.00, -1686.89, 41508.68, 13500.81, -37101.41, 0.00, 0.00, 0.00, 0.00, 0.00, 0.00, 0.00
118, 5239.94, 75627.05, 12766.62, 32752.14, -31433.12, -3658.58, 8529.65, -34905.00, -1679.96, 41496.68, 13487.74, -37093.95, 0.00, 0.00, 0.00, 0.00, 0.00, 0.00, 0.00
119, 5252.19, 75641.20, 12778.31, 32768.77, -31419.02, -3646.78, 8552.83, -34884.28, -1679.96, 41496.68, 13487.74, -37093.95, 0.00, 0.00, 0.00, 0.00, -0.10, 0.36, 0.93
120, 5252.19, 75641.20, 12778.31, 32768.77, -31419.02, -3646.78, 8552.83, -34884.28, -1688.58, 41512.29, 13500.05, -37103.56, 0.00, 0.00, 0.00, 0.00, 0.00, 0.00, 0.00
121, 5239.61, 75629.05, 12768.72, 32749.73, -31426.31, -3656.61, 8535.44, -34901.49, -1688.58, 41512.29, 13500.05, -37103.56, 0.00, 0.00, 0.00, 0.00, 0.00, 0.00, 0.00
122, 5239.61, 75629.05, 12768.72, 32749.73, -31426.31, -3656.61, 8535.44, -34901.49, -1677.68, 41495.50, 13486.57, -37097.86, 0.00, 0.00, 0.00, 0.00, 0.00, 0.00, 0.00
123, 5248.73, 75641.16, 12778.51, 32767.14, -31419.55, -3647.31, 8549.21, -34891.16, -1677.68, 41495.50, 13486.57, -37097.86, 0.00, 0.00, 0.00, 0.00, 0.00, 0.00, 0.00
124, 5248.73, 75641.16, 12778.51, 32767.14, -31419.55, -3647.31, 8549.21, -34891.16, -1685.21, 41514.41, 13508.72, -37105.48, 0.00, 0.00, 0.00, 0.00, 0.00, 0.00, 0.00
125, 5245.62, 75638.26, 12774.33, 32758.98, -31425.26, -3650.51, 8546.57, -34897.29, -1685.21, 41514.41, 13508.72, -37105.48, 0.00, 0.00, 0.00, 0.00, 0.00, 0.00, 0.00
126, 5245.62, 75638.26, 12774.33, 32758.98, -31425.26, -3650.51, 8546.57, -34897.29, -1678.39, 41492.14, 13493.05, -37095.25, 0.00, 0.00, 0.00, 0.00, 0.00, 0.00, 0.00
127, 5257.31, 75645.48, 12782.29, 32767.46, -31412.47, -3647.54, 8562.86, -34886.82, -1678.39, 41492.14, 13493.05, -37095.25, 0.00, 0.00, 0.00, 0.00, 0.00, 0.00, 0.00
128, 5257.31, 75645.48, 12782.29, 32767.46, -31412.47, -3647.54, 8562.86, -34886.82, -1683.06, 41514.14, 13507.29, -37099.58, 0.00, 0.00, 0.00, 0.00, -0.11, 0.36, 0.92
129, 5248.66, 75640.06, 12777.87, 32760.95, -31418.62, -3647.18, 8554.17, -34893.78, -1683.06, 41514.14, 13507.29, -37099.58, 0.00, 0.00, 0.00, 0.00, 0.00, 0.00, 0.00
130, 5248.66, 75640.06, 12777.87, 32760.95, -31418.62, -3647.18, 8554.17, -34893.78, -1671.96, 41495.50, 13494.78, -37094.11, 0.00, 0.00, 0.00, 0.00, 0.00, 0.00, 0.00
131, 5242.58, 75635.55, 12774.40, 32761.93, -31423.04, -3650.38, 8552.54, -34898.27, -1671.96, 41495.50, 13494.78, -37094.11, 0.00, 0.00, 0.00, 0.00, 0.00, 0.00, 0.00
132, 5242.58, 75635.55, 12774.40, 32761.93, -31423.04, -3650.38, 8552.54, -34898.27, -1686.19, 41516.38, 13502.46, -37109.77, 0.00, 0.00, 0.00, 0.00, 0.00, 0.00, 0.00
133, 5255.52, 75639.38, 12777.84, 32764.71, -31418.33, -3646.55, 8566.04, -34888.95, -1686.19, 41516.38, 13502.46, -37109.77, 0.00, 0.00, 0.00, 0.00, 0.00, 0.00, 0.00
134, 5255.52, 75639.38, 12777.84, 32764.71, -31418.33, -3646.55, 8566.04, -34888.95, -1681.70, 41487.54, 13489.72, -37098.33, 0.00, 0.00, 0.00, 0.00, 0.00, 0.00, 0.00
135, 5249.28, 75632.09, 12770.94, 32759.79, -31422.89, -3652.57, 8559.96, -34899.10, -1681.70, 41487.54, 13489.72, -37098.33, 0.00, 0.00, 0.00, 0.00, 0.00, 0.00, 0.00
136, 5249.28, 75632.09, 12770.94, 32759.79, -31422.89, -3652.57, 8559.96, -34899.10, -1688.23, 41509.96, 13499.07, -37105.01, 0.00, 0.00, 0.00, 0.00, 0.00, 0.00, 0.00
137, 5250.31, 75640.83, 12780.48, 32766.72, -31416.40, -3646.82, 8570.11, -34889.48, -1688.23, 41509.96, 13499.07, -37105.01, 0.00, 0.00, 0.00, 0.00, 0.00, 0.00, 0.00
138, 5250.31, 75640.83, 12780.48, 32766.72, -31416.40, -3646.82, 8570.11, -34889.48, -1674.48, 41496.53, 13493.50, -37092.96, 0.00, 0.00, 0.00, 0.00, -0.11, 0.35, 0.94
139, 5242.56, 75633.98, 12774.67, 32761.00, -31420.88, -3649.48, 8567.22, -34896.21, -1674.48, 41496.53, 13493.50, -37092.96, 0.00, 0.00, 0.00, 0.00, 0.00, 0.00, 0.00
140, 5242.56, 75633.98, 12774.67, 32761.00, -31420.88, -3649.48, 8567.22, -34896.21, -1681.95, 41517.20, 13500.92, -37101.70, 0.00, 0.00, 0.00, 0.00, 0.00, 0.00, 0.00
141, 5267.21, 75649.41, 12789.33, 32775.86, -31411.08, -3637.50, 8581.93, -34885.86, -1681.95, 41517.20, 13500.92, -37101.70, 0.00, 0.00, 0.00, 0.00, 0.00, 0.00, 0.00
142, 5267.21, 75649.41, 12789.33, 32775.86, -31411.08, -3637.50, 8581.93, -34885.86, -1677.30, 41492.28, 13496.79, -37099.71, 0.00, 0.00, 0.00, 0.00, 0.00, 0.00, 0.00
143, 5249.06, 75632.55, 12772.23, 32758.56, -31429.23, -3653.28, 8564.99, -34904.66, -1677.30, 41492.28, 13496.79, -37099.71, 0.00, 0.00, 0.00, 0.00, 0.00, 0.00, 0.00
144, 5249.06, 75632.55, 12772.23, 32758.56, -31429.23, -3653.28, 8564.99, -34904.66, -1683.02, 41511.26, 13502.89, -37102.04, 0.00, 0.00, 0.00, 0.00, 0.00, 0.00, 0.00
145, 5258.52, 75654.08, 12793.45, 32777.49, -31406.70, -3638.82, 8591.56, -34881.04, -1683.02, 41511.26, 13502.89, -37102.04, 0.00, 0.00, 0.00, 0.00, 0.00, 0.00, 0.00
146, 5258.52, 75654.08, 12793.45, 32777.49, -31406.70, -3638.82, 8591.56, -34881.04, -1673.21, 41500.26, 13502.06, -37096.54, 0.00, 0.00, 0.00, 0.00, 0.00, 0.00, 0.00
147, 5251.41, 75633.80, 12771.83, 32756.26, -31426.28, -3652.97, 8573.10, -34899.79, -1673.21, 41500.26, 13502.06, -37096.54, 0.00, 0.00, 0.00, 0.00, 0.00, 0.00, 0.00
148, 5251.41, 75633.80, 12771.83, 32756.26, -31426.28, -3652.97, 8573.10, -34899.79, -1675.13, 41513.38, 13503.76, -37101.30, 0.00, 0.00, 0.00, 0.00, -0.11, 0.35, 0.93
149, 5270.56, 75657.55, 12794.14, 32785.07, -31403.69, -3628.69, 8600.64, -34874.13, -1675.13, 41513.38, 13503.76, -37101.30, 0.00, 0.00, 0.00, 0.00, 0.00, 0.00, 0.00
150, 5270.56, 75657.55, 12794.14, 32785.07, -31403.69, -3628.69, 8600.64, -34874.13, -1673.85, 41504.55, 13502.22, -37101.28, 0.00, 0.00, 0.00, 0.00, 0.00, 0.00, 0.00
151, 5248.95, 75639.44, 12776.08, 32756.57, -31426.22, -3649.59, 8579.54, -34900.21, -1673.85, 41504.55, 13502.22, -37101.28, 0.00, 0.00, 0.00, 0.00, 0.00, 0.00, 0.00
152, 5248.95, 75639.44, 12776.08, 32756.57, -31426.22, -3649.59, 8579.54, -34900.21, -1679.02, 41503.79, 13499.47, -37105.39, 0.00, 0.00, 0.00, 0.00, 0.00, 0.00, 0.00
153, 5255.39, 75655.09, 12790.94, 32778.72, -31411.89, -3640.38, 8606.67, -34878.67, -1679.02, 41503.79, 13499.47, -37105.39, 0.00, 0.00, 0.00, 0.00, 0.00, 0.00, 0.00
154, 5255.39, 75655.09, 12790.94, 32778.72, -31411.89, -3640.38, 8606.67, -34878.67, -1675.93, 41501.67, 13504.21, -37096.29, 0.00, 0.00, 0.00, 0.00, 0.00, 0.00, 0.00
155, 5251.07, 75632.80, 12772.55, 32756.14, -31426.31, -3652.90, 8587.88, -34900.06, -1675.93, 41501.67, 13504.21, -37096.29, 0.00, 0.00, 0.00, 0.00, 0.00, 0.00, 0.00
156, 5251.07, 75632.80, 12772.55, 32756.14, -31426.31, -3652.90, 8587.88, -34900.06, -1674.86, 41507.30, 13497.84, -37094.30, 0.00, 0.00, 0.00, 0.00, 0.00, 0.00, 0.00
157, 5262.27, 75649.56, 12787.34, 32774.21, -31407.57, -3637.63, 8610.96, -34878.96, -1674.86, 41507.30, 13497.84, -37094.30, 0.00, 0.00, 0.00, 0.00, 0.00, 0.00, 0.00
158, 5262.27, 75649.56, 12787.34, 32774.21, -31407.57, -3637.63, 8610.96, -34878.96, -1684.07, 41503.95, 13495.42, -37108.66, 0.00, 0.00, 0.00, 0.00, -0.10, 0.36, 0.93
159, 5243.58, 75624.82, 12767.12, 32753.51, -31430.91, -3651.60, 8584.79, -34909.22, -1684.07, 41503.95, 13495.42, -37108.66, 0.00, 0.00, 0.00, 0.00, 0.00, 0.00, 0.00
160, 5243.58, 75624.82, 12767.12, 32753.51, -31430.91, -3651.60, 8584.79, -34909.22, -1677.95, 41500.86, 13489.23, -37108.61, 0.00, 0.00, 0.00, 0.00, 0.00, 0.00, 0.00
161, 5257.58, 75650.04, 12790.74, 32778.59, -31411.80, -3637.39, 8621.45, -34878.22, -1677.95, 41500.86, 13489.23, -37108.61, 0.00, 0.00, 0.00, 0.00, 0.00, 0.00, 0.00
162, 5257.58, 75650.04, 12790.74, 32778.59, -31411.80, -3637.39, 8621.45, -34878.22, -1679.73, 41508.73, 13502.06, -37099.13, 0.00, 0.00, 0.00, 0.00, 0.00, 0.00, 0.00
163, 5249.24, 75633.16, 12775.65, 32760.06, -31427.40, -3651.83, 8603.70, -34899.36, -1679.73, 41508.73, 13502.06, -37099.13, 0.00, 0.00, 0.00, 0.00, 0.00, 0.00, 0.00
164, 5249.24, 75633.16, 12775.65, 32760.06, -31427.40, -3651.83, 8603.70, -34899.36, -1673.12, 41496.30, 13490.93, -37100.92, 0.00, 0.00, 0.00, 0.00, 0.00, 0.00, 0.00
165, 5262.34, 75650.41, 12788.13, 32776.93, -31405.50, -3633.86, 8626.77, -34879.56, -1673.12, 41496.30, 13490.93, -37100.92, 0.00, 0.00, 0.00, 0.00, 0.00, 0.00, 0.00
166, 5262.34, 75650.41, 12788.13, 32776.93, -31405.50, -3633.86, 8626.77, -34879.56, -1678.39, 41513.16, 13500.77, -37102.17, 0.00, 0.00, 0.00, 0.00, 0.00, 0.00, 0.00
167, 5252.35, 75635.55, 12777.49, 32763.88, -31420.58, -3645.23, 8613.38, -34895.65, -1678.39, 41513.16, 13500.77, -37102.17, 0.00, 0.00, 0.00, 0.00, -0.11, 0.36, 0.93
168, 5252.35, 75635.55, 12777.49, 32763.88, -31420.58, -3645.23, 8613.38, -34895.65, -1666.72, 41499.84, 13494.75, -37094.26, 0.00, 0.00, 0.00, 0.00, 0.00, 0.00, 0.00
169, 5262.87, 75650.57, 12791.12, 32778.59, -31410.71, -3636.36, 8635.89, -34879.94, -1666.72, 41499.84, 13494.75, -37094.26, 0.00, 0.00, 0.00, 0.00, 0.00, 0.00, 0.00
170, 5262.87, 75650.57, 12791.12, 32778.59, -31410.71, -3636.36, 8635.89, -34879.94, -1675.24, 41513.63, 13505.97, -37104.79, 0.00, 0.00, 0.00, 0.00, 0.00, 0.00, 0.00
171, 5249.98, 75633.98, 12776.23, 32761.71, -31421.05, -3648.61, 8622.99, -34897.04, -1675.24, 41513.63, 13505.97, -37104.79, 0.00, 0.00, 0.00, 0.00, 0.00, 0.00, 0.00
172, 5249.98, 75633.98, 12776.23, 32761.71, -31421.05, -3648.61, 8622.99, -34897.04, -1672.29, 41490.49, 13489.84, -37103.52, 0.00, 0.00, 0.00, 0.00, 0.00, 0.00, 0.00
173, 5263.59, 75651.06, 12791.50, 32776.62, -31406.64, -3632.63, 8642.19, -34880.01, -1672.29, 41490.49, 13489.84, -37103.52, 0.00, 0.00, 0.00, 0.00, 0.00, 0.00, 0.00
174, 5263.59, 75651.06, 12791.50, 32776.62, -31406.64, -3632.63, 8642.19, -34880.01, -1669.05, 41522.68, 13510.06, -37096.47, 0.00, 0.00, 0.00, 0.00, 0.00, 0.00, 0.00
175, 5257.80, 75642.77, 12786.90, 32770.63, -31414.55, -3638.73, 8640.40, -34883.59, -1669.05, 41522.68, 13510.06, -37096.47, 0.00, 0.00, 0.00, 0.00, 0.00, 0.00, 0.00
176, 5257.80, 75642.77, 12786.90, 32770.63, -31414.55, -3638.73, 8640.40, -34883.59, -1661.47, 41500.55, 13495.51, -37088.70, 0.00, 0.00, 0.00, 0.00, 0.00, 0.00, 0.00
177, 5262.27, 75646.26, 12786.14, 32771.01, -31412.31, -3638.89, 8647.08, -34883.11, -1661.47, 41500.55, 13495.51, -37088.70, 0.00, 0.00, 0.00, 0.00, -0.11, 0.36, 0.93
178, 5262.27, 75646.26, 12786.14, 32771.01, -31412.31, -3638.89, 8647.08, -34883.11, -1670.55, 41526.19, 13505.48, -37107.02, 0.00, 0.00, 0.00, 0.00, 0.00, 0.00, 0.00
179, 5260.51, 75645.01, 12787.37, 32773.16, -31408.29, -3635.87, 8650.57, -34885.57, -1670.55, 41526.19, 13505.48, -37107.02, 0.00, 0.00, 0.00, 0.00, 0.00, 0.00, 0.00
180, 5260.51, 75645.01, 12787.37, 32773.16, -31408.29, -3635.87, 8650.57, -34885.57, -1658.95, 41500.53, 13501.77, -37100.59, 0.00, 0.00, 0.00, 0.00, 0.00, 0.00, 0.00
181, 5251.99, 75639.22, 12781.96, 32768.89, -31415.98, -3639.33, 8650.24, -34886.11, -1658.95, 41500.53, 13501.77, -37100.59, 0.00, 0.00, 0.00, 0.00, 0.00, 0.00, 0.00
182, 5251.99, 75639.22, 12781.96, 32768.89, -31415.98, -3639.33, 8650.24, -34886.11, -1674.46, 41519.30, 13504.72, -37094.82, 0.00, 0.00, 0.00, 0.00, 0.00, 0.00, 0.00
183, 5260.97, 75644.20, 12786.99, 32772.46, -31409.70, -3637.10, 8664.09, -34878.55, -1674.46, 41519.30, 13504.72, -37094.82, 0.00, 0.00, 0.00, 0.00, 0.00, 0.00, 0.00
184, 5260.97, 75644.20, 12786.99, 32772.46, -31409.70, -3637.10, 8664.09, -34878.55, -1666.39, 41493.73, 13497.53, -37091.63, 0.00, 0.00, 0.00, 0.00, 0.00, 0.00, 0.00
185, 5251.41, 75635.95, 12776.75, 32763.86, -31416.70, -3645.26, 8660.00, -34888.19, -1666.39, 41493.73, 13497.53, -37091.63, 0.00, 0.00, 0.00, 0.00, 0.00, 0.00, 0.00
186, 5251.41, 75635.95, 12776.75, 32763.86, -31416.70, -3645.26, 8660.00, -34888.19, -1669.92, 41523.95, 13504.92, -37097.21, 0.00, 0.00, 0.00, 0.00, 0.00, 0.00, 0.00
187, 5253.75, 75639.66, 12781.35, 32770.96, -31412.09, -3636.94, 8668.16, -34884.23, -1669.92, 41523.95, 13504.92, -37097.21, 0.00, 0.00, 0.00, 0.00, -0.10, 0.36, 0.92
188, 5253.75, 75639.66, 12781.35, 32770.96, -31412.09, -3636.94, 8668.16, -34884.23, -1667.31, 41495.23, 13492.70, -37102.82, 0.00, 0.00, 0.00, 0.00, 0.00, 0.00, 0.00
189, 5240.52, 75629.45, 12769.46, 32757.46, -31427.09, -3645.08, 8658.44, -34899.18, -1667.31, 41495.23, 13492.70, -37102.82, 0.00, 0.00, 0.00, 0.00, 0.00, 0.00, 0.00
190, 5240.52, 75629.45, 12769.46, 32757.46, -31427.09, -3645.08, 8658.44, -34899.18, -1671.82, 41512.39, 13498.51, -37111.56, 0.00, 0.00, 0.00, 0.00, 0.00, 0.00, 0.00
191, 5262.05, 75645.41, 12784.37, 32771.81, -31408.38, -3639.13, 8682.69, -34880.16, -1671.82, 41512.39, 13498.51, -37111.56, 0.00, 0.00, 0.00, 0.00, 0.00, 0.00, 0.00
192, 5262.05, 75645.41, 12784.37, 32771.81, -31408.38, -3639.13, 8682.69, -34880.16, -1670.75, 41493.38, 13494.98, -37107.07, 0.00, 0.00, 0.00, 0.00, 0.00, 0.00, 0.00
193, 5244.77, 75623.66, 12766.33, 32753.37, -31430.71, -3650.91, 8665.28, -34901.87, -1670.75, 41493.38, 13494.98, -37107.07, 0.00, 0.00, 0.00, 0.00, 0.00, 0.00, 0.00
194, 5244.77, 75623.66, 12766.33, 32753.37, -31430.71, -3650.91, 8665.28, -34901.87, -1674.53, 41508.11, 13492.43, -37099.20, 0.00, 0.00, 0.00, 0.00, 0.00, 0.00, 0.00
195, 5265.69, 75646.33, 12788.46, 32779.19, -31404.65, -3629.61, 8701.76, -34872.43, -1674.53, 41508.11, 13492.43, -37099.20, 0.00, 0.00, 0.00, 0.00, 0.00, 0.00, 0.00
196, 5265.69, 75646.33, 12788.46, 32779.19, -31404.65, -3629.61, 8701.76, -34872.43, -1662.61, 41505.49, 13497.03, -37094.91, 0.00, 0.00, 0.00, 0.00, 0.00, 0.00, 0.00
197, 5249.40, 75631.88, 12776.26, 32764.79, -31422.51, -3641.46, 8680.61, -34897.09, -1662.61, 41505.49, 13497.03, -37094.91, 0.00, 0.00, 0.00, 0.00, -0.10, 0.36, 0.93
198, 5249.40, 75631.88, 12776.26, 32764.79, -31422.51, -3641.46, 8680.61, -34897.09, -1662.77, 41509.98, 13501.64, -37110.69, 0.00, 0.00, 0.00, 0.00, 0.00, 0.00, 0.00
199, 5266.99, 75650.08, 12793.18, 32781.47, -31401.36, -3626.61, 8707.19, -34876.86, -1662.77, 41509.98, 13501.64, -37110.69, 0.00, 0.00, 0.00, 0.00, 0.00, 0.00, 0.00
200, 5266.99, 75650.08, 12793.18, 32781.47, -31401.36, -3626.61, 8707.19, -34876.86, -1665.23, 41506.63, 13501.10, -37105.41, 0.00, 0.00, 0.00, 0.00, 0.00, 0.00, 0.00
201, 5254.02, 75629.27, 12774.92, 32758.85, -31423.94, -3651.72, 8693.02, -34894.74, -1665.23, 41506.63, 13501.10, -37105.41, 0.00, 0.00, 0.00, 0.00, 0.00, 0.00, 0.00
202, 5254.02, 75629.27, 12774.92, 32758.85, -31423.94, -3651.72, 8693.02, -34894.74, -1657.72, 41512.22, 13503.02, -37095.65, 0.00, 0.00, 0.00, 0.00, 0.00, 0.00, 0.00
203, 5269.76, 75655.16, 12798.74, 32785.70, -31396.82, -3626.01, 8730.64, -34863.98, -1657.72, 41512.22, 13503.02, -37095.65, 0.00, 0.00, 0.00, 0.00, 0.00, 0.00, 0.00
204, 5269.76, 75655.16, 12798.74, 32785.70, -31396.82, -3626.01, 8730.64, -34863.98, -1655.46, 41519.62, 13505.04, -37088.67, 0.00, 0.00, 0.00, 0.00, 0.00, 0.00, 0.00
205, 5250.11, 75629.12, 12773.84, 32760.21, -31419.58, -3640.07, 8705.42, -34891.25, -1655.46, 41519.62, 13505.04, -37088.67, 0.00, 0.00, 0.00, 0.00, 0.00, 0.00, 0.00
206, 5250.11, 75629.12, 12773.84, 32760.21, -31419.58, -3640.07, 8705.42, -34891.25, -1654.86, 41511.37, 13495.18, -37088.25, 0.00, 0.00, 0.00, 0.00, -0.10, 0.36, 0.93
