%OpenBCI Raw EEG Data
%
%Sample Rate = 250.0 Hz
%First Column = SampleIndex
%Other Columns = EEG data in microvolts followed by Accel Data (in G) interleaved with Aux Data
0, 0.00, 0.00, 0.00, 0.00, 0.00, 0.00, 0.00, 0.00, -1516.59, 43162.16, 13326.76, -40397.96, 0.00, 0.00, 0.00, 0.00, -0.13, 0.40, 0.91
1, 5668.69, 73872.94, 13435.88, 34274.61, -27605.37, -5332.25, 10113.99, -28543.47, -1516.59, 43162.16, 13326.76, -40397.96, 0.00, 0.00, 0.00, 0.00, 0.00, 0.00, 0.00
2, 5668.69, 73872.94, 13435.88, 34274.61, -27605.37, -5332.25, 10113.99, -28543.47, -1033.81, 43528.32, 13664.65, -38923.89, 0.00, 0.00, 0.00, 0.00, 0.00, 0.00, 0.00
3, 5680.52, 73866.45, 13431.61, 34272.49, -27611.56, -5333.73, 10108.73, -28541.50, -1033.81, 43528.32, 13664.65, -38923.89, 0.00, 0.00, 0.00, 0.00, 0.00, 0.00, 0.00
4, 5680.52, 73866.45, 13431.61, 34272.49, -27611.56, -5333.73, 10108.73, -28541.50, -1039.11, 43514.51, 13654.57, -38945.19, 0.00, 0.00, 0.00, 0.00, 0.00, 0.00, 0.00
5, 5673.77, 73863.41, 13419.23, 34261.98, -27622.13, -5342.42, 10105.92, -28543.42, -1039.11, 43514.51, 13654.57, -38945.19, 0.00, 0.00, 0.00, 0.00, 0.00, 0.00, 0.00
6, 5673.77, 73863.41, 13419.23, 34261.98, -27622.13, -5342.42, 10105.92, -28543.42, -1029.32, 43529.51, 13669.99, -38946.26, 0.00, 0.00, 0.00, 0.00, 0.00, 0.00, 0.00
7, 5669.16, 73875.06, 13433.51, 34269.40, -27609.81, -5335.43, 10103.79, -28532.18, -1029.32, 43529.51, 13669.99, -38946.26, 0.00, 0.00, 0.00, 0.00, -0.14, 0.40, 0.91
8, 5669.16, 73875.06, 13433.51, 34269.40, -27609.81, -5335.43, 10103.79, -28532.18, -1021.79, 43531.07, 13660.80, -38937.32, 0.00, 0.00, 0.00, 0.00, 0.00, 0.00, 0.00
9, 5676.78, 73864.31, 13419.61, 34264.87, -27619.11, -5337.48, 10106.12, -28530.28, -1021.79, 43531.07, 13660.80, -38937.32, 0.00, 0.00, 0.00, 0.00, 0.00, 0.00, 0.00
10, 5676.78, 73864.31, 13419.61, 34264.87, -27619.11, -5337.48, 10106.12, -28530.28, -1025.39, 43543.63, 13665.14, -38928.56, 0.00, 0.00, 0.00, 0.00, 0.00, 0.00, 0.00
11, 5671.82, 73862.21, 13424.84, 34269.05, -27619.96, -5331.00, 10107.86, -28523.78, -1025.39, 43543.63, 13665.14, -38928.56, 0.00, 0.00, 0.00, 0.00, 0.00, 0.00, 0.00
12, 5671.82, 73862.21, 13424.84, 34269.05, -27619.96, -5331.00, 10107.86, -28523.78, -1023.37, 43531.50, 13654.34, -38906.59, 0.00, 0.00, 0.00, 0.00, 0.00, 0.00, 0.00
13, 5661.58, 73856.24, 13416.19, 34262.09, -27632.70, -5343.54, 10094.67, -28532.96, -1023.37, 43531.50, 13654.34, -38906.59, 0.00, 0.00, 0.00, 0.00, 0.00, 0.00, 0.00
14, 5661.58, 73856.24, 13416.19, 34262.09, -27632.70, -5343.54, 10094.67, -28532.96, -1021.41, 43538.31, 13660.16, -38951.00, 0.00, 0.00, 0.00, 0.00, 0.00, 0.00, 0.00
15, 5666.14, 73863.23, 13417.33, 34265.83, -27629.37, -5339.03, 10093.40, -28526.84, -1021.41, 43538.31, 13660.16, -38951.00, 0.00, 0.00, 0.00, 0.00, 0.00, 0.00, 0.00
16, 5666.14, 73863.23, 13417.33, 34265.83, -27629.37, -5339.03, 10093.40, -28526.84, -1018.99, 43532.41, 13654.46, -38919.95, 0.00, 0.00, 0.00, 0.00, -0.13, 0.41, 0.91
17, 5658.48, 73852.09, 13410.84, 34261.40, -27634.18, -5340.28, 10093.80, -28529.36, -1018.99, 43532.41, 13654.46, -38919.95, 0.00, 0.00, 0.00, 0.00, 0.00, 0.00, 0.00
18, 5658.48, 73852.09, 13410.84, 34261.40, -27634.18, -5340.28, 10093.80, -28529.36, -1015.89, 43540.68, 13659.22, -38912.29, 0.00, 0.00, 0.00, 0.00, 0.00, 0.00, 0.00
19, 5672.13, 73863.33, 13422.56, 34271.97, -27629.55, -5334.42, 10096.86, -28518.10, -1015.89, 43540.68, 13659.22, -38912.29, 0.00, 0.00, 0.00, 0.00, 0.00, 0.00, 0.00
20, 5672.13, 73863.33, 13422.56, 34271.97, -27629.55, -5334.42, 10096.86, -28518.10, -1021.03, 43532.48, 13652.07, -38925.56, 0.00, 0.00, 0.00, 0.00, 0.00, 0.00, 0.00
21, 5660.36, 73849.31, 13408.83, 34260.53, -27642.16, -5343.32, 10084.50, -28528.20, -1021.03, 43532.48, 13652.07, -38925.56, 0.00, 0.00, 0.00, 0.00, 0.00, 0.00, 0.00
22, 5660.36, 73849.31, 13408.83, 34260.53, -27642.16, -5343.32, 10084.50, -28528.20, -1020.33, 43544.95, 13653.90, -38931.04, 0.00, 0.00, 0.00, 0.00, 0.00, 0.00, 0.00
23, 5673.23, 73871.15, 13428.48, 34282.03, -27637.39, -5328.45, 10100.08, -28514.41, -1020.33, 43544.95, 13653.90, -38931.04, 0.00, 0.00, 0.00, 0.00, 0.00, 0.00, 0.00
24, 5673.23, 73871.15, 13428.48, 34282.03, -27637.39, -5328.45, 10100.08, -28514.41, -1019.15, 43541.35, 13655.98, -38915.61, 0.00, 0.00, 0.00, 0.00, 0.00, 0.00, 0.00
25, 5670.35, 73854.61, 13414.04, 34263.14, -27647.83, -5343.79, 10082.96, -28528.29, -1019.15, 43541.35, 13655.98, -38915.61, 0.00, 0.00, 0.00, 0.00, 0.00, 0.00, 0.00
26, 5670.35, 73854.61, 13414.04, 34263.14, -27647.83, -5343.79, 10082.96, -28528.29, -1024.34, 43539.34, 13652.74, -38921.79, 0.00, 0.00, 0.00, 0.00, -0.13, 0.41, 0.90
27, 5684.25, 73877.95, 13431.14, 34284.78, -27631.34, -5326.47, 10093.13, -28509.67, -1024.34, 43539.34, 13652.74, -38921.79, 0.00, 0.00, 0.00, 0.00, 0.00, 0.00, 0.00
28, 5684.25, 73877.95, 13431.14, 34284.78, -27631.34, -5326.47, 10093.13, -28509.67, -1017.43, 43537.84, 13660.38, -38913.83, 0.00, 0.00, 0.00, 0.00, 0.00, 0.00, 0.00
29, 5675.53, 73861.45, 13424.77, 34268.11, -27650.76, -5341.11, 10081.42, -28525.32, -1017.43, 43537.84, 13660.38, -38913.83, 0.00, 0.00, 0.00, 0.00, 0.00, 0.00, 0.00
30, 5675.53, 73861.45, 13424.77, 34268.11, -27650.76, -5341.11, 10081.42, -28525.32, -1024.25, 43543.52, 13658.08, -38922.61, 0.00, 0.00, 0.00, 0.00, 0.00, 0.00, 0.00
31, 5684.18, 73880.27, 13433.60, 34286.43, -27634.51, -5323.74, 10106.21, -28498.94, -1024.25, 43543.52, 13658.08, -38922.61, 0.00, 0.00, 0.00, 0.00, 0.00, 0.00, 0.00
32, 5684.18, 73880.27, 13433.60, 34286.43, -27634.51, -5323.74, 10106.21, -28498.94, -1007.01, 43560.40, 13666.64, -38902.27, 0.00, 0.00, 0.00, 0.00, 0.00, 0.00, 0.00
33, 5675.13, 73869.98, 13422.65, 34267.41, -27646.34, -5339.74, 10072.75, -28517.16, -1007.01, 43560.40, 13666.64, -38902.27, 0.00, 0.00, 0.00, 0.00, 0.00, 0.00, 0.00
34, 5675.13, 73869.98, 13422.65, 34267.41, -27646.34, -5339.74, 10072.75, -28517.16, -1010.28, 43544.86, 13670.13, -38920.93, 0.00, 0.00, 0.00, 0.00, 0.00, 0.00, 0.00
35, 5695.43, 73890.48, 13440.89, 34289.12, -27632.68, -5325.91, 10097.22, -28499.70, -1010.28, 43544.86, 13670.13, -38920.93, 0.00, 0.00, 0.00, 0.00, 0.00, 0.00, 0.00
36, 5695.43, 73890.48, 13440.89, 34289.12, -27632.68, -5325.91, 10097.22, -28499.70, -1007.75, 43554.27, 13671.40, -38910.95, 0.00, 0.00, 0.00, 0.00, -0.14, 0.41, 0.91
37, 5678.84, 73873.27, 13423.63, 34270.88, -27649.71, -5337.02, 10079.74, -28507.93, -1007.75, 43554.27, 13671.40, -38910.95, 0.00, 0.00, 0.00, 0.00, 0.00, 0.00, 0.00
38, 5678.84, 73873.27, 13423.63, 34270.88, -27649.71, -5337.02, 10079.74, -28507.93, -1004.55, 43556.15, 13660.38, -38911.46, 0.00, 0.00, 0.00, 0.00, 0.00, 0.00, 0.00
39, 5681.28, 73878.80, 13434.81, 34282.66, -27639.72, -5328.23, 10093.96, -28491.90, -1004.55, 43556.15, 13660.38, -38911.46, 0.00, 0.00, 0.00, 0.00, 0.00, 0.00, 0.00
40, 5681.28, 73878.80, 13434.81, 34282.66, -27639.72, -5328.23, 10093.96, -28491.90, -1003.86, 43566.59, 13665.72, -38884.14, 0.00, 0.00, 0.00, 0.00, 0.00, 0.00, 0.00
41, 5674.37, 73865.77, 13420.50, 34271.46, -27655.83, -5337.22, 10071.54, -28512.53, -1003.86, 43566.59, 13665.72, -38884.14, 0.00, 0.00, 0.00, 0.00, 0.00, 0.00, 0.00
42, 5674.37, 73865.77, 13420.50, 34271.46, -27655.83, -5337.22, 10071.54, -28512.53, -1011.95, 43549.82, 13650.30, -38920.31, 0.00, 0.00, 0.00, 0.00, 0.00, 0.00, 0.00
43, 5673.79, 73871.02, 13424.01, 34281.34, -27650.00, -5327.27, 10090.61, -28494.43, -1011.95, 43549.82, 13650.30, -38920.31, 0.00, 0.00, 0.00, 0.00, 0.00, 0.00, 0.00
44, 5673.79, 73871.02, 13424.01, 34281.34, -27650.00, -5327.27, 10090.61, -28494.43, -1005.31, 43562.92, 13658.66, -38890.89, 0.00, 0.00, 0.00, 0.00, 0.00, 0.00, 0.00
45, 5671.64, 73859.99, 13417.84, 34270.97, -27659.05, -5338.56, 10068.75, -28506.74, -1005.31, 43562.92, 13658.66, -38890.89, 0.00, 0.00, 0.00, 0.00, 0.00, 0.00, 0.00
46, 5671.64, 73859.99, 13417.84, 34270.97, -27659.05, -5338.56, 10068.75, -28506.74, -1008.13, 43546.63, 13647.30, -38901.20, 0.00, 0.00, 0.00, 0.00, -0.14, 0.41, 0.91
47, 5677.30, 73867.59, 13424.30, 34279.55, -27649.64, -5328.70, 10084.19, -28495.70, -1008.13, 43546.63, 13647.30, -38901.20, 0.00, 0.00, 0.00, 0.00, 0.00, 0.00, 0.00
48, 5677.30, 73867.59, 13424.30, 34279.55, -27649.64, -5328.70, 10084.19, -28495.70, -1002.32, 43565.96, 13659.46, -38909.18, 0.00, 0.00, 0.00, 0.00, 0.00, 0.00, 0.00
49, 5669.10, 73862.66, 13420.77, 34277.92, -27652.79, -5332.08, 10077.24, -28493.82, -1002.32, 43565.96, 13659.46, -38909.18, 0.00, 0.00, 0.00, 0.00, 0.00, 0.00, 0.00
50, 5669.10, 73862.66, 13420.77, 34277.92, -27652.79, -5332.08, 10077.24, -28493.82, -1004.11, 43565.61, 13645.47, -38877.41, 0.00, 0.00, 0.00, 0.00, 0.00, 0.00, 0.00
51, 5672.76, 73862.01, 13420.48, 34280.38, -27657.73, -5329.21, 10078.58, -28490.63, -1004.11, 43565.61, 13645.47, -38877.41, 0.00, 0.00, 0.00, 0.00, 0.00, 0.00, 0.00
52, 5672.76, 73862.01, 13420.48, 34280.38, -27657.73, -5329.21, 10078.58, -28490.63, -1000.33, 43571.66, 13654.28, -38892.88, 0.00, 0.00, 0.00, 0.00, 0.00, 0.00, 0.00
53, 5672.29, 73861.94, 13415.87, 34273.71, -27665.89, -5339.07, 10065.44, -28507.37, -1000.33, 43571.66, 13654.28, -38892.88, 0.00, 0.00, 0.00, 0.00, 0.00, 0.00, 0.00
54, 5672.29, 73861.94, 13415.87, 34273.71, -27665.89, -5339.07, 10065.44, -28507.37, -1012.22, 43550.72, 13641.02, -38894.71, 0.00, 0.00, 0.00, 0.00, 0.00, 0.00, 0.00
55, 5675.20, 73859.68, 13416.83, 34277.98, -27661.27, -5331.07, 10077.31, -28491.99, -1012.22, 43550.72, 13641.02, -38894.71, 0.00, 0.00, 0.00, 0.00, -0.14, 0.40, 0.90
56, 5675.20, 73859.68, 13416.83, 34277.98, -27661.27, -5331.07, 10077.31, -28491.99, -1001.31, 43572.00, 13653.58, -38903.23, 0.00, 0.00, 0.00, 0.00, 0.00, 0.00, 0.00
57, 5676.69, 73866.73, 13418.85, 34278.48, -27665.58, -5335.83, 10063.36, -28498.47, -1001.31, 43572.00, 13653.58, -38903.23, 0.00, 0.00, 0.00, 0.00, 0.00, 0.00, 0.00
58, 5676.69, 73866.73, 13418.85, 34278.48, -27665.58, -5335.83, 10063.36, -28498.47, -1000.69, 43554.72, 13648.78, -38901.82, 0.00, 0.00, 0.00, 0.00, 0.00, 0.00, 0.00
59, 5676.61, 73866.03, 13420.28, 34281.79, -27659.79, -5331.67, 10069.53, -28492.62, -1000.69, 43554.72, 13648.78, -38901.82, 0.00, 0.00, 0.00, 0.00, 0.00, 0.00, 0.00
60, 5676.61, 73866.03, 13420.28, 34281.79, -27659.79, -5331.67, 10069.53, -28492.62, -994.32, 43582.70, 13661.88, -38885.80, 0.00, 0.00, 0.00, 0.00, 0.00, 0.00, 0.00
61, 5685.14, 73875.64, 13430.87, 34288.65, -27651.63, -5325.19, 10080.93, -28483.63, -994.32, 43582.70, 13661.88, -38885.80, 0.00, 0.00, 0.00, 0.00, 0.00, 0.00, 0.00
62, 5685.14, 73875.64, 13430.87, 34288.65, -27651.63, -5325.19, 10080.93, -28483.63, -998.68, 43560.15, 13655.93, -38876.72, 0.00, 0.00, 0.00, 0.00, 0.00, 0.00, 0.00
63, 5674.57, 73863.17, 13416.23, 34272.22, -27671.37, -5344.17, 10053.10, -28501.18, -998.68, 43560.15, 13655.93, -38876.72, 0.00, 0.00, 0.00, 0.00, 0.00, 0.00, 0.00
64, 5674.57, 73863.17, 13416.23, 34272.22, -27671.37, -5344.17, 10053.10, -28501.18, -996.91, 43570.32, 13648.60, -38913.00, 0.00, 0.00, 0.00, 0.00, 0.00, 0.00, 0.00
65, 5673.45, 73870.48, 13427.34, 34286.46, -27664.71, -5332.14, 10062.42, -28490.92, -996.91, 43570.32, 13648.60, -38913.00, 0.00, 0.00, 0.00, 0.00, -0.13, 0.41, 0.90
66, 5673.45, 73870.48, 13427.34, 34286.46, -27664.71, -5332.14, 10062.42, -28490.92, -993.83, 43565.54, 13648.47, -38885.57, 0.00, 0.00, 0.00, 0.00, 0.00, 0.00, 0.00
67, 5674.08, 73851.14, 13408.36, 34271.97, -27676.67, -5341.51, 10058.40, -28503.88, -993.83, 43565.54, 13648.47, -38885.57, 0.00, 0.00, 0.00, 0.00, 0.00, 0.00, 0.00
68, 5674.08, 73851.14, 13408.36, 34271.97, -27676.67, -5341.51, 10058.40, -28503.88, -995.12, 43571.33, 13644.38, -38908.66, 0.00, 0.00, 0.00, 0.00, 0.00, 0.00, 0.00
69, 5681.54, 73868.40, 13420.68, 34282.59, -27666.07, -5336.59, 10053.84, -28491.52, -995.12, 43571.33, 13644.38, -38908.66, 0.00, 0.00, 0.00, 0.00, 0.00, 0.00, 0.00
70, 5681.54, 73868.40, 13420.68, 34282.59, -27666.07, -5336.59, 10053.84, -28491.52, -994.00, 43567.53, 13644.62, -38901.80, 0.00, 0.00, 0.00, 0.00, 0.00, 0.00, 0.00
71, 5670.26, 73860.29, 13412.68, 34268.96, -27674.77, -5346.60, 10046.44, -28500.73, -994.00, 43567.53, 13644.62, -38901.80, 0.00, 0.00, 0.00, 0.00, 0.00, 0.00, 0.00
72, 5670.26, 73860.29, 13412.68, 34268.96, -27674.77, -5346.60, 10046.44, -28500.73, -995.90, 43567.97, 13649.34, -38873.50, 0.00, 0.00, 0.00, 0.00, 0.00, 0.00, 0.00
73, 5679.38, 73876.02, 13428.93, 34291.51, -27664.53, -5327.25, 10065.50, -28488.97, -995.90, 43567.97, 13649.34, -38873.50, 0.00, 0.00, 0.00, 0.00, 0.00, 0.00, 0.00
74, 5679.38, 73876.02, 13428.93, 34291.51, -27664.53, -5327.25, 10065.50, -28488.97, -999.17, 43563.41, 13646.63, -38887.12, 0.00, 0.00, 0.00, 0.00, 0.00, 0.00, 0.00
75, 5676.76, 73858.41, 13408.88, 34268.64, -27682.03, -5347.41, 10040.87, -28510.01, -999.17, 43563.41, 13646.63, -38887.12, 0.00, 0.00, 0.00, 0.00, -0.14, 0.41, 0.90
76, 5676.76, 73858.41, 13408.88, 34268.64, -27682.03, -5347.41, 10040.87, -28510.01, -1000.78, 43559.59, 13645.11, -38913.58, 0.00, 0.00, 0.00, 0.00, 0.00, 0.00, 0.00
77, 5680.45, 73868.73, 13416.30, 34275.32, -27678.66, -5344.32, 10043.13, -28507.30, -1000.78, 43559.59, 13645.11, -38913.58, 0.00, 0.00, 0.00, 0.00, 0.00, 0.00, 0.00
78, 5680.45, 73868.73, 13416.30, 34275.32, -27678.66, -5344.32, 10043.13, -28507.30, -1003.50, 43556.20, 13643.66, -38912.04, 0.00, 0.00, 0.00, 0.00, 0.00, 0.00, 0.00
79, 5673.54, 73861.96, 13411.65, 34267.59, -27682.97, -5349.98, 10034.32, -28508.38, -1003.50, 43556.20, 13643.66, -38912.04, 0.00, 0.00, 0.00, 0.00, 0.00, 0.00, 0.00
80, 5673.54, 73861.96, 13411.65, 34267.59, -27682.97, -5349.98, 10034.32, -28508.38, -996.95, 43566.10, 13648.40, -38893.11, 0.00, 0.00, 0.00, 0.00, 0.00, 0.00, 0.00
81, 5678.35, 73874.28, 13422.58, 34283.66, -27674.14, -5341.08, 10048.83, -28501.94, -996.95, 43566.10, 13648.40, -38893.11, 0.00, 0.00, 0.00, 0.00, 0.00, 0.00, 0.00
82, 5678.35, 73874.28, 13422.58, 34283.66, -27674.14, -5341.08, 10048.83, -28501.94, -1002.68, 43559.55, 13647.08, -38917.36, 0.00, 0.00, 0.00, 0.00, 0.00, 0.00, 0.00
83, 5671.51, 73857.96, 13409.68, 34265.25, -27687.11, -5355.17, 10034.08, -28517.61, -1002.68, 43559.55, 13647.08, -38917.36, 0.00, 0.00, 0.00, 0.00, 0.00, 0.00, 0.00
84, 5671.51, 73857.96, 13409.68, 34265.25, -27687.11, -5355.17, 10034.08, -28517.61, -999.55, 43548.21, 13648.24, -38913.36, 0.00, 0.00, 0.00, 0.00, 0.00, 0.00, 0.00
85, 5685.12, 73876.34, 13427.47, 34284.42, -27669.38, -5338.65, 10045.61, -28497.27, -999.55, 43548.21, 13648.24, -38913.36, 0.00, 0.00, 0.00, 0.00, -0.14, 0.41, 0.90
86, 5685.12, 73876.34, 13427.47, 34284.42, -27669.38, -5338.65, 10045.61, -28497.27, -990.36, 43578.55, 13658.99, -38887.25, 0.00, 0.00, 0.00, 0.00, 0.00, 0.00, 0.00
87, 5671.58, 73861.18, 13413.77, 34270.34, -27679.46, -5347.32, 10034.97, -28507.99, -990.36, 43578.55, 13658.99, -38887.25, 0.00, 0.00, 0.00, 0.00, 0.00, 0.00, 0.00
88, 5671.58, 73861.18, 13413.77, 34270.34, -27679.46, -5347.32, 10034.97, -28507.99, -1001.87, 43553.60, 13645.27, -38910.12, 0.00, 0.00, 0.00, 0.00, 0.00, 0.00, 0.00
89, 5679.85, 73875.64, 13423.50, 34283.26, -27672.02, -5342.07, 10043.87, -28506.74, -1001.87, 43553.60, 13645.27, -38910.12, 0.00, 0.00, 0.00, 0.00, 0.00, 0.00, 0.00
90, 5679.85, 73875.64, 13423.50, 34283.26, -27672.02, -5342.07, 10043.87, -28506.74, -995.52, 43554.32, 13661.32, -38921.18, 0.00, 0.00, 0.00, 0.00, 0.00, 0.00, 0.00
91, 5681.81, 73872.02, 13420.28, 34269.83, -27680.91, -5354.14, 10033.74, -28513.65, -995.52, 43554.32, 13661.32, -38921.18, 0.00, 0.00, 0.00, 0.00, 0.00, 0.00, 0.00
92, 5681.81, 73872.02, 13420.28, 34269.83, -27680.91, -5354.14, 10033.74, -28513.65, -987.81, 43558.70, 13654.30, -38889.02, 0.00, 0.00, 0.00, 0.00, 0.00, 0.00, 0.00
93, 5689.64, 73880.98, 13427.59, 34280.04, -27663.05, -5340.35, 10039.71, -28499.28, -987.81, 43558.70, 13654.30, -38889.02, 0.00, 0.00, 0.00, 0.00, 0.00, 0.00, 0.00
94, 5689.64, 73880.98, 13427.59, 34280.04, -27663.05, -5340.35, 10039.71, -28499.28, -984.19, 43576.58, 13664.29, -38894.56, 0.00, 0.00, 0.00, 0.00, -0.14, 0.40, 0.90
95, 5668.67, 73869.14, 13415.36, 34263.73, -27682.79, -5357.31, 10025.58, -28517.36, -984.19, 43576.58, 13664.29, -38894.56, 0.00, 0.00, 0.00, 0.00, 0.00, 0.00, 0.00
96, 5668.67, 73869.14, 13415.36, 34263.73, -27682.79, -5357.31, 10025.58, -28517.36, -995.30, 43550.20, 13647.42, -38918.54, 0.00, 0.00, 0.00, 0.00, 0.00, 0.00, 0.00
97, 5678.80, 73870.91, 13416.08, 34274.23, -27675.13, -5345.62, 10039.29, -28505.85, -995.30, 43550.20, 13647.42, -38918.54, 0.00, 0.00, 0.00, 0.00, 0.00, 0.00, 0.00
98, 5678.80, 73870.91, 13416.08, 34274.23, -27675.13, -5345.62, 10039.29, -28505.85, -999.28, 43559.82, 13658.14, -38901.85, 0.00, 0.00, 0.00, 0.00, 0.00, 0.00, 0.00
99, 5671.71, 73858.77, 13407.34, 34259.37, -27689.56, -5358.41, 10020.51, -28527.35, -999.28, 43559.82, 13658.14, -38901.85, 0.00, 0.00, 0.00, 0.00, 0.00, 0.00, 0.00
100, 5671.71, 73858.77, 13407.34, 34259.37, -27689.56, -5358.41, 10020.51, -28527.35, -1002.01, 43538.11, 13642.86, -38930.79, 0.00, 0.00, 0.00, 0.00, 0.00, 0.00, 0.00
101, 5664.31, 73856.87, 13404.85, 34256.37, -27686.50, -5360.75, 10022.68, -28523.93, -1002.01, 43538.11, 13642.86, -38930.79, 0.00, 0.00, 0.00, 0.00, 0.00, 0.00, 0.00
102, 5664.31, 73856.87, 13404.85, 34256.37, -27686.50, -5360.75, 10022.68, -28523.93, -1000.04, 43559.44, 13650.08, -38902.34, 0.00, 0.00, 0.00, 0.00, 0.00, 0.00, 0.00
103, 5666.41, 73856.87, 13408.74, 34265.45, -27687.13, -5352.24, 10027.82, -28516.67, -1000.04, 43559.44, 13650.08, -38902.34, 0.00, 0.00, 0.00, 0.00, 0.00, 0.00, 0.00
104, 5666.41, 73856.87, 13408.74, 34265.45, -27687.13, -5352.24, 10027.82, -28516.67, -997.83, 43547.43, 13645.02, -38912.31, 0.00, 0.00, 0.00, 0.00, -0.14, 0.41, 0.90
105, 5659.44, 73853.94, 13406.26, 34258.43, -27686.93, -5360.93, 10014.94, -28530.64, -997.83, 43547.43, 13645.02, -38912.31, 0.00, 0.00, 0.00, 0.00, 0.00, 0.00, 0.00
106, 5659.44, 73853.94, 13406.26, 34258.43, -27686.93, -5360.93, 10014.94, -28530.64, -996.37, 43550.27, 13653.21, -38919.48, 0.00, 0.00, 0.00, 0.00, 0.00, 0.00, 0.00
107, 5664.22, 73860.76, 13412.03, 34266.83, -27682.63, -5355.39, 10021.85, -28528.74, -996.37, 43550.27, 13653.21, -38919.48, 0.00, 0.00, 0.00, 0.00, 0.00, 0.00, 0.00
108, 5664.22, 73860.76, 13412.03, 34266.83, -27682.63, -5355.39, 10021.85, -28528.74, -1002.10, 43544.93, 13645.72, -38941.57, 0.00, 0.00, 0.00, 0.00, 0.00, 0.00, 0.00
109, 5670.93, 73848.55, 13402.73, 34264.82, -27689.79, -5359.23, 10016.31, -28539.11, -1002.10, 43544.93, 13645.72, -38941.57, 0.00, 0.00, 0.00, 0.00, 0.00, 0.00, 0.00
110, 5670.93, 73848.55, 13402.73, 34264.82, -27689.79, -5359.23, 10016.31, -28539.11, -1001.92, 43547.68, 13652.76, -38920.73, 0.00, 0.00, 0.00, 0.00, 0.00, 0.00, 0.00
111, 5667.20, 73856.58, 13411.16, 34265.11, -27682.90, -5355.88, 10018.39, -28539.82, -1001.92, 43547.68, 13652.76, -38920.73, 0.00, 0.00, 0.00, 0.00, 0.00, 0.00, 0.00
112, 5667.20, 73856.58, 13411.16, 34265.11, -27682.90, -5355.88, 10018.39, -28539.82, -999.70, 43533.02, 13651.89, -38926.16, 0.00, 0.00, 0.00, 0.00, 0.00, 0.00, 0.00
113, 5657.63, 73856.64, 13410.04, 34262.72, -27689.83, -5360.28, 10013.98, -28540.16, -999.70, 43533.02, 13651.89, -38926.16, 0.00, 0.00, 0.00, 0.00, 0.00, 0.00, 0.00
114, 5657.63, 73856.64, 13410.04, 34262.72, -27689.83, -5360.28, 10013.98, -28540.16, -993.09, 43556.86, 13659.44, -38909.91, 0.00, 0.00, 0.00, 0.00, -0.13, 0.40, 0.90
115, 5676.74, 73865.90, 13413.15, 34271.53, -27673.67, -5352.01, 10021.43, -28537.12, -993.09, 43556.86, 13659.44, -38909.91, 0.00, 0.00, 0.00, 0.00, 0.00, 0.00, 0.00
116, 5676.74, 73865.90, 13413.15, 34271.53, -27673.67, -5352.01, 10021.43, -28537.12, -999.82, 43540.50, 13654.57, -38940.43, 0.00, 0.00, 0.00, 0.00, 0.00, 0.00, 0.00
117, 5658.61, 73852.17, 13399.47, 34255.32, -27692.87, -5366.63, 10005.85, -28552.70, -999.82, 43540.50, 13654.57, -38940.43, 0.00, 0.00, 0.00, 0.00, 0.00, 0.00, 0.00
118, 5658.61, 73852.17, 13399.47, 34255.32, -27692.87, -5366.63, 10005.85, -28552.70, -1000.04, 43544.86, 13658.21, -38926.66, 0.00, 0.00, 0.00, 0.00, 0.00, 0.00, 0.00
119, 5672.16, 73865.77, 13419.20, 34269.76, -27676.46, -5355.75, 10019.30, -28538.39, -1000.04, 43544.86, 13658.21, -38926.66, 0.00, 0.00, 0.00, 0.00, 0.00, 0.00, 0.00
120, 5672.16, 73865.77, 13419.20, 34269.76, -27676.46, -5355.75, 10019.30, -28538.39, -999.88, 43547.68, 13651.64, -38912.02, 0.00, 0.00, 0.00, 0.00, 0.00, 0.00, 0.00
121, 5661.18, 73844.82, 13398.04, 34251.63, -27698.17, -5368.98, 10003.75, -28557.59, -999.88, 43547.68, 13651.64, -38912.02, 0.00, 0.00, 0.00, 0.00, 0.00, 0.00, 0.00
122, 5661.18, 73844.82, 13398.04, 34251.63, -27698.17, -5368.98, 10003.75, -28557.59, -996.49, 43548.89, 13653.43, -38919.37, 0.00, 0.00, 0.00, 0.00, 0.00, 0.00, 0.00
123, 5670.03, 73856.55, 13411.02, 34267.21, -27678.28, -5354.36, 10020.80, -28539.62, -996.49, 43548.89, 13653.43, -38919.37, 0.00, 0.00, 0.00, 0.00, 0.00, 0.00, 0.00
124, 5670.03, 73856.55, 13411.02, 34267.21, -27678.28, -5354.36, 10020.80, -28539.62, -1005.67, 43540.57, 13640.02, -38935.55, 0.00, 0.00, 0.00, 0.00, -0.13, 0.41, 0.90
125, 5656.80, 73838.67, 13392.83, 34251.25, -27702.13, -5370.79, 9992.71, -28571.47, -1005.67, 43540.57, 13640.02, -38935.55, 0.00, 0.00, 0.00, 0.00, 0.00, 0.00, 0.00
126, 5656.80, 73838.67, 13392.83, 34251.25, -27702.13, -5370.79, 9992.71, -28571.47, -1003.33, 43533.93, 13663.11, -38912.71, 0.00, 0.00, 0.00, 0.00, 0.00, 0.00, 0.00
127, 5691.60, 73879.69, 13443.79, 34296.98, -27647.83, -5331.85, 10043.89, -28529.88, -1003.33, 43533.93, 13663.11, -38912.71, 0.00, 0.00, 0.00, 0.00, 0.00, 0.00, 0.00
128, 5691.60, 73879.69, 13443.79, 34296.98, -27647.83, -5331.85, 10043.89, -28529.88, -1003.95, 43543.36, 13667.55, -38908.44, 0.00, 0.00, 0.00, 0.00, 0.00, 0.00, 0.00
129, 5651.44, 73831.63, 13382.46, 34231.27, -27719.52, -5381.20, 9978.78, -28584.57, -1003.95, 43543.36, 13667.55, -38908.44, 0.00, 0.00, 0.00, 0.00, 0.00, 0.00, 0.00
130, 5651.44, 73831.63, 13382.46, 34231.27, -27719.52, -5381.20, 9978.78, -28584.57, -1027.62, 43520.23, 13615.94, -38951.24, 0.00, 0.00, 0.00, 0.00, 0.00, 0.00, 0.00
131, 5689.01, 73869.49, 13411.83, 34240.73, -27703.22, -5375.10, 9997.98, -28572.84, -1027.62, 43520.23, 13615.94, -38951.24, 0.00, 0.00, 0.00, 0.00, 0.00, 0.00, 0.00
132, 5689.01, 73869.49, 13411.83, 34240.73, -27703.22, -5375.10, 9997.98, -28572.84, -1019.22, 43523.38, 13689.33, -38939.55, 0.00, 0.00, 0.00, 0.00, 0.00, 0.00, 0.00
133, 5700.21, 73882.55, 13433.78, 34243.14, -27705.86, -5377.32, 9989.40, -28581.85, -1019.22, 43523.38, 13689.33, -38939.55, 0.00, 0.00, 0.00, 0.00, -0.13, 0.41, 0.90
134, 5700.21, 73882.55, 13433.78, 34243.14, -27705.86, -5377.32, 9989.40, -28581.85, -1026.59, 43506.68, 13679.65, -38934.32, 0.00, 0.00, 0.00, 0.00, 0.00, 0.00, 0.00
135, 5709.51, 73890.20, 13434.47, 34237.24, -27700.31, -5372.35, 9996.97, -28573.04, -1026.59, 43506.68, 13679.65, -38934.32, 0.00, 0.00, 0.00, 0.00, 0.00, 0.00, 0.00
136, 5709.51, 73890.20, 13434.47, 34237.24, -27700.31, -5372.35, 9996.97, -28573.04, -1023.64, 43520.01, 13688.34, -38938.23, 0.00, 0.00, 0.00, 0.00, 0.00, 0.00, 0.00
137, 5696.70, 73882.88, 13429.24, 34218.22, -27715.94, -5380.78, 9988.75, -28585.06, -1023.64, 43520.01, 13688.34, -38938.23, 0.00, 0.00, 0.00, 0.00, 0.00, 0.00, 0.00
138, 5696.70, 73882.88, 13429.24, 34218.22, -27715.94, -5380.78, 9988.75, -28585.06, -1023.69, 43508.77, 13682.84, -38948.67, 0.00, 0.00, 0.00, 0.00, 0.00, 0.00, 0.00
139, 5703.29, 73890.41, 13436.68, 34231.98, -27718.44, -5374.07, 10003.05, -28574.54, -1023.69, 43508.77, 13682.84, -38948.67, 0.00, 0.00, 0.00, 0.00, 0.00, 0.00, 0.00
140, 5703.29, 73890.41, 13436.68, 34231.98, -27718.44, -5374.07, 10003.05, -28574.54, -1025.19, 43516.90, 13695.27, -38957.48, 0.00, 0.00, 0.00, 0.00, 0.00, 0.00, 0.00
141, 5706.67, 73886.52, 13433.42, 34233.19, -27741.24, -5378.66, 9991.39, -28591.26, -1025.19, 43516.90, 13695.27, -38957.48, 0.00, 0.00, 0.00, 0.00, 0.00, 0.00, 0.00
142, 5706.67, 73886.52, 13433.42, 34233.19, -27741.24, -5378.66, 9991.39, -28591.26, -1028.76, 43495.87, 13696.48, -38937.50, 0.00, 0.00, 0.00, 0.00, 0.00, 0.00, 0.00
143, 5713.02, 73894.89, 13442.38, 34245.57, -27746.00, -5370.27, 9999.39, -28582.40, -1028.76, 43495.87, 13696.48, -38937.50, 0.00, 0.00, 0.00, 0.00, -0.14, 0.41, 0.90
144, 5713.02, 73894.89, 13442.38, 34245.57, -27746.00, -5370.27, 9999.39, -28582.40, -1025.70, 43520.14, 13704.06, -38951.82, 0.00, 0.00, 0.00, 0.00, 0.00, 0.00, 0.00
145, 5704.84, 73891.76, 13443.01, 34238.65, -27752.93, -5375.95, 9994.58, -28586.03, -1025.70, 43520.14, 13704.06, -38951.82, 0.00, 0.00, 0.00, 0.00, 0.00, 0.00, 0.00
146, 5704.84, 73891.76, 13443.01, 34238.65, -27752.93, -5375.95, 9994.58, -28586.03, -1032.52, 43491.82, 13694.94, -38970.45, 0.00, 0.00, 0.00, 0.00, 0.00, 0.00, 0.00
147, 5706.56, 73893.97, 13443.01, 34246.71, -27756.71, -5376.13, 9997.31, -28595.41, -1032.52, 43491.82, 13694.94, -38970.45, 0.00, 0.00, 0.00, 0.00, 0.00, 0.00, 0.00
148, 5706.56, 73893.97, 13443.01, 34246.71, -27756.71, -5376.13, 9997.31, -28595.41, -1037.05, 43491.82, 13700.97, -38981.04, 0.00, 0.00, 0.00, 0.00, 0.00, 0.00, 0.00
149, 5716.61, 73888.02, 13436.15, 34242.18, -27754.74, -5377.92, 9988.10, -28600.06, -1037.05, 43491.82, 13700.97, -38981.04, 0.00, 0.00, 0.00, 0.00, 0.00, 0.00, 0.00
150, 5716.61, 73888.02, 13436.15, 34242.18, -27754.74, -5377.92, 9988.10, -28600.06, -1042.49, 43483.08, 13693.30, -38973.02, 0.00, 0.00, 0.00, 0.00, 0.00, 0.00, 0.00
151, 5713.35, 73892.07, 13442.09, 34247.79, -27755.30, -5377.83, 9994.13, -28599.10, -1042.49, 43483.08, 13693.30, -38973.02, 0.00, 0.00, 0.00, 0.00, 0.00, 0.00, 0.00
152, 5713.35, 73892.07, 13442.09, 34247.79, -27755.30, -5377.83, 9994.13, -28599.10, -1036.09, 43491.89, 13702.69, -38990.05, 0.00, 0.00, 0.00, 0.00, 0.00, 0.00, 0.00
153, 5713.35, 73898.91, 13447.32, 34251.52, -27742.65, -5375.30, 9990.47, -28601.04, -1036.09, 43491.89, 13702.69, -38990.05, 0.00, 0.00, 0.00, 0.00, -0.13, 0.41, 0.90
154, 5713.35, 73898.91, 13447.32, 34251.52, -27742.65, -5375.30, 9990.47, -28601.04, -1044.99, 43463.82, 13699.07, -38986.05, 0.00, 0.00, 0.00, 0.00, 0.00, 0.00, 0.00
155, 5719.48, 73896.32, 13445.33, 34253.87, -27745.22, -5376.09, 9993.98, -28600.82, -1044.99, 43463.82, 13699.07, -38986.05, 0.00, 0.00, 0.00, 0.00, 0.00, 0.00, 0.00
156, 5719.48, 73896.32, 13445.33, 34253.87, -27745.22, -5376.09, 9993.98, -28600.82, -1035.27, 43490.21, 13710.45, -38979.54, 0.00, 0.00, 0.00, 0.00, 0.00, 0.00, 0.00
157, 5715.65, 73902.38, 13454.16, 34256.57, -27735.54, -5370.97, 10007.41, -28591.54, -1035.27, 43490.21, 13710.45, -38979.54, 0.00, 0.00, 0.00, 0.00, 0.00, 0.00, 0.00
158, 5715.65, 73902.38, 13454.16, 34256.57, -27735.54, -5370.97, 10007.41, -28591.54, -1037.46, 43481.32, 13704.03, -38969.66, 0.00, 0.00, 0.00, 0.00, 0.00, 0.00, 0.00
159, 5711.83, 73890.53, 13438.49, 34241.98, -27745.98, -5383.75, 9991.16, -28608.98, -1037.46, 43481.32, 13704.03, -38969.66, 0.00, 0.00, 0.00, 0.00, 0.00, 0.00, 0.00
160, 5711.83, 73890.53, 13438.49, 34241.98, -27745.98, -5383.75, 9991.16, -28608.98, -1033.30, 43487.33, 13710.02, -38997.04, 0.00, 0.00, 0.00, 0.00, 0.00, 0.00, 0.00
161, 5718.78, 73902.95, 13455.59, 34259.05, -27727.14, -5371.08, 10002.50, -28588.28, -1033.30, 43487.33, 13710.02, -38997.04, 0.00, 0.00, 0.00, 0.00, 0.00, 0.00, 0.00
162, 5718.78, 73902.95, 13455.59, 34259.05, -27727.14, -5371.08, 10002.50, -28588.28, -1026.73, 43491.42, 13709.02, -38977.89, 0.00, 0.00, 0.00, 0.00, 0.00, 0.00, 0.00
163, 5708.37, 73891.13, 13440.10, 34244.35, -27738.71, -5381.00, 9993.04, -28601.43, -1026.73, 43491.42, 13709.02, -38977.89, 0.00, 0.00, 0.00, 0.00, -0.13, 0.41, 0.91
164, 5708.37, 73891.13, 13440.10, 34244.35, -27738.71, -5381.00, 9993.04, -28601.43, -1035.82, 43486.19, 13712.08, -38987.97, 0.00, 0.00, 0.00, 0.00, 0.00, 0.00, 0.00
165, 5715.68, 73907.07, 13457.14, 34255.61, -27728.48, -5373.85, 10005.04, -28594.85, -1035.82, 43486.19, 13712.08, -38987.97, 0.00, 0.00, 0.00, 0.00, 0.00, 0.00, 0.00
166, 5715.68, 73907.07, 13457.14, 34255.61, -27728.48, -5373.85, 10005.04, -28594.85, -1034.84, 43478.75, 13706.51, -38983.81, 0.00, 0.00, 0.00, 0.00, 0.00, 0.00, 0.00
167, 5708.72, 73891.63, 13440.93, 34240.48, -27741.08, -5388.67, 9984.57, -28612.33, -1034.84, 43478.75, 13706.51, -38983.81, 0.00, 0.00, 0.00, 0.00, 0.00, 0.00, 0.00
168, 5708.72, 73891.63, 13440.93, 34240.48, -27741.08, -5388.67, 9984.57, -28612.33, -1037.90, 43480.38, 13707.97, -38994.05, 0.00, 0.00, 0.00, 0.00, 0.00, 0.00, 0.00
169, 5717.40, 73900.70, 13450.39, 34254.85, -27730.78, -5376.58, 9999.50, -28600.89, -1037.90, 43480.38, 13707.97, -38994.05, 0.00, 0.00, 0.00, 0.00, 0.00, 0.00, 0.00
170, 5717.40, 73900.70, 13450.39, 34254.85, -27730.78, -5376.58, 9999.50, -28600.89, -1033.41, 43483.89, 13707.07, -38991.48, 0.00, 0.00, 0.00, 0.00, 0.00, 0.00, 0.00
171, 5714.56, 73890.80, 13441.00, 34241.82, -27733.82, -5386.52, 9986.63, -28607.68, -1033.41, 43483.89, 13707.07, -38991.48, 0.00, 0.00, 0.00, 0.00, 0.00, 0.00, 0.00
172, 5714.56, 73890.80, 13441.00, 34241.82, -27733.82, -5386.52, 9986.63, -28607.68, -1040.50, 43479.08, 13701.89, -38995.16, 0.00, 0.00, 0.00, 0.00, -0.14, 0.41, 0.91
173, 5717.53, 73898.22, 13448.22, 34256.04, -27726.73, -5378.37, 9995.25, -28604.22, -1040.50, 43479.08, 13701.89, -38995.16, 0.00, 0.00, 0.00, 0.00, 0.00, 0.00, 0.00
174, 5717.53, 73898.22, 13448.22, 34256.04, -27726.73, -5378.37, 9995.25, -28604.22, -1041.28, 43475.13, 13700.50, -38998.74, 0.00, 0.00, 0.00, 0.00, 0.00, 0.00, 0.00
175, 5694.38, 73884.90, 13440.91, 34242.16, -27741.49, -5388.94, 9980.19, -28619.29, -1041.28, 43475.13, 13700.50, -38998.74, 0.00, 0.00, 0.00, 0.00, 0.00, 0.00, 0.00
176, 5694.38, 73884.90, 13440.91, 34242.16, -27741.49, -5388.94, 9980.19, -28619.29, -1042.95, 43475.77, 13694.87, -38973.06, 0.00, 0.00, 0.00, 0.00, 0.00, 0.00, 0.00
177, 5718.20, 73899.98, 13442.61, 34255.28, -27723.85, -5377.87, 9994.87, -28605.18, -1042.95, 43475.77, 13694.87, -38973.06, 0.00, 0.00, 0.00, 0.00, 0.00, 0.00, 0.00
178, 5718.20, 73899.98, 13442.61, 34255.28, -27723.85, -5377.87, 9994.87, -28605.18, -1041.77, 43473.89, 13704.66, -38997.55, 0.00, 0.00, 0.00, 0.00, 0.00, 0.00, 0.00
179, 5710.56, 73889.55, 13437.47, 34239.79, -27736.46, -5391.06, 9981.62, -28622.10, -1041.77, 43473.89, 13704.66, -38997.55, 0.00, 0.00, 0.00, 0.00, 0.00, 0.00, 0.00
180, 5710.56, 73889.55, 13437.47, 34239.79, -27736.46, -5391.06, 9981.62, -28622.10, -1041.01, 43473.20, 13705.73, -39012.80, 0.00, 0.00, 0.00, 0.00, 0.00, 0.00, 0.00
181, 5723.05, 73908.90, 13453.78, 34256.91, -27714.82, -5378.17, 9996.57, -28603.86, -1041.01, 43473.20, 13705.73, -39012.80, 0.00, 0.00, 0.00, 0.00, 0.00, 0.00, 0.00
182, 5723.05, 73908.90, 13453.78, 34256.91, -27714.82, -5378.17, 9996.57, -28603.86, -1038.33, 43477.65, 13716.06, -38980.01, 0.00, 0.00, 0.00, 0.00, -0.13, 0.41, 0.91
183, 5713.53, 73898.24, 13445.18, 34244.41, -27722.60, -5387.17, 9982.49, -28619.08, -1038.33, 43477.65, 13716.06, -38980.01, 0.00, 0.00, 0.00, 0.00, 0.00, 0.00, 0.00
184, 5713.53, 73898.24, 13445.18, 34244.41, -27722.60, -5387.17, 9982.49, -28619.08, -1035.89, 43476.02, 13710.49, -38992.71, 0.00, 0.00, 0.00, 0.00, 0.00, 0.00, 0.00
185, 5722.05, 73909.52, 13457.27, 34260.75, -27711.60, -5373.16, 10001.73, -28601.92, -1035.89, 43476.02, 13710.49, -38992.71, 0.00, 0.00, 0.00, 0.00, 0.00, 0.00, 0.00
186, 5722.05, 73909.52, 13457.27, 34260.75, -27711.60, -5373.16, 10001.73, -28601.92, -1030.57, 43488.13, 13713.78, -38988.59, 0.00, 0.00, 0.00, 0.00, 0.00, 0.00, 0.00
187, 5708.81, 73900.14, 13444.24, 34246.43, -27723.58, -5386.14, 9985.15, -28617.41, -1030.57, 43488.13, 13713.78, -38988.59, 0.00, 0.00, 0.00, 0.00, 0.00, 0.00, 0.00
188, 5708.81, 73900.14, 13444.24, 34246.43, -27723.58, -5386.14, 9985.15, -28617.41, -1040.76, 43466.83, 13703.72, -38995.28, 0.00, 0.00, 0.00, 0.00, 0.00, 0.00, 0.00
189, 5716.55, 73907.23, 13447.23, 34254.07, -27709.12, -5380.53, 9992.46, -28611.24, -1040.76, 43466.83, 13703.72, -38995.28, 0.00, 0.00, 0.00, 0.00, 0.00, 0.00, 0.00
190, 5716.55, 73907.23, 13447.23, 34254.07, -27709.12, -5380.53, 9992.46, -28611.24, -1033.81, 43483.51, 13718.47, -38983.70, 0.00, 0.00, 0.00, 0.00, 0.00, 0.00, 0.00
191, 5715.32, 73900.77, 13447.28, 34247.52, -27716.32, -5383.73, 9989.93, -28618.64, -1033.81, 43483.51, 13718.47, -38983.70, 0.00, 0.00, 0.00, 0.00, 0.00, 0.00, 0.00
192, 5715.32, 73900.77, 13447.28, 34247.52, -27716.32, -5383.73, 9989.93, -28618.64, -1030.04, 43475.26, 13709.29, -38981.24, 0.00, 0.00, 0.00, 0.00, -0.13, 0.41, 0.90
193, 5714.38, 73907.88, 13454.90, 34254.70, -27705.52, -5380.91, 9994.38, -28608.94, -1030.04, 43475.26, 13709.29, -38981.24, 0.00, 0.00, 0.00, 0.00, 0.00, 0.00, 0.00
194, 5714.38, 73907.88, 13454.90, 34254.70, -27705.52, -5380.91, 9994.38, -28608.94, -1036.16, 43483.11, 13719.61, -38992.08, 0.00, 0.00, 0.00, 0.00, 0.00, 0.00, 0.00
195, 5723.37, 73903.80, 13452.06, 34257.07, -27708.47, -5380.94, 9989.31, -28617.25, -1036.16, 43483.11, 13719.61, -38992.08, 0.00, 0.00, 0.00, 0.00, 0.00, 0.00, 0.00
196, 5723.37, 73903.80, 13452.06, 34257.07, -27708.47, -5380.94, 9989.31, -28617.25, -1044.88, 43468.98, 13702.16, -38993.22, 0.00, 0.00, 0.00, 0.00, 0.00, 0.00, 0.00
197, 5715.68, 73893.79, 13440.46, 34249.29, -27718.06, -5386.30, 9985.57, -28622.14, -1044.88, 43468.98, 13702.16, -38993.22, 0.00, 0.00, 0.00, 0.00, 0.00, 0.00, 0.00
198, 5715.68, 73893.79, 13440.46, 34249.29, -27718.06, -5386.30, 9985.57, -28622.14, -1048.05, 43481.07, 13699.18, -39002.99, 0.00, 0.00, 0.00, 0.00, 0.00, 0.00, 0.00
199, 5714.83, 73895.18, 13443.79, 34250.16, -27710.84, -5382.23, 9989.46, -28615.80, -1048.05, 43481.07, 13699.18, -39002.99, 0.00, 0.00, 0.00, 0.00, 0.00, 0.00, 0.00
200, 5714.83, 73895.18, 13443.79, 34250.16, -27710.84, -5382.23, 9989.46, -28615.80, -1040.14, 43471.44, 13698.36, -38975.47, 0.00, 0.00, 0.00, 0.00, 0.00, 0.00, 0.00
201, 5708.26, 73894.62, 13438.02, 34244.82, -27713.90, -5388.69, 9984.52, -28623.24, -1040.14, 43471.44, 13698.36, -38975.47, 0.00, 0.00, 0.00, 0.00, 0.00, 0.00, 0.00
202, 5708.26, 73894.62, 13438.02, 34244.82, -27713.90, -5388.69, 9984.52, -28623.24, -1039.13, 43478.30, 13707.86, -38988.17, 0.00, 0.00, 0.00, 0.00, -0.13, 0.41, 0.91
203, 5713.20, 73903.25, 13451.77, 34256.89, -27707.11, -5379.95, 9986.67, -28618.84, -1039.13, 43478.30, 13707.86, -38988.17, 0.00, 0.00, 0.00, 0.00, 0.00, 0.00, 0.00
204, 5713.20, 73903.25, 13451.77, 34256.89, -27707.11, -5379.95, 9986.67, -28618.84, -1039.38, 43469.85, 13697.51, -38991.70, 0.00, 0.00, 0.00, 0.00, 0.00, 0.00, 0.00
205, 5715.88, 73895.00, 13441.24, 34250.70, -27708.38, -5385.12, 9982.24, -28622.77, -1039.38, 43469.85, 13697.51, -38991.70, 0.00, 0.00, 0.00, 0.00, 0.00, 0.00, 0.00
206, 5715.88, 73895.00, 13441.24, 34250.70, -27708.38, -5385.12, 9982.24, -28622.77, -1034.22, 43478.52, 13707.39, -38986.45, 0.00, 0.00, 0.00, 0.00, 0.00, 0.00, 0.00
207, 5716.26, 73900.85, 13447.64, 34253.13, -27698.77, -5381.54, 9992.88, -28614.63, -1034.22, 43478.52, 13707.39, -38986.45, 0.00, 0.00, 0.00, 0.00, 0.00, 0.00, 0.00
208, 5716.26, 73900.85, 13447.64, 34253.13, -27698.77, -5381.54, 9992.88, -28614.63, -1037.93, 43471.79, 13700.93, -38979.47, 0.00, 0.00, 0.00, 0.00, 0.00, 0.00, 0.00
209, 5709.55, 73893.73, 13443.32, 34249.29, -27704.76, -5385.54, 9983.92, -28621.10, -1037.93, 43471.79, 13700.93, -38979.47, 0.00, 0.00, 0.00, 0.00, 0.00, 0.00, 0.00
210, 5709.55, 73893.73, 13443.32, 34249.29, -27704.76, -5385.54, 9983.92, -28621.10, -1032.32, 43487.17, 13710.63, -38979.36, 0.00, 0.00, 0.00, 0.00, 0.00, 0.00, 0.00
211, 5720.17, 73908.30, 13453.20, 34262.32, -27688.20, -5374.19, 9999.66, -28604.78, -1032.32, 43487.17, 13710.63, -38979.36, 0.00, 0.00, 0.00, 0.00, -0.14, 0.41, 0.91
212, 5720.17, 73908.30, 13453.20, 34262.32, -27688.20, -5374.19, 9999.66, -28604.78, -1031.24, 43486.73, 13706.83, -38987.54, 0.00, 0.00, 0.00, 0.00, 0.00, 0.00, 0.00
213, 5704.50, 73895.96, 13446.00, 34248.17, -27698.35, -5384.51, 9985.22, -28617.18, -1031.24, 43486.73, 13706.83, -38987.54, 0.00, 0.00, 0.00, 0.00, 0.00, 0.00, 0.00
214, 5704.50, 73895.96, 13446.00, 34248.17, -27698.35, -5384.51, 9985.22, -28617.18, -1023.42, 43489.50, 13709.04, -38971.38, 0.00, 0.00, 0.00, 0.00, 0.00, 0.00, 0.00
215, 5713.75, 73906.64, 13453.36, 34260.71, -27684.89, -5374.66, 10000.51, -28605.76, -1023.42, 43489.50, 13709.04, -38971.38, 0.00, 0.00, 0.00, 0.00, 0.00, 0.00, 0.00
216, 5713.75, 73906.64, 13453.36, 34260.71, -27684.89, -5374.66, 10000.51, -28605.76, -1039.33, 43470.95, 13704.46, -38990.40, 0.00, 0.00, 0.00, 0.00, 0.00, 0.00, 0.00
217, 5705.48, 73888.67, 13436.35, 34243.21, -27700.29, -5388.56, 9982.65, -28625.45, -1039.33, 43470.95, 13704.46, -38990.40, 0.00, 0.00, 0.00, 0.00, 0.00, 0.00, 0.00
218, 5705.48, 73888.67, 13436.35, 34243.21, -27700.29, -5388.56, 9982.65, -28625.45, -1031.13, 43496.18, 13704.19, -38962.64, 0.00, 0.00, 0.00, 0.00, 0.00, 0.00, 0.00
219, 5717.44, 73906.11, 13452.89, 34260.69, -27683.46, -5373.69, 9998.54, -28603.32, -1031.13, 43496.18, 13704.19, -38962.64, 0.00, 0.00, 0.00, 0.00, 0.00, 0.00, 0.00
220, 5717.44, 73906.11, 13452.89, 34260.69, -27683.46, -5373.69, 9998.54, -28603.32, -1032.47, 43483.71, 13705.11, -38977.42, 0.00, 0.00, 0.00, 0.00, 0.00, 0.00, 0.00
221, 5704.77, 73886.95, 13438.85, 34247.72, -27700.22, -5387.51, 9979.25, -28626.19, -1032.47, 43483.71, 13705.11, -38977.42, 0.00, 0.00, 0.00, 0.00, -0.14, 0.41, 0.90
222, 5704.77, 73886.95, 13438.85, 34247.72, -27700.22, -5387.51, 9979.25, -28626.19, -1039.78, 43479.19, 13713.58, -38996.30, 0.00, 0.00, 0.00, 0.00, 0.00, 0.00, 0.00
223, 5721.24, 73914.38, 13470.97, 34278.81, -27665.22, -5364.44, 10007.26, -28608.02, -1039.78, 43479.19, 13713.58, -38996.30, 0.00, 0.00, 0.00, 0.00, 0.00, 0.00, 0.00
224, 5721.24, 73914.38, 13470.97, 34278.81, -27665.22, -5364.44, 10007.26, -28608.02, -1033.14, 43484.96, 13723.05, -38974.40, 0.00, 0.00, 0.00, 0.00, 0.00, 0.00, 0.00
225, 5695.98, 73880.36, 13421.31, 34223.74, -27707.13, -5402.13, 9968.12, -28633.23, -1033.14, 43484.96, 13723.05, -38974.40, 0.00, 0.00, 0.00, 0.00, 0.00, 0.00, 0.00
226, 5695.98, 73880.36, 13421.31, 34223.74, -27707.13, -5402.13, 9968.12, -28633.23, -1040.74, 43470.23, 13689.24, -38988.10, 0.00, 0.00, 0.00, 0.00, 0.00, 0.00, 0.00
227, 5711.16, 73899.13, 13443.39, 34241.17, -27693.43, -5387.31, 9988.48, -28616.24, -1040.74, 43470.23, 13689.24, -38988.10, 0.00, 0.00, 0.00, 0.00, 0.00, 0.00, 0.00
228, 5711.16, 73899.13, 13443.39, 34241.17, -27693.43, -5387.31, 9988.48, -28616.24, -1022.68, 43505.28, 13721.56, -38966.44, 0.00, 0.00, 0.00, 0.00, 0.00, 0.00, 0.00
229, 5705.75, 73898.51, 13443.84, 34234.40, -27691.71, -5392.07, 9977.66, -28620.54, -1022.68, 43505.28, 13721.56, -38966.44, 0.00, 0.00, 0.00, 0.00, 0.00, 0.00, 0.00
230, 5705.75, 73898.51, 13443.84, 34234.40, -27691.71, -5392.07, 9977.66, -28620.54, -1044.07, 43474.66, 13714.14, -38980.26, 0.00, 0.00, 0.00, 0.00, 0.00, 0.00, 0.00
231, 5721.47, 73909.88, 13458.14, 34253.13, -27674.95, -5377.72, 9995.10, -28613.36, -1044.07, 43474.66, 13714.14, -38980.26, 0.00, 0.00, 0.00, 0.00, -0.14, 0.41, 0.90
232, 5721.47, 73909.88, 13458.14, 34253.13, -27674.95, -5377.72, 9995.10, -28613.36, -1038.15, 43479.26, 13726.47, -38981.15, 0.00, 0.00, 0.00, 0.00, 0.00, 0.00, 0.00
233, 5723.10, 73900.99, 13447.26, 34239.45, -27687.46, -5389.97, 9975.45, -28631.11, -1038.15, 43479.26, 13726.47, -38981.15, 0.00, 0.00, 0.00, 0.00, 0.00, 0.00, 0.00
234, 5723.10, 73900.99, 13447.26, 34239.45, -27687.46, -5389.97, 9975.45, -28631.11, -1042.75, 43463.37, 13718.20, -38993.76, 0.00, 0.00, 0.00, 0.00, 0.00, 0.00, 0.00
235, 5730.41, 73913.38, 13457.45, 34252.21, -27676.69, -5382.01, 9991.18, -28618.14, -1042.75, 43463.37, 13718.20, -38993.76, 0.00, 0.00, 0.00, 0.00, 0.00, 0.00, 0.00
236, 5730.41, 73913.38, 13457.45, 34252.21, -27676.69, -5382.01, 9991.18, -28618.14, -1034.71, 43486.77, 13727.39, -38997.33, 0.00, 0.00, 0.00, 0.00, 0.00, 0.00, 0.00
237, 5716.01, 73902.22, 13450.94, 34243.48, -27683.46, -5388.78, 9978.87, -28623.91, -1034.71, 43486.77, 13727.39, -38997.33, 0.00, 0.00, 0.00, 0.00, 0.00, 0.00, 0.00
238, 5716.01, 73902.22, 13450.94, 34243.48, -27683.46, -5388.78, 9978.87, -28623.91, -1041.66, 43482.12, 13717.40, -38966.73, 0.00, 0.00, 0.00, 0.00, 0.00, 0.00, 0.00
239, 5722.47, 73913.38, 13454.79, 34253.78, -27679.28, -5383.53, 9984.99, -28619.55, -1041.66, 43482.12, 13717.40, -38966.73, 0.00, 0.00, 0.00, 0.00, 0.00, 0.00, 0.00
240, 5722.47, 73913.38, 13454.79, 34253.78, -27679.28, -5383.53, 9984.99, -28619.55, -1041.79, 43482.01, 13729.09, -38974.18, 0.00, 0.00, 0.00, 0.00, 0.00, 0.00, 0.00
241, 5712.70, 73905.62, 13452.26, 34244.77, -27676.09, -5389.16, 9980.57, -28622.23, -1041.79, 43482.01, 13729.09, -38974.18, 0.00, 0.00, 0.00, 0.00, -0.13, 0.41, 0.90
242, 5712.70, 73905.62, 13452.26, 34244.77, -27676.09, -5389.16, 9980.57, -28622.23, -1039.33, 43473.56, 13718.36, -38981.73, 0.00, 0.00, 0.00, 0.00, 0.00, 0.00, 0.00
243, 5716.08, 73911.05, 13457.45, 34252.64, -27669.45, -5382.90, 9990.89, -28615.98, -1039.33, 43473.56, 13718.36, -38981.73, 0.00, 0.00, 0.00, 0.00, 0.00, 0.00, 0.00
244, 5716.08, 73911.05, 13457.45, 34252.64, -27669.45, -5382.90, 9990.89, -28615.98, -1035.62, 43489.54, 13725.94, -38985.96, 0.00, 0.00, 0.00, 0.00, 0.00, 0.00, 0.00
245, 5725.31, 73906.29, 13451.59, 34247.07, -27671.48, -5385.97, 9982.04, -28622.06, -1035.62, 43489.54, 13725.94, -38985.96, 0.00, 0.00, 0.00, 0.00, 0.00, 0.00, 0.00
246, 5725.31, 73906.29, 13451.59, 34247.07, -27671.48, -5385.97, 9982.04, -28622.06, -1045.30, 43474.03, 13718.18, -38987.79, 0.00, 0.00, 0.00, 0.00, 0.00, 0.00, 0.00
247, 5720.73, 73907.85, 13452.64, 34248.53, -27677.47, -5387.33, 9980.79, -28626.01, -1045.30, 43474.03, 13718.18, -38987.79, 0.00, 0.00, 0.00, 0.00, 0.00, 0.00, 0.00
248, 5720.73, 73907.85, 13452.64, 34248.53, -27677.47, -5387.33, 9980.79, -28626.01, -1046.96, 43477.47, 13725.31, -38980.68, 0.00, 0.00, 0.00, 0.00, 0.00, 0.00, 0.00
249, 5721.33, 73911.85, 13455.97, 34256.10, -27669.49, -5383.93, 9979.32, -28627.46, -1046.96, 43477.47, 13725.31, -38980.68, 0.00, 0.00, 0.00, 0.00, 0.00, 0.00, 0.00
250, 5721.33, 73911.85, 13455.97, 34256.10, -27669.49, -5383.93, 9979.32, -28627.46, -1047.76, 43461.60, 13722.09, -38971.56, 0.00, 0.00, 0.00, 0.00, -0.14, 0.41, 0.90
251, 5720.71, 73910.58, 13455.17, 34250.83, -27667.81, -5388.27, 9983.92, -28628.54, -1047.76, 43461.60, 13722.09, -38971.56, 0.00, 0.00, 0.00, 0.00, 0.00, 0.00, 0.00
252, 5720.71, 73910.58, 13455.17, 34250.83, -27667.81, -5388.27, 9983.92, -28628.54, -1042.84, 43478.30, 13726.05, -38995.21, 0.00, 0.00, 0.00, 0.00, 0.00, 0.00, 0.00
253, 5729.15, 73916.21, 13460.60, 34257.09, -27662.09, -5378.88, 9986.54, -28615.17, -1042.84, 43478.30, 13726.05, -38995.21, 0.00, 0.00, 0.00, 0.00, 0.00, 0.00, 0.00
254, 5729.15, 73916.21, 13460.60, 34257.09, -27662.09, -5378.88, 9986.54, -28615.17, -1039.27, 43486.59, 13719.97, -38992.10, 0.00, 0.00, 0.00, 0.00, 0.00, 0.00, 0.00
255, 5717.40, 73910.47, 13456.87, 34250.79, -27668.82, -5385.18, 9984.90, -28622.21, -1039.27, 43486.59, 13719.97, -38992.10, 0.00, 0.00, 0.00, 0.00, 0.00, 0.00, 0.00
0, 5717.40, 73910.47, 13456.87, 34250.79, -27668.82, -5385.18, 9984.90, -28622.21, -1042.95, 43478.05, 13730.79, -38962.26, 0.00, 0.00, 0.00, 0.00, 0.00, 0.00, 0.00
1, 5727.52, 73922.76, 13468.49, 34261.71, -27649.24, -5378.28, 9989.64, -28619.60, -1042.95, 43478.05, 13730.79, -38962.26, 0.00, 0.00, 0.00, 0.00, 0.00, 0.00, 0.00
2, 5727.52, 73922.76, 13468.49, 34261.71, -27649.24, -5378.28, 9989.64, -28619.60, -1040.74, 43470.45, 13727.10, -38978.18, 0.00, 0.00, 0.00, 0.00, 0.00, 0.00, 0.00
3, 5723.92, 73907.49, 13454.70, 34251.05, -27663.05, -5387.04, 9982.47, -28622.21, -1040.74, 43470.45, 13727.10, -38978.18, 0.00, 0.00, 0.00, 0.00, 0.00, 0.00, 0.00
4, 5723.92, 73907.49, 13454.70, 34251.05, -27663.05, -5387.04, 9982.47, -28622.21, -1041.88, 43487.38, 13721.89, -38981.26, 0.00, 0.00, 0.00, 0.00, -0.14, 0.41, 0.91
5, 5724.08, 73913.41, 13460.91, 34261.22, -27657.20, -5376.11, 9990.09, -28618.39, -1041.88, 43487.38, 13721.89, -38981.26, 0.00, 0.00, 0.00, 0.00, 0.00, 0.00, 0.00
6, 5724.08, 73913.41, 13460.91, 34261.22, -27657.20, -5376.11, 9990.09, -28618.39, -1047.09, 43474.12, 13721.91, -38965.73, 0.00, 0.00, 0.00, 0.00, 0.00, 0.00, 0.00
7, 5713.35, 73905.52, 13452.44, 34247.45, -27668.58, -5389.54, 9975.72, -28629.07, -1047.09, 43474.12, 13721.91, -38965.73, 0.00, 0.00, 0.00, 0.00, 0.00, 0.00, 0.00
8, 5713.35, 73905.52, 13452.44, 34247.45, -27668.58, -5389.54, 9975.72, -28629.07, -1038.71, 43492.85, 13725.63, -38979.34, 0.00, 0.00, 0.00, 0.00, 0.00, 0.00, 0.00
9, 5733.18, 73919.07, 13466.75, 34268.15, -27649.93, -5374.54, 9993.80, -28609.43, -1038.71, 43492.85, 13725.63, -38979.34, 0.00, 0.00, 0.00, 0.00, 0.00, 0.00, 0.00
10, 5733.18, 73919.07, 13466.75, 34268.15, -27649.93, -5374.54, 9993.80, -28609.43, -1037.55, 43483.82, 13726.34, -38971.00, 0.00, 0.00, 0.00, 0.00, 0.00, 0.00, 0.00
11, 5725.49, 73906.94, 13452.87, 34248.93, -27662.79, -5390.06, 9976.23, -28632.40, -1037.55, 43483.82, 13726.34, -38971.00, 0.00, 0.00, 0.00, 0.00, 0.00, 0.00, 0.00
12, 5725.49, 73906.94, 13452.87, 34248.93, -27662.79, -5390.06, 9976.23, -28632.40, -1053.86, 43475.19, 13716.73, -38999.50, 0.00, 0.00, 0.00, 0.00, 0.00, 0.00, 0.00
13, 5733.07, 73923.84, 13468.65, 34268.06, -27652.13, -5378.43, 9988.21, -28616.63, -1053.86, 43475.19, 13716.73, -38999.50, 0.00, 0.00, 0.00, 0.00, 0.00, 0.00, 0.00
14, 5733.07, 73923.84, 13468.65, 34268.06, -27652.13, -5378.43, 9988.21, -28616.63, -1047.89, 43470.79, 13723.46, -38973.91, 0.00, 0.00, 0.00, 0.00, -0.13, 0.41, 0.91
15, 5729.69, 73906.35, 13450.25, 34248.35, -27669.40, -5392.83, 9968.79, -28635.67, -1047.89, 43470.79, 13723.46, -38973.91, 0.00, 0.00, 0.00, 0.00, 0.00, 0.00, 0.00
16, 5729.69, 73906.35, 13450.25, 34248.35, -27669.40, -5392.83, 9968.79, -28635.67, -1048.43, 43471.32, 13716.26, -38973.39, 0.00, 0.00, 0.00, 0.00, 0.00, 0.00, 0.00
17, 5736.11, 73920.41, 13463.46, 34264.38, -27644.05, -5378.19, 9991.63, -28615.98, -1048.43, 43471.32, 13716.26, -38973.39, 0.00, 0.00, 0.00, 0.00, 0.00, 0.00, 0.00
18, 5736.11, 73920.41, 13463.46, 34264.38, -27644.05, -5378.19, 9991.63, -28615.98, -1039.04, 43488.58, 13729.47, -38978.38, 0.00, 0.00, 0.00, 0.00, 0.00, 0.00, 0.00
19, 5722.74, 73911.59, 13457.85, 34252.91, -27657.49, -5388.07, 9976.41, -28624.94, -1039.04, 43488.58, 13729.47, -38978.38, 0.00, 0.00, 0.00, 0.00, 0.00, 0.00, 0.00
20, 5722.74, 73911.59, 13457.85, 34252.91, -27657.49, -5388.07, 9976.41, -28624.94, -1042.57, 43478.39, 13724.44, -38994.18, 0.00, 0.00, 0.00, 0.00, 0.00, 0.00, 0.00
21, 5732.78, 73928.55, 13471.89, 34272.40, -27640.90, -5375.37, 9993.49, -28615.91, -1042.57, 43478.39, 13724.44, -38994.18, 0.00, 0.00, 0.00, 0.00, 0.00, 0.00, 0.00
22, 5732.78, 73928.55, 13471.89, 34272.40, -27640.90, -5375.37, 9993.49, -28615.91, -1038.89, 43487.24, 13729.18, -38961.26, 0.00, 0.00, 0.00, 0.00, 0.00, 0.00, 0.00
23, 5724.64, 73911.31, 13455.73, 34251.45, -27656.13, -5389.36, 9977.89, -28624.63, -1038.89, 43487.24, 13729.18, -38961.26, 0.00, 0.00, 0.00, 0.00, 0.00, 0.00, 0.00
24, 5724.64, 73911.31, 13455.73, 34251.45, -27656.13, -5389.36, 9977.89, -28624.63, -1046.37, 43474.48, 13718.34, -38964.03, 0.00, 0.00, 0.00, 0.00, -0.13, 0.41, 0.91
25, 5741.49, 73926.34, 13471.31, 34268.31, -27635.94, -5376.49, 9995.43, -28611.37, -1046.37, 43474.48, 13718.34, -38964.03, 0.00, 0.00, 0.00, 0.00, 0.00, 0.00, 0.00
26, 5741.49, 73926.34, 13471.31, 34268.31, -27635.94, -5376.49, 9995.43, -28611.37, -1032.14, 43495.27, 13737.63, -38966.44, 0.00, 0.00, 0.00, 0.00, 0.00, 0.00, 0.00
27, 5737.09, 73926.13, 13468.11, 34258.96, -27642.69, -5383.31, 9982.56, -28615.64, -1032.14, 43495.27, 13737.63, -38966.44, 0.00, 0.00, 0.00, 0.00, 0.00, 0.00, 0.00
28, 5737.09, 73926.13, 13468.11, 34258.96, -27642.69, -5383.31, 9982.56, -28615.64, -1030.73, 43482.01, 13733.92, -38966.93, 0.00, 0.00, 0.00, 0.00, 0.00, 0.00, 0.00
29, 5744.58, 73939.45, 13481.54, 34274.95, -27631.83, -5372.85, 9996.57, -28609.14, -1030.73, 43482.01, 13733.92, -38966.93, 0.00, 0.00, 0.00, 0.00, 0.00, 0.00, 0.00
30, 5744.58, 73939.45, 13481.54, 34274.95, -27631.83, -5372.85, 9996.57, -28609.14, -1035.74, 43488.85, 13740.02, -38979.77, 0.00, 0.00, 0.00, 0.00, 0.00, 0.00, 0.00
31, 5739.30, 73933.42, 13474.57, 34261.76, -27633.64, -5380.67, 9988.79, -28617.09, -1035.74, 43488.85, 13740.02, -38979.77, 0.00, 0.00, 0.00, 0.00, 0.00, 0.00, 0.00
32, 5739.30, 73933.42, 13474.57, 34261.76, -27633.64, -5380.67, 9988.79, -28617.09, -1038.13, 43486.90, 13729.11, -38994.92, 0.00, 0.00, 0.00, 0.00, 0.00, 0.00, 0.00
33, 5737.36, 73929.30, 13472.54, 34265.56, -27634.36, -5379.80, 9991.41, -28610.81, -1038.13, 43486.90, 13729.11, -38994.92, 0.00, 0.00, 0.00, 0.00, -0.13, 0.40, 0.91
34, 5737.36, 73929.30, 13472.54, 34265.56, -27634.36, -5379.80, 9991.41, -28610.81, -1032.00, 43497.86, 13737.47, -38957.03, 0.00, 0.00, 0.00, 0.00, 0.00, 0.00, 0.00
35, 5742.32, 73928.68, 13474.55, 34267.86, -27630.89, -5374.79, 9989.93, -28608.38, -1032.00, 43497.86, 13737.47, -38957.03, 0.00, 0.00, 0.00, 0.00, 0.00, 0.00, 0.00
36, 5742.32, 73928.68, 13474.55, 34267.86, -27630.89, -5374.79, 9989.93, -28608.38, -1044.05, 43483.46, 13724.08, -38961.46, 0.00, 0.00, 0.00, 0.00, 0.00, 0.00, 0.00
37, 5727.92, 73920.86, 13466.08, 34263.82, -27642.20, -5381.90, 9985.35, -28619.55, -1044.05, 43483.46, 13724.08, -38961.46, 0.00, 0.00, 0.00, 0.00, 0.00, 0.00, 0.00
38, 5727.92, 73920.86, 13466.08, 34263.82, -27642.20, -5381.90, 9985.35, -28619.55, -1035.18, 43484.22, 13733.38, -38971.36, 0.00, 0.00, 0.00, 0.00, 0.00, 0.00, 0.00
39, 5739.26, 73923.48, 13469.67, 34266.32, -27629.84, -5383.31, 9984.75, -28620.11, -1035.18, 43484.22, 13733.38, -38971.36, 0.00, 0.00, 0.00, 0.00, 0.00, 0.00, 0.00
40, 5739.26, 73923.48, 13469.67, 34266.32, -27629.84, -5383.31, 9984.75, -28620.11, -1047.85, 43464.89, 13714.90, -38983.77, 0.00, 0.00, 0.00, 0.00, 0.00, 0.00, 0.00
41, 5730.07, 73908.79, 13455.53, 34258.88, -27646.63, -5388.78, 9972.34, -28631.24, -1047.85, 43464.89, 13714.90, -38983.77, 0.00, 0.00, 0.00, 0.00, 0.00, 0.00, 0.00
42, 5730.07, 73908.79, 13455.53, 34258.88, -27646.63, -5388.78, 9972.34, -28631.24, -1049.73, 43484.78, 13717.56, -38964.50, 0.00, 0.00, 0.00, 0.00, 0.00, 0.00, 0.00
43, 5730.03, 73920.14, 13465.23, 34268.53, -27628.88, -5376.85, 9987.81, -28609.54, -1049.73, 43484.78, 13717.56, -38964.50, 0.00, 0.00, 0.00, 0.00, -0.13, 0.41, 0.91
44, 5730.03, 73920.14, 13465.23, 34268.53, -27628.88, -5376.85, 9987.81, -28609.54, -1038.15, 43489.39, 13716.46, -38958.98, 0.00, 0.00, 0.00, 0.00, 0.00, 0.00, 0.00
45, 5731.57, 73912.50, 13457.31, 34258.16, -27635.05, -5386.39, 9982.24, -28613.99, -1038.15, 43489.39, 13716.46, -38958.98, 0.00, 0.00, 0.00, 0.00, 0.00, 0.00, 0.00
46, 5731.57, 73912.50, 13457.31, 34258.16, -27635.05, -5386.39, 9982.24, -28613.99, -1029.10, 43500.16, 13729.33, -38945.19, 0.00, 0.00, 0.00, 0.00, 0.00, 0.00, 0.00
47, 5740.22, 73923.97, 13468.29, 34271.79, -27619.69, -5373.49, 9995.28, -28600.71, -1029.10, 43500.16, 13729.33, -38945.19, 0.00, 0.00, 0.00, 0.00, 0.00, 0.00, 0.00
48, 5740.22, 73923.97, 13468.29, 34271.79, -27619.69, -5373.49, 9995.28, -28600.71, -1031.47, 43486.34, 13716.44, -38987.54, 0.00, 0.00, 0.00, 0.00, 0.00, 0.00, 0.00
49, 5721.35, 73906.78, 13452.26, 34258.23, -27647.70, -5388.07, 9973.24, -28625.81, -1031.47, 43486.34, 13716.44, -38987.54, 0.00, 0.00, 0.00, 0.00, 0.00, 0.00, 0.00
50, 5721.35, 73906.78, 13452.26, 34258.23, -27647.70, -5388.07, 9973.24, -28625.81, -1040.92, 43502.86, 13718.72, -38949.63, 0.00, 0.00, 0.00, 0.00, 0.00, 0.00, 0.00
51, 5730.52, 73923.88, 13464.22, 34270.81, -27616.90, -5370.45, 9999.50, -28593.00, -1040.92, 43502.86, 13718.72, -38949.63, 0.00, 0.00, 0.00, 0.00, 0.00, 0.00, 0.00
52, 5730.52, 73923.88, 13464.22, 34270.81, -27616.90, -5370.45, 9999.50, -28593.00, -1024.54, 43505.39, 13720.75, -38934.61, 0.00, 0.00, 0.00, 0.00, 0.00, 0.00, 0.00
53, 5717.82, 73907.25, 13453.47, 34253.38, -27638.69, -5391.02, 9972.32, -28621.30, -1024.54, 43505.39, 13720.75, -38934.61, 0.00, 0.00, 0.00, 0.00, -0.13, 0.41, 0.91
54, 5717.82, 73907.25, 13453.47, 34253.38, -27638.69, -5391.02, 9972.32, -28621.30, -1041.03, 43485.68, 13718.72, -38964.92, 0.00, 0.00, 0.00, 0.00, 0.00, 0.00, 0.00
55, 5722.07, 73916.61, 13455.79, 34261.51, -27629.71, -5388.78, 9977.33, -28615.11, -1041.03, 43485.68, 13718.72, -38964.92, 0.00, 0.00, 0.00, 0.00, 0.00, 0.00, 0.00
56, 5722.07, 73916.61, 13455.79, 34261.51, -27629.71, -5388.78, 9977.33, -28615.11, -1037.34, 43487.22, 13711.27, -38978.45, 0.00, 0.00, 0.00, 0.00, 0.00, 0.00, 0.00
57, 5707.65, 73899.60, 13444.60, 34249.15, -27644.64, -5395.02, 9971.29, -28628.11, -1037.34, 43487.22, 13711.27, -38978.45, 0.00, 0.00, 0.00, 0.00, 0.00, 0.00, 0.00
58, 5707.65, 73899.60, 13444.60, 34249.15, -27644.64, -5395.02, 9971.29, -28628.11, -1043.31, 43477.85, 13717.78, -38962.78, 0.00, 0.00, 0.00, 0.00, 0.00, 0.00, 0.00
59, 5723.75, 73916.01, 13456.60, 34266.81, -27627.31, -5382.84, 9978.00, -28614.37, -1043.31, 43477.85, 13717.78, -38962.78, 0.00, 0.00, 0.00, 0.00, 0.00, 0.00, 0.00
60, 5723.75, 73916.01, 13456.60, 34266.81, -27627.31, -5382.84, 9978.00, -28614.37, -1036.09, 43491.75, 13715.28, -38941.77, 0.00, 0.00, 0.00, 0.00, 0.00, 0.00, 0.00
61, 5712.88, 73899.34, 13442.81, 34246.71, -27645.02, -5398.24, 9968.21, -28624.29, -1036.09, 43491.75, 13715.28, -38941.77, 0.00, 0.00, 0.00, 0.00, 0.00, 0.00, 0.00
62, 5712.88, 73899.34, 13442.81, 34246.71, -27645.02, -5398.24, 9968.21, -28624.29, -1037.81, 43483.13, 13710.87, -38967.85, 0.00, 0.00, 0.00, 0.00, 0.00, 0.00, 0.00
63, 5720.21, 73915.00, 13458.12, 34259.77, -27633.86, -5392.20, 9975.34, -28626.28, -1037.81, 43483.13, 13710.87, -38967.85, 0.00, 0.00, 0.00, 0.00, -0.14, 0.41, 0.91
64, 5720.21, 73915.00, 13458.12, 34259.77, -27633.86, -5392.20, 9975.34, -28626.28, -1055.72, 43473.09, 13720.89, -38993.78, 0.00, 0.00, 0.00, 0.00, 0.00, 0.00, 0.00
65, 5726.36, 73912.43, 13452.71, 34251.88, -27642.92, -5399.44, 9954.86, -28643.29, -1055.72, 43473.09, 13720.89, -38993.78, 0.00, 0.00, 0.00, 0.00, 0.00, 0.00, 0.00
66, 5726.36, 73912.43, 13452.71, 34251.88, -27642.92, -5399.44, 9954.86, -28643.29, -1057.68, 43469.56, 13715.19, -38984.30, 0.00, 0.00, 0.00, 0.00, 0.00, 0.00, 0.00
67, 5727.88, 73928.70, 13465.52, 34262.32, -27629.13, -5389.45, 9972.86, -28621.32, -1057.68, 43469.56, 13715.19, -38984.30, 0.00, 0.00, 0.00, 0.00, 0.00, 0.00, 0.00
68, 5727.88, 73928.70, 13465.52, 34262.32, -27629.13, -5389.45, 9972.86, -28621.32, -1044.85, 43482.55, 13726.03, -38948.50, 0.00, 0.00, 0.00, 0.00, 0.00, 0.00, 0.00
69, 5731.81, 73917.59, 13455.95, 34253.93, -27638.78, -5399.02, 9964.81, -28634.01, -1044.85, 43482.55, 13726.03, -38948.50, 0.00, 0.00, 0.00, 0.00, 0.00, 0.00, 0.00
70, 5731.81, 73917.59, 13455.95, 34253.93, -27638.78, -5399.02, 9964.81, -28634.01, -1048.54, 43475.19, 13718.29, -38972.10, 0.00, 0.00, 0.00, 0.00, 0.00, 0.00, 0.00
71, 5737.47, 73926.09, 13465.50, 34266.27, -27624.74, -5387.19, 9978.15, -28625.25, -1048.54, 43475.19, 13718.29, -38972.10, 0.00, 0.00, 0.00, 0.00, 0.00, 0.00, 0.00
72, 5737.47, 73926.09, 13465.50, 34266.27, -27624.74, -5387.19, 9978.15, -28625.25, -1049.32, 43480.63, 13722.34, -38979.56, 0.00, 0.00, 0.00, 0.00, -0.14, 0.41, 0.90
73, 5726.40, 73911.92, 13452.98, 34251.16, -27636.19, -5396.69, 9967.00, -28630.26, -1049.32, 43480.63, 13722.34, -38979.56, 0.00, 0.00, 0.00, 0.00, 0.00, 0.00, 0.00
74, 5726.40, 73911.92, 13452.98, 34251.16, -27636.19, -5396.69, 9967.00, -28630.26, -1042.66, 43492.13, 13714.49, -38968.66, 0.00, 0.00, 0.00, 0.00, 0.00, 0.00, 0.00
75, 5728.06, 73921.66, 13459.39, 34259.81, -27627.65, -5394.77, 9969.73, -28624.02, -1042.66, 43492.13, 13714.49, -38968.66, 0.00, 0.00, 0.00, 0.00, 0.00, 0.00, 0.00
76, 5728.06, 73921.66, 13459.39, 34259.81, -27627.65, -5394.77, 9969.73, -28624.02, -1041.73, 43478.37, 13724.60, -38961.26, 0.00, 0.00, 0.00, 0.00, 0.00, 0.00, 0.00
77, 5714.36, 73913.55, 13453.94, 34251.39, -27631.58, -5397.77, 9965.03, -28634.10, -1041.73, 43478.37, 13724.60, -38961.26, 0.00, 0.00, 0.00, 0.00, 0.00, 0.00, 0.00
78, 5714.36, 73913.55, 13453.94, 34251.39, -27631.58, -5397.77, 9965.03, -28634.10, -1058.91, 43462.30, 13716.46, -38953.21, 0.00, 0.00, 0.00, 0.00, 0.00, 0.00, 0.00
79, 5724.64, 73922.23, 13459.17, 34263.14, -27628.01, -5391.87, 9970.82, -28629.92, -1058.91, 43462.30, 13716.46, -38953.21, 0.00, 0.00, 0.00, 0.00, 0.00, 0.00, 0.00
80, 5724.64, 73922.23, 13459.17, 34263.14, -27628.01, -5391.87, 9970.82, -28629.92, -1042.55, 43485.61, 13729.51, -38985.84, 0.00, 0.00, 0.00, 0.00, 0.00, 0.00, 0.00
81, 5730.12, 73913.87, 13453.13, 34252.75, -27630.31, -5395.46, 9967.78, -28630.51, -1042.55, 43485.61, 13729.51, -38985.84, 0.00, 0.00, 0.00, 0.00, 0.00, 0.00, 0.00
82, 5730.12, 73913.87, 13453.13, 34252.75, -27630.31, -5395.46, 9967.78, -28630.51, -1055.76, 43463.41, 13705.98, -38961.95, 0.00, 0.00, 0.00, 0.00, -0.13, 0.41, 0.91
83, 5721.58, 73908.86, 13449.98, 34257.51, -27630.40, -5395.98, 9964.05, -28632.00, -1055.76, 43463.41, 13705.98, -38961.95, 0.00, 0.00, 0.00, 0.00, 0.00, 0.00, 0.00
84, 5721.58, 73908.86, 13449.98, 34257.51, -27630.40, -5395.98, 9964.05, -28632.00, -1053.35, 43483.39, 13709.02, -38995.39, 0.00, 0.00, 0.00, 0.00, 0.00, 0.00, 0.00
85, 5714.54, 73903.83, 13445.58, 34250.83, -27642.56, -5401.34, 9954.64, -28643.85, -1053.35, 43483.39, 13709.02, -38995.39, 0.00, 0.00, 0.00, 0.00, 0.00, 0.00, 0.00
86, 5714.54, 73903.83, 13445.58, 34250.83, -27642.56, -5401.34, 9954.64, -28643.85, -1058.18, 43463.21, 13703.59, -38954.44, 0.00, 0.00, 0.00, 0.00, 0.00, 0.00, 0.00
87, 5714.02, 73908.09, 13449.13, 34250.94, -27629.48, -5402.39, 9964.05, -28633.16, -1058.18, 43463.21, 13703.59, -38954.44, 0.00, 0.00, 0.00, 0.00, 0.00, 0.00, 0.00
88, 5714.02, 73908.09, 13449.13, 34250.94, -27629.48, -5402.39, 9964.05, -28633.16, -1054.91, 43478.52, 13709.60, -38963.45, 0.00, 0.00, 0.00, 0.00, 0.00, 0.00, 0.00
89, 5705.77, 73890.93, 13430.85, 34242.49, -27647.16, -5406.64, 9946.59, -28646.69, -1054.91, 43478.52, 13709.60, -38963.45, 0.00, 0.00, 0.00, 0.00, 0.00, 0.00, 0.00
90, 5705.77, 73890.93, 13430.85, 34242.49, -27647.16, -5406.64, 9946.59, -28646.69, -1063.54, 43454.02, 13689.48, -38981.98, 0.00, 0.00, 0.00, 0.00, 0.00, 0.00, 0.00
91, 5717.55, 73911.09, 13451.57, 34249.29, -27628.48, -5405.99, 9958.80, -28634.73, -1063.54, 43454.02, 13689.48, -38981.98, 0.00, 0.00, 0.00, 0.00, 0.00, 0.00, 0.00
92, 5717.55, 73911.09, 13451.57, 34249.29, -27628.48, -5405.99, 9958.80, -28634.73, -1022.10, 43514.89, 13733.83, -38968.10, 0.00, 0.00, 0.00, 0.00, -0.13, 0.41, 0.91
93, 5717.55, 73909.37, 13452.84, 34257.45, -27610.55, -5389.05, 9981.44, -28606.81, -1022.10, 43514.89, 13733.83, -38968.10, 0.00, 0.00, 0.00, 0.00, 0.00, 0.00, 0.00
94, 5717.55, 73909.37, 13452.84, 34257.45, -27610.55, -5389.05, 9981.44, -28606.81, -1035.94, 43494.97, 13694.96, -38929.85, 0.00, 0.00, 0.00, 0.00, 0.00, 0.00, 0.00
95, 5691.94, 73889.30, 13432.39, 34241.69, -27638.00, -5399.65, 9958.06, -28629.70, -1035.94, 43494.97, 13694.96, -38929.85, 0.00, 0.00, 0.00, 0.00, 0.00, 0.00, 0.00
96, 5691.94, 73889.30, 13432.39, 34241.69, -27638.00, -5399.65, 9958.06, -28629.70, -1055.76, 43525.66, 13687.98, -38920.42, 0.00, 0.00, 0.00, 0.00, 0.00, 0.00, 0.00
97, 5688.81, 73876.65, 13416.50, 34227.61, -27661.51, -5412.63, 9941.79, -28632.34, -1055.76, 43525.66, 13687.98, -38920.42, 0.00, 0.00, 0.00, 0.00, 0.00, 0.00, 0.00
98, 5688.81, 73876.65, 13416.50, 34227.61, -27661.51, -5412.63, 9941.79, -28632.34, -1036.96, 43545.11, 13665.25, -38931.86, 0.00, 0.00, 0.00, 0.00, 0.00, 0.00, 0.00
99, 5676.18, 73865.20, 13406.96, 34223.54, -27669.71, -5417.01, 9933.81, -28643.63, -1036.96, 43545.11, 13665.25, -38931.86, 0.00, 0.00, 0.00, 0.00, 0.00, 0.00, 0.00
100, 5676.18, 73865.20, 13406.96, 34223.54, -27669.71, -5417.01, 9933.81, -28643.63, -1049.24, 43513.19, 13686.33, -38943.33, 0.00, 0.00, 0.00, 0.00, 0.00, 0.00, 0.00
101, 5702.89, 73896.81, 13437.42, 34253.80, -27629.84, -5386.75, 9963.54, -28620.92, -1049.24, 43513.19, 13686.33, -38943.33, 0.00, 0.00, 0.00, 0.00, 0.00, 0.00, 0.00
102, 5702.89, 73896.81, 13437.42, 34253.80, -27629.84, -5386.75, 9963.54, -28620.92, -1073.44, 43480.22, 13686.15, -38934.35, 0.00, 0.00, 0.00, 0.00, -0.13, 0.41, 0.91
103, 5687.78, 73879.91, 13424.59, 34236.46, -27645.31, -5405.43, 9948.07, -28644.21, -1073.44, 43480.22, 13686.15, -38934.35, 0.00, 0.00, 0.00, 0.00, 0.00, 0.00, 0.00
104, 5687.78, 73879.91, 13424.59, 34236.46, -27645.31, -5405.43, 9948.07, -28644.21, -1033.99, 43504.27, 13710.05, -38936.29, 0.00, 0.00, 0.00, 0.00, 0.00, 0.00, 0.00
105, 5716.12, 73913.55, 13453.54, 34256.73, -27616.67, -5395.78, 9965.59, -28623.35, -1033.99, 43504.27, 13710.05, -38936.29, 0.00, 0.00, 0.00, 0.00, 0.00, 0.00, 0.00
106, 5716.12, 73913.55, 13453.54, 34256.73, -27616.67, -5395.78, 9965.59, -28623.35, -1062.45, 43475.75, 13706.65, -38961.84, 0.00, 0.00, 0.00, 0.00, 0.00, 0.00, 0.00
107, 5693.70, 73888.83, 13430.13, 34237.86, -27641.53, -5410.33, 9943.31, -28653.86, -1062.45, 43475.75, 13706.65, -38961.84, 0.00, 0.00, 0.00, 0.00, 0.00, 0.00, 0.00
108, 5693.70, 73888.83, 13430.13, 34237.86, -27641.53, -5410.33, 9943.31, -28653.86, -1072.39, 43464.42, 13698.13, -38955.82, 0.00, 0.00, 0.00, 0.00, 0.00, 0.00, 0.00
109, 5696.23, 73895.34, 13433.71, 34241.33, -27632.46, -5403.76, 9953.88, -28641.19, -1072.39, 43464.42, 13698.13, -38955.82, 0.00, 0.00, 0.00, 0.00, 0.00, 0.00, 0.00
110, 5696.23, 73895.34, 13433.71, 34241.33, -27632.46, -5403.76, 9953.88, -28641.19, -1082.07, 43458.05, 13691.74, -38991.01, 0.00, 0.00, 0.00, 0.00, 0.00, 0.00, 0.00
111, 5683.96, 73884.41, 13426.20, 34227.83, -27649.44, -5421.55, 9929.09, -28666.98, -1082.07, 43458.05, 13691.74, -38991.01, 0.00, 0.00, 0.00, 0.00, -0.13, 0.41, 0.91
112, 5683.96, 73884.41, 13426.20, 34227.83, -27649.44, -5421.55, 9929.09, -28666.98, -1064.61, 43456.15, 13693.73, -38961.46, 0.00, 0.00, 0.00, 0.00, 0.00, 0.00, 0.00
113, 5690.71, 73888.45, 13426.18, 34234.09, -27644.23, -5415.38, 9939.46, -28645.97, -1064.61, 43456.15, 13693.73, -38961.46, 0.00, 0.00, 0.00, 0.00, 0.00, 0.00, 0.00
114, 5690.71, 73888.45, 13426.18, 34234.09, -27644.23, -5415.38, 9939.46, -28645.97, -1051.14, 43495.42, 13695.67, -38935.62, 0.00, 0.00, 0.00, 0.00, 0.00, 0.00, 0.00
115, 5682.39, 73877.77, 13415.92, 34218.26, -27656.91, -5429.51, 9924.02, -28655.85, -1051.14, 43495.42, 13695.67, -38935.62, 0.00, 0.00, 0.00, 0.00, 0.00, 0.00, 0.00
116, 5682.39, 73877.77, 13415.92, 34218.26, -27656.91, -5429.51, 9924.02, -28655.85, -1085.27, 43458.59, 13675.83, -38959.02, 0.00, 0.00, 0.00, 0.00, 0.00, 0.00, 0.00
117, 5681.72, 73876.89, 13415.74, 34229.37, -27654.45, -5415.45, 9937.12, -28655.99, -1085.27, 43458.59, 13675.83, -38959.02, 0.00, 0.00, 0.00, 0.00, 0.00, 0.00, 0.00
118, 5681.72, 73876.89, 13415.74, 34229.37, -27654.45, -5415.45, 9937.12, -28655.99, -1068.30, 43495.87, 13689.77, -38927.08, 0.00, 0.00, 0.00, 0.00, 0.00, 0.00, 0.00
119, 5687.87, 73886.70, 13420.97, 34223.76, -27652.41, -5424.92, 9926.75, -28649.88, -1068.30, 43495.87, 13689.77, -38927.08, 0.00, 0.00, 0.00, 0.00, 0.00, 0.00, 0.00
120, 5687.87, 73886.70, 13420.97, 34223.76, -27652.41, -5424.92, 9926.75, -28649.88, -1050.31, 43494.75, 13695.56, -38937.57, 0.00, 0.00, 0.00, 0.00, 0.00, 0.00, 0.00
121, 5692.30, 73900.50, 13436.21, 34241.71, -27632.57, -5404.67, 9948.13, -28636.34, -1050.31, 43494.75, 13695.56, -38937.57, 0.00, 0.00, 0.00, 0.00, -0.14, 0.41, 0.91
122, 5692.30, 73900.50, 13436.21, 34241.71, -27632.57, -5404.67, 9948.13, -28636.34, -1072.44, 43487.26, 13693.17, -38935.60, 0.00, 0.00, 0.00, 0.00, 0.00, 0.00, 0.00
123, 5693.50, 73882.44, 13418.94, 34231.65, -27648.55, -5413.93, 9935.28, -28651.05, -1072.44, 43487.26, 13693.17, -38935.60, 0.00, 0.00, 0.00, 0.00, 0.00, 0.00, 0.00
124, 5693.50, 73882.44, 13418.94, 34231.65, -27648.55, -5413.93, 9935.28, -28651.05, -1051.02, 43501.12, 13685.79, -38907.17, 0.00, 0.00, 0.00, 0.00, 0.00, 0.00, 0.00
125, 5678.95, 73874.79, 13420.17, 34238.63, -27636.10, -5396.38, 9957.30, -28618.05, -1051.02, 43501.12, 13685.79, -38907.17, 0.00, 0.00, 0.00, 0.00, 0.00, 0.00, 0.00
126, 5678.95, 73874.79, 13420.17, 34238.63, -27636.10, -5396.38, 9957.30, -28618.05, -1055.54, 43541.02, 13673.12, -38869.53, 0.00, 0.00, 0.00, 0.00, 0.00, 0.00, 0.00
127, 5681.30, 73873.56, 13416.39, 34232.37, -27642.07, -5401.75, 9948.36, -28624.80, -1055.54, 43541.02, 13673.12, -38869.53, 0.00, 0.00, 0.00, 0.00, 0.00, 0.00, 0.00
128, 5681.30, 73873.56, 13416.39, 34232.37, -27642.07, -5401.75, 9948.36, -28624.80, -1029.54, 43523.85, 13702.16, -38885.20, 0.00, 0.00, 0.00, 0.00, 0.00, 0.00, 0.00
129, 5706.00, 73906.24, 13449.42, 34263.28, -27602.46, -5372.04, 9981.33, -28595.14, -1029.54, 43523.85, 13702.16, -38885.20, 0.00, 0.00, 0.00, 0.00, 0.00, 0.00, 0.00
130, 5706.00, 73906.24, 13449.42, 34263.28, -27602.46, -5372.04, 9981.33, -28595.14, -1039.18, 43531.05, 13703.12, -38887.61, 0.00, 0.00, 0.00, 0.00, 0.00, 0.00, 0.00
131, 5682.13, 73886.33, 13429.84, 34240.05, -27626.31, -5396.56, 9958.13, -28614.81, -1039.18, 43531.05, 13703.12, -38887.61, 0.00, 0.00, 0.00, 0.00, -0.14, 0.41, 0.91
132, 5682.13, 73886.33, 13429.84, 34240.05, -27626.31, -5396.56, 9958.13, -28614.81, -1043.67, 43535.27, 13690.06, -38873.68, 0.00, 0.00, 0.00, 0.00, 0.00, 0.00, 0.00
133, 5696.88, 73898.62, 13438.56, 34250.16, -27613.90, -5382.95, 9977.33, -28594.76, -1043.67, 43535.27, 13690.06, -38873.68, 0.00, 0.00, 0.00, 0.00, 0.00, 0.00, 0.00
134, 5696.88, 73898.62, 13438.56, 34250.16, -27613.90, -5382.95, 9977.33, -28594.76, -1021.97, 43559.37, 13724.86, -38848.09, 0.00, 0.00, 0.00, 0.00, 0.00, 0.00, 0.00
135, 5709.13, 73908.84, 13456.96, 34278.75, -27596.31, -5364.46, 9985.31, -28589.60, -1021.97, 43559.37, 13724.86, -38848.09, 0.00, 0.00, 0.00, 0.00, 0.00, 0.00, 0.00
136, 5709.13, 73908.84, 13456.96, 34278.75, -27596.31, -5364.46, 9985.31, -28589.60, -1022.17, 43543.01, 13701.48, -38863.71, 0.00, 0.00, 0.00, 0.00, 0.00, 0.00, 0.00
137, 5698.80, 73895.47, 13435.50, 34257.31, -27617.77, -5380.11, 9973.66, -28596.73, -1022.17, 43543.01, 13701.48, -38863.71, 0.00, 0.00, 0.00, 0.00, 0.00, 0.00, 0.00
138, 5698.80, 73895.47, 13435.50, 34257.31, -27617.77, -5380.11, 9973.66, -28596.73, -1025.52, 43580.78, 13691.16, -38841.18, 0.00, 0.00, 0.00, 0.00, 0.00, 0.00, 0.00
139, 5696.70, 73900.50, 13442.34, 34260.06, -27611.78, -5374.01, 9979.65, -28588.24, -1025.52, 43580.78, 13691.16, -38841.18, 0.00, 0.00, 0.00, 0.00, 0.00, 0.00, 0.00
140, 5696.70, 73900.50, 13442.34, 34260.06, -27611.78, -5374.01, 9979.65, -28588.24, -1039.24, 43536.52, 13693.01, -38867.49, 0.00, 0.00, 0.00, 0.00, 0.00, 0.00, 0.00
141, 5695.56, 73895.94, 13433.78, 34247.57, -27616.85, -5383.19, 9970.73, -28599.21, -1039.24, 43536.52, 13693.01, -38867.49, 0.00, 0.00, 0.00, 0.00, -0.14, 0.41, 0.91
142, 5695.56, 73895.94, 13433.78, 34247.57, -27616.85, -5383.19, 9970.73, -28599.21, -1010.25, 43569.38, 13702.56, -38857.50, 0.00, 0.00, 0.00, 0.00, 0.00, 0.00, 0.00
143, 5707.03, 73909.46, 13448.96, 34255.19, -27597.63, -5369.69, 9983.61, -28585.58, -1010.25, 43569.38, 13702.56, -38857.50, 0.00, 0.00, 0.00, 0.00, 0.00, 0.00, 0.00
144, 5707.03, 73909.46, 13448.96, 34255.19, -27597.63, -5369.69, 9983.61, -28585.58, -1027.93, 43559.48, 13692.61, -38856.63, 0.00, 0.00, 0.00, 0.00, 0.00, 0.00, 0.00
145, 5684.54, 73888.38, 13429.49, 34241.06, -27626.76, -5385.23, 9964.23, -28602.79, -1027.93, 43559.48, 13692.61, -38856.63, 0.00, 0.00, 0.00, 0.00, 0.00, 0.00, 0.00
146, 5684.54, 73888.38, 13429.49, 34241.06, -27626.76, -5385.23, 9964.23, -28602.79, -1036.03, 43552.55, 13701.44, -38864.72, 0.00, 0.00, 0.00, 0.00, 0.00, 0.00, 0.00
147, 5704.81, 73914.18, 13450.47, 34266.32, -27602.37, -5367.17, 9985.73, -28578.56, -1036.03, 43552.55, 13701.44, -38864.72, 0.00, 0.00, 0.00, 0.00, 0.00, 0.00, 0.00
148, 5704.81, 73914.18, 13450.47, 34266.32, -27602.37, -5367.17, 9985.73, -28578.56, -1021.27, 43592.81, 13714.36, -38813.24, 0.00, 0.00, 0.00, 0.00, 0.00, 0.00, 0.00
149, 5710.40, 73909.44, 13447.01, 34262.14, -27610.97, -5375.24, 9971.11, -28608.76, -1021.27, 43592.81, 13714.36, -38813.24, 0.00, 0.00, 0.00, 0.00, 0.00, 0.00, 0.00
150, 5710.40, 73909.44, 13447.01, 34262.14, -27610.97, -5375.24, 9971.11, -28608.76, -1050.98, 43495.55, 13707.79, -38937.59, 0.00, 0.00, 0.00, 0.00, 0.00, 0.00, 0.00
151, 5706.65, 73909.33, 13442.99, 34252.30, -27631.94, -5396.43, 9944.16, -28640.81, -1050.98, 43495.55, 13707.79, -38937.59, 0.00, 0.00, 0.00, 0.00, -0.14, 0.40, 0.90
152, 5706.65, 73909.33, 13442.99, 34252.30, -27631.94, -5396.43, 9944.16, -28640.81, -1046.06, 43511.00, 13706.25, -38881.75, 0.00, 0.00, 0.00, 0.00, 0.00, 0.00, 0.00
153, 5701.37, 73908.72, 13446.61, 34250.67, -27612.70, -5388.78, 9962.46, -28609.54, -1046.06, 43511.00, 13706.25, -38881.75, 0.00, 0.00, 0.00, 0.00, 0.00, 0.00, 0.00
154, 5701.37, 73908.72, 13446.61, 34250.67, -27612.70, -5388.78, 9962.46, -28609.54, -1024.60, 43544.06, 13713.53, -38886.11, 0.00, 0.00, 0.00, 0.00, 0.00, 0.00, 0.00
155, 5708.12, 73917.44, 13454.25, 34262.90, -27610.91, -5383.13, 9964.41, -28615.73, -1024.60, 43544.06, 13713.53, -38886.11, 0.00, 0.00, 0.00, 0.00, 0.00, 0.00, 0.00
156, 5708.12, 73917.44, 13454.25, 34262.90, -27610.91, -5383.13, 9964.41, -28615.73, -1054.35, 43493.79, 13710.05, -38944.40, 0.00, 0.00, 0.00, 0.00, 0.00, 0.00, 0.00
157, 5695.92, 73905.33, 13439.57, 34250.18, -27619.60, -5392.27, 9950.68, -28628.54, -1054.35, 43493.79, 13710.05, -38944.40, 0.00, 0.00, 0.00, 0.00, 0.00, 0.00, 0.00
158, 5695.92, 73905.33, 13439.57, 34250.18, -27619.60, -5392.27, 9950.68, -28628.54, -1035.71, 43528.32, 13707.61, -38887.72, 0.00, 0.00, 0.00, 0.00, 0.00, 0.00, 0.00
159, 5710.85, 73919.61, 13453.92, 34269.09, -27604.56, -5376.96, 9971.34, -28608.22, -1035.71, 43528.32, 13707.61, -38887.72, 0.00, 0.00, 0.00, 0.00, 0.00, 0.00, 0.00
160, 5710.85, 73919.61, 13453.92, 34269.09, -27604.56, -5376.96, 9971.34, -28608.22, -1035.49, 43550.94, 13710.87, -38867.89, 0.00, 0.00, 0.00, 0.00, -0.14, 0.40, 0.91
161, 5705.98, 73904.34, 13442.79, 34258.79, -27608.20, -5375.17, 9972.72, -28606.28, -1035.49, 43550.94, 13710.87, -38867.89, 0.00, 0.00, 0.00, 0.00, 0.00, 0.00, 0.00
162, 5705.98, 73904.34, 13442.79, 34258.79, -27608.20, -5375.17, 9972.72, -28606.28, -1045.48, 43495.18, 13698.58, -38956.43, 0.00, 0.00, 0.00, 0.00, 0.00, 0.00, 0.00
163, 5698.26, 73906.60, 13439.43, 34261.73, -27619.36, -5390.97, 9951.98, -28629.50, -1045.48, 43495.18, 13698.58, -38956.43, 0.00, 0.00, 0.00, 0.00, 0.00, 0.00, 0.00
164, 5698.26, 73906.60, 13439.43, 34261.73, -27619.36, -5390.97, 9951.98, -28629.50, -1048.03, 43512.63, 13695.72, -38935.20, 0.00, 0.00, 0.00, 0.00, 0.00, 0.00, 0.00
165, 5679.33, 73884.59, 13423.45, 34231.65, -27646.29, -5419.49, 9920.26, -28657.80, -1048.03, 43512.63, 13695.72, -38935.20, 0.00, 0.00, 0.00, 0.00, 0.00, 0.00, 0.00
166, 5679.33, 73884.59, 13423.45, 34231.65, -27646.29, -5419.49, 9920.26, -28657.80, -1052.19, 43494.39, 13684.77, -38916.84, 0.00, 0.00, 0.00, 0.00, 0.00, 0.00, 0.00
167, 5702.96, 73908.09, 13448.46, 34272.11, -27596.22, -5366.30, 9982.38, -28596.62, -1052.19, 43494.39, 13684.77, -38916.84, 0.00, 0.00, 0.00, 0.00, 0.00, 0.00, 0.00
168, 5702.96, 73908.09, 13448.46, 34272.11, -27596.22, -5366.30, 9982.38, -28596.62, -1052.63, 43512.52, 13702.45, -38935.62, 0.00, 0.00, 0.00, 0.00, 0.00, 0.00, 0.00
169, 5686.06, 73886.73, 13423.99, 34241.20, -27636.77, -5408.54, 9928.67, -28655.90, -1052.63, 43512.52, 13702.45, -38935.62, 0.00, 0.00, 0.00, 0.00, 0.00, 0.00, 0.00
170, 5686.06, 73886.73, 13423.99, 34241.20, -27636.77, -5408.54, 9928.67, -28655.90, -1045.17, 43512.52, 13692.79, -38901.06, 0.00, 0.00, 0.00, 0.00, -0.14, 0.41, 0.91
171, 5699.67, 73909.17, 13445.94, 34267.86, -27599.80, -5373.81, 9976.12, -28597.42, -1045.17, 43512.52, 13692.79, -38901.06, 0.00, 0.00, 0.00, 0.00, 0.00, 0.00, 0.00
172, 5699.67, 73909.17, 13445.94, 34267.86, -27599.80, -5373.81, 9976.12, -28597.42, -1048.07, 43503.09, 13699.45, -38914.83, 0.00, 0.00, 0.00, 0.00, 0.00, 0.00, 0.00
173, 5684.16, 73887.80, 13423.61, 34242.49, -27646.47, -5410.75, 9918.83, -28668.66, -1048.07, 43503.09, 13699.45, -38914.83, 0.00, 0.00, 0.00, 0.00, 0.00, 0.00, 0.00
174, 5684.16, 73887.80, 13423.61, 34242.49, -27646.47, -5410.75, 9918.83, -28668.66, -1062.22, 43448.48, 13682.44, -38998.92, 0.00, 0.00, 0.00, 0.00, 0.00, 0.00, 0.00
175, 5686.42, 73896.12, 13429.91, 34248.57, -27625.82, -5402.86, 9945.21, -28631.53, -1062.22, 43448.48, 13682.44, -38998.92, 0.00, 0.00, 0.00, 0.00, 0.00, 0.00, 0.00
176, 5686.42, 73896.12, 13429.91, 34248.57, -27625.82, -5402.86, 9945.21, -28631.53, -1045.68, 43522.85, 13696.30, -38907.75, 0.00, 0.00, 0.00, 0.00, 0.00, 0.00, 0.00
177, 5686.24, 73892.85, 13431.97, 34249.46, -27624.19, -5388.54, 9953.05, -28620.45, -1045.68, 43522.85, 13696.30, -38907.75, 0.00, 0.00, 0.00, 0.00, 0.00, 0.00, 0.00
178, 5686.24, 73892.85, 13431.97, 34249.46, -27624.19, -5388.54, 9953.05, -28620.45, -1054.35, 43502.35, 13687.49, -38925.36, 0.00, 0.00, 0.00, 0.00, 0.00, 0.00, 0.00
179, 5692.77, 73907.65, 13437.22, 34256.35, -27617.01, -5391.20, 9950.42, -28623.38, -1054.35, 43502.35, 13687.49, -38925.36, 0.00, 0.00, 0.00, 0.00, 0.00, 0.00, 0.00
180, 5692.77, 73907.65, 13437.22, 34256.35, -27617.01, -5391.20, 9950.42, -28623.38, -1013.81, 43542.00, 13720.01, -38923.41, 0.00, 0.00, 0.00, 0.00, -0.14, 0.41, 0.91
181, 5715.16, 73918.02, 13453.47, 34270.41, -27594.86, -5371.10, 9976.75, -28603.30, -1013.81, 43542.00, 13720.01, -38923.41, 0.00, 0.00, 0.00, 0.00, 0.00, 0.00, 0.00
182, 5715.16, 73918.02, 13453.47, 34270.41, -27594.86, -5371.10, 9976.75, -28603.30, -1033.14, 43478.77, 13696.14, -38942.86, 0.00, 0.00, 0.00, 0.00, 0.00, 0.00, 0.00
183, 5689.70, 73901.44, 13439.30, 34260.24, -27611.06, -5381.27, 9960.23, -28614.46, -1033.14, 43478.77, 13696.14, -38942.86, 0.00, 0.00, 0.00, 0.00, 0.00, 0.00, 0.00
184, 5689.70, 73901.44, 13439.30, 34260.24, -27611.06, -5381.27, 9960.23, -28614.46, -1048.48, 43519.16, 13689.55, -38895.05, 0.00, 0.00, 0.00, 0.00, 0.00, 0.00, 0.00
185, 5689.03, 73897.48, 13433.02, 34257.13, -27610.42, -5378.77, 9966.29, -28604.04, -1048.48, 43519.16, 13689.55, -38895.05, 0.00, 0.00, 0.00, 0.00, 0.00, 0.00, 0.00
186, 5689.03, 73897.48, 13433.02, 34257.13, -27610.42, -5378.77, 9966.29, -28604.04, -1022.44, 43536.26, 13701.31, -38880.03, 0.00, 0.00, 0.00, 0.00, 0.00, 0.00, 0.00
187, 5696.05, 73904.77, 13441.78, 34261.63, -27609.01, -5374.75, 9973.01, -28606.74, -1022.44, 43536.26, 13701.31, -38880.03, 0.00, 0.00, 0.00, 0.00, 0.00, 0.00, 0.00
188, 5696.05, 73904.77, 13441.78, 34261.63, -27609.01, -5374.75, 9973.01, -28606.74, -1038.37, 43507.27, 13699.99, -38966.44, 0.00, 0.00, 0.00, 0.00, 0.00, 0.00, 0.00
189, 5692.32, 73904.27, 13437.06, 34261.78, -27607.69, -5379.46, 9965.12, -28608.35, -1038.37, 43507.27, 13699.99, -38966.44, 0.00, 0.00, 0.00, 0.00, 0.00, 0.00, 0.00
190, 5692.32, 73904.27, 13437.06, 34261.78, -27607.69, -5379.46, 9965.12, -28608.35, -1037.03, 43525.19, 13687.63, -38870.53, 0.00, 0.00, 0.00, 0.00, -0.13, 0.41, 0.90
191, 5692.79, 73897.63, 13435.66, 34262.81, -27608.58, -5365.09, 9972.61, -28593.38, -1037.03, 43525.19, 13687.63, -38870.53, 0.00, 0.00, 0.00, 0.00, 0.00, 0.00, 0.00
192, 5692.79, 73897.63, 13435.66, 34262.81, -27608.58, -5365.09, 9972.61, -28593.38, -1033.66, 43535.72, 13694.56, -38883.94, 0.00, 0.00, 0.00, 0.00, 0.00, 0.00, 0.00
193, 5691.83, 73903.05, 13438.40, 34257.89, -27607.73, -5381.12, 9966.37, -28601.40, -1033.66, 43535.72, 13694.56, -38883.94, 0.00, 0.00, 0.00, 0.00, 0.00, 0.00, 0.00
194, 5691.83, 73903.05, 13438.40, 34257.89, -27607.73, -5381.12, 9966.37, -28601.40, -1030.28, 43521.91, 13684.03, -38915.46, 0.00, 0.00, 0.00, 0.00, 0.00, 0.00, 0.00
195, 5682.10, 73884.02, 13424.79, 34250.56, -27618.87, -5376.71, 9964.94, -28601.40, -1030.28, 43521.91, 13684.03, -38915.46, 0.00, 0.00, 0.00, 0.00, 0.00, 0.00, 0.00
196, 5682.10, 73884.02, 13424.79, 34250.56, -27618.87, -5376.71, 9964.94, -28601.40, -1028.31, 43538.07, 13690.87, -38878.98, 0.00, 0.00, 0.00, 0.00, 0.00, 0.00, 0.00
197, 5703.65, 73911.67, 13450.09, 34279.64, -27581.31, -5348.37, 9994.45, -28572.35, -1028.31, 43538.07, 13690.87, -38878.98, 0.00, 0.00, 0.00, 0.00, 0.00, 0.00, 0.00
198, 5703.65, 73911.67, 13450.09, 34279.64, -27581.31, -5348.37, 9994.45, -28572.35, -1014.08, 43549.89, 13703.76, -38840.45, 0.00, 0.00, 0.00, 0.00, 0.00, 0.00, 0.00
199, 5680.36, 73897.01, 13434.54, 34260.24, -27607.76, -5370.30, 9974.24, -28587.86, -1014.08, 43549.89, 13703.76, -38840.45, 0.00, 0.00, 0.00, 0.00, -0.13, 0.41, 0.90
200, 5680.36, 73897.01, 13434.54, 34260.24, -27607.76, -5370.30, 9974.24, -28587.86, -1032.47, 43545.02, 13682.53, -38871.76, 0.00, 0.00, 0.00, 0.00, 0.00, 0.00, 0.00
201, 5696.43, 73898.75, 13437.20, 34265.87, -27610.42, -5369.00, 9975.05, -28590.88, -1032.47, 43545.02, 13682.53, -38871.76, 0.00, 0.00, 0.00, 0.00, 0.00, 0.00, 0.00
202, 5696.43, 73898.75, 13437.20, 34265.87, -27610.42, -5369.00, 9975.05, -28590.88, -1035.00, 43520.23, 13688.74, -38914.03, 0.00, 0.00, 0.00, 0.00, 0.00, 0.00, 0.00
203, 5687.00, 73891.31, 13433.35, 34262.77, -27605.83, -5366.21, 9978.91, -28588.60, -1035.00, 43520.23, 13688.74, -38914.03, 0.00, 0.00, 0.00, 0.00, 0.00, 0.00, 0.00
204, 5687.00, 73891.31, 13433.35, 34262.77, -27605.83, -5366.21, 9978.91, -28588.60, -1017.76, 43562.14, 13690.22, -38849.36, 0.00, 0.00, 0.00, 0.00, 0.00, 0.00, 0.00
205, 5705.10, 73911.74, 13451.32, 34281.36, -27582.88, -5345.29, 10001.40, -28556.34, -1017.76, 43562.14, 13690.22, -38849.36, 0.00, 0.00, 0.00, 0.00, 0.00, 0.00, 0.00
206, 5705.10, 73911.74, 13451.32, 34281.36, -27582.88, -5345.29, 10001.40, -28556.34, -1010.63, 43561.56, 13706.11, -38841.99, 0.00, 0.00, 0.00, 0.00, 0.00, 0.00, 0.00
207, 5690.33, 73900.14, 13438.61, 34265.40, -27589.79, -5360.10, 9985.22, -28568.37, -1010.63, 43561.56, 13706.11, -38841.99, 0.00, 0.00, 0.00, 0.00, 0.00, 0.00, 0.00
208, 5690.33, 73900.14, 13438.61, 34265.40, -27589.79, -5360.10, 9985.22, -28568.37, -1005.56, 43575.89, 13701.64, -38850.35, 0.00, 0.00, 0.00, 0.00, 0.00, 0.00, 0.00
209, 5707.54, 73919.23, 13456.62, 34288.27, -27572.64, -5336.55, 10020.26, -28537.05, -1005.56, 43575.89, 13701.64, -38850.35, 0.00, 0.00, 0.00, 0.00, -0.13, 0.41, 0.91
210, 5707.54, 73919.23, 13456.62, 34288.27, -27572.64, -5336.55, 10020.26, -28537.05, -1004.04, 43587.35, 13700.50, -38825.98, 0.00, 0.00, 0.00, 0.00, 0.00, 0.00, 0.00
211, 5689.86, 73894.82, 13437.47, 34267.59, -27590.99, -5348.91, 9995.03, -28555.34, -1004.04, 43587.35, 13700.50, -38825.98, 0.00, 0.00, 0.00, 0.00, 0.00, 0.00, 0.00
212, 5689.86, 73894.82, 13437.47, 34267.59, -27590.99, -5348.91, 9995.03, -28555.34, -995.43, 43587.53, 13698.80, -38841.70, 0.00, 0.00, 0.00, 0.00, 0.00, 0.00, 0.00
213, 5706.36, 73921.10, 13458.92, 34286.57, -27569.54, -5334.13, 10021.54, -28524.78, -995.43, 43587.53, 13698.80, -38841.70, 0.00, 0.00, 0.00, 0.00, 0.00, 0.00, 0.00
214, 5706.36, 73921.10, 13458.92, 34286.57, -27569.54, -5334.13, 10021.54, -28524.78, -986.32, 43608.86, 13709.75, -38792.82, 0.00, 0.00, 0.00, 0.00, 0.00, 0.00, 0.00
215, 5690.73, 73903.42, 13441.65, 34272.96, -27582.21, -5345.71, 10001.62, -28552.23, -986.32, 43608.86, 13709.75, -38792.82, 0.00, 0.00, 0.00, 0.00, 0.00, 0.00, 0.00
216, 5690.73, 73903.42, 13441.65, 34272.96, -27582.21, -5345.71, 10001.62, -28552.23, -1003.19, 43582.01, 13699.74, -38810.67, 0.00, 0.00, 0.00, 0.00, 0.00, 0.00, 0.00
217, 5710.89, 73921.33, 13457.18, 34286.10, -27568.80, -5336.01, 10016.71, -28535.85, -1003.19, 43582.01, 13699.74, -38810.67, 0.00, 0.00, 0.00, 0.00, 0.00, 0.00, 0.00
218, 5710.89, 73921.33, 13457.18, 34286.10, -27568.80, -5336.01, 10016.71, -28535.85, -995.43, 43597.32, 13711.14, -38819.75, 0.00, 0.00, 0.00, 0.00, 0.00, 0.00, 0.00
219, 5704.19, 73915.63, 13453.78, 34274.66, -27579.17, -5343.18, 10009.13, -28535.91, -995.43, 43597.32, 13711.14, -38819.75, 0.00, 0.00, 0.00, 0.00, -0.13, 0.41, 0.90
220, 5704.19, 73915.63, 13453.78, 34274.66, -27579.17, -5343.18, 10009.13, -28535.91, -995.19, 43588.83, 13702.11, -38829.52, 0.00, 0.00, 0.00, 0.00, 0.00, 0.00, 0.00
221, 5712.32, 73923.90, 13458.99, 34286.86, -27569.13, -5335.12, 10019.75, -28531.08, -995.19, 43588.83, 13702.11, -38829.52, 0.00, 0.00, 0.00, 0.00, 0.00, 0.00, 0.00
222, 5712.32, 73923.90, 13458.99, 34286.86, -27569.13, -5335.12, 10019.75, -28531.08, -986.49, 43604.34, 13713.26, -38793.69, 0.00, 0.00, 0.00, 0.00, 0.00, 0.00, 0.00
223, 5705.08, 73921.69, 13457.45, 34278.86, -27572.31, -5338.56, 10016.71, -28529.52, -986.49, 43604.34, 13713.26, -38793.69, 0.00, 0.00, 0.00, 0.00, 0.00, 0.00, 0.00
224, 5705.08, 73921.69, 13457.45, 34278.86, -27572.31, -5338.56, 10016.71, -28529.52, -989.51, 43597.79, 13707.39, -38810.52, 0.00, 0.00, 0.00, 0.00, 0.00, 0.00, 0.00
225, 5713.93, 73928.05, 13461.85, 34285.29, -27565.33, -5333.66, 10019.12, -28524.18, -989.51, 43597.79, 13707.39, -38810.52, 0.00, 0.00, 0.00, 0.00, 0.00, 0.00, 0.00
226, 5713.93, 73928.05, 13461.85, 34285.29, -27565.33, -5333.66, 10019.12, -28524.18, -988.80, 43610.44, 13713.78, -38812.62, 0.00, 0.00, 0.00, 0.00, 0.00, 0.00, 0.00
227, 5705.71, 73919.74, 13457.54, 34280.54, -27571.35, -5336.88, 10019.26, -28529.77, -988.80, 43610.44, 13713.78, -38812.62, 0.00, 0.00, 0.00, 0.00, 0.00, 0.00, 0.00
228, 5705.71, 73919.74, 13457.54, 34280.54, -27571.35, -5336.88, 10019.26, -28529.77, -988.39, 43603.27, 13705.42, -38798.67, 0.00, 0.00, 0.00, 0.00, 0.00, 0.00, 0.00
229, 5718.85, 73930.91, 13465.54, 34286.52, -27564.64, -5327.76, 10028.67, -28518.28, -988.39, 43603.27, 13705.42, -38798.67, 0.00, 0.00, 0.00, 0.00, -0.14, 0.41, 0.90
230, 5718.85, 73930.91, 13465.54, 34286.52, -27564.64, -5327.76, 10028.67, -28518.28, -981.02, 43607.74, 13722.27, -38793.66, 0.00, 0.00, 0.00, 0.00, 0.00, 0.00, 0.00
231, 5714.71, 73934.13, 13469.90, 34282.72, -27563.75, -5335.99, 10016.42, -28526.48, -981.02, 43607.74, 13722.27, -38793.66, 0.00, 0.00, 0.00, 0.00, 0.00, 0.00, 0.00
232, 5714.71, 73934.13, 13469.90, 34282.72, -27563.75, -5335.99, 10016.42, -28526.48, -981.58, 43598.93, 13715.86, -38804.55, 0.00, 0.00, 0.00, 0.00, 0.00, 0.00, 0.00
233, 5714.11, 73932.26, 13464.67, 34283.13, -27560.57, -5332.99, 10029.09, -28519.97, -981.58, 43598.93, 13715.86, -38804.55, 0.00, 0.00, 0.00, 0.00, 0.00, 0.00, 0.00
234, 5714.11, 73932.26, 13464.67, 34283.13, -27560.57, -5332.99, 10029.09, -28519.97, -975.47, 43623.63, 13727.17, -38828.31, 0.00, 0.00, 0.00, 0.00, 0.00, 0.00, 0.00
235, 5717.96, 73938.74, 13470.88, 34289.52, -27553.89, -5323.98, 10030.46, -28511.71, -975.47, 43623.63, 13727.17, -38828.31, 0.00, 0.00, 0.00, 0.00, 0.00, 0.00, 0.00
236, 5717.96, 73938.74, 13470.88, 34289.52, -27553.89, -5323.98, 10030.46, -28511.71, -978.58, 43614.36, 13716.53, -38764.27, 0.00, 0.00, 0.00, 0.00, 0.00, 0.00, 0.00
237, 5721.55, 73927.70, 13466.03, 34289.65, -27562.54, -5326.13, 10034.28, -28516.53, -978.58, 43614.36, 13716.53, -38764.27, 0.00, 0.00, 0.00, 0.00, 0.00, 0.00, 0.00
238, 5721.55, 73927.70, 13466.03, 34289.65, -27562.54, -5326.13, 10034.28, -28516.53, -980.57, 43622.20, 13717.56, -38783.85, 0.00, 0.00, 0.00, 0.00, -0.14, 0.41, 0.90
239, 5714.18, 73932.46, 13465.23, 34287.48, -27556.46, -5325.41, 10030.64, -28511.41, -980.57, 43622.20, 13717.56, -38783.85, 0.00, 0.00, 0.00, 0.00, 0.00, 0.00, 0.00
240, 5714.18, 73932.46, 13465.23, 34287.48, -27556.46, -5325.41, 10030.64, -28511.41, -988.53, 43603.51, 13704.88, -38799.16, 0.00, 0.00, 0.00, 0.00, 0.00, 0.00, 0.00
241, 5699.27, 73915.85, 13455.44, 34277.05, -27572.02, -5335.94, 10021.83, -28534.24, -988.53, 43603.51, 13704.88, -38799.16, 0.00, 0.00, 0.00, 0.00, 0.00, 0.00, 0.00
242, 5699.27, 73915.85, 13455.44, 34277.05, -27572.02, -5335.94, 10021.83, -28534.24, -988.77, 43603.00, 13710.18, -38835.37, 0.00, 0.00, 0.00, 0.00, 0.00, 0.00, 0.00
243, 5710.74, 73928.39, 13463.06, 34289.07, -27558.85, -5324.19, 10029.38, -28516.64, -988.77, 43603.00, 13710.18, -38835.37, 0.00, 0.00, 0.00, 0.00, 0.00, 0.00, 0.00
244, 5710.74, 73928.39, 13463.06, 34289.07, -27558.85, -5324.19, 10029.38, -28516.64, -979.92, 43608.50, 13707.52, -38765.16, 0.00, 0.00, 0.00, 0.00, 0.00, 0.00, 0.00
245, 5706.76, 73909.20, 13450.36, 34273.58, -27570.07, -5336.48, 10017.09, -28530.21, -979.92, 43608.50, 13707.52, -38765.16, 0.00, 0.00, 0.00, 0.00, 0.00, 0.00, 0.00
246, 5706.76, 73909.20, 13450.36, 34273.58, -27570.07, -5336.48, 10017.09, -28530.21, -987.21, 43608.81, 13705.75, -38793.02, 0.00, 0.00, 0.00, 0.00, 0.00, 0.00, 0.00
247, 5708.95, 73921.48, 13463.80, 34287.71, -27565.82, -5326.96, 10035.13, -28523.71, -987.21, 43608.81, 13705.75, -38793.02, 0.00, 0.00, 0.00, 0.00, 0.00, 0.00, 0.00
248, 5708.95, 73921.48, 13463.80, 34287.71, -27565.82, -5326.96, 10035.13, -28523.71, -998.52, 43591.78, 13698.31, -38804.23, 0.00, 0.00, 0.00, 0.00, -0.14, 0.41, 0.91
249, 5700.63, 73908.37, 13453.40, 34276.40, -27575.14, -5339.00, 10013.40, -28538.73, -998.52, 43591.78, 13698.31, -38804.23, 0.00, 0.00, 0.00, 0.00, 0.00, 0.00, 0.00
250, 5700.63, 73908.37, 13453.40, 34276.40, -27575.14, -5339.00, 10013.40, -28538.73, -989.67, 43601.46, 13709.58, -38811.55, 0.00, 0.00, 0.00, 0.00, 0.00, 0.00, 0.00
251, 5713.58, 73932.69, 13471.28, 34290.66, -27560.62, -5328.59, 10031.31, -28527.22, -989.67, 43601.46, 13709.58, -38811.55, 0.00, 0.00, 0.00, 0.00, 0.00, 0.00, 0.00
252, 5713.58, 73932.69, 13471.28, 34290.66, -27560.62, -5328.59, 10031.31, -28527.22, -992.86, 43586.59, 13710.09, -38828.02, 0.00, 0.00, 0.00, 0.00, 0.00, 0.00, 0.00
253, 5706.40, 73910.73, 13453.83, 34272.40, -27579.53, -5345.91, 9999.92, -28548.70, -992.86, 43586.59, 13710.09, -38828.02, 0.00, 0.00, 0.00, 0.00, 0.00, 0.00, 0.00
254, 5706.40, 73910.73, 13453.83, 34272.40, -27579.53, -5345.91, 9999.92, -28548.70, -992.66, 43592.79, 13706.29, -38800.08, 0.00, 0.00, 0.00, 0.00, 0.00, 0.00, 0.00
255, 5718.20, 73929.45, 13471.87, 34288.16, -27560.19, -5331.27, 10029.25, -28529.86, -992.66, 43592.79, 13706.29, -38800.08, 0.00, 0.00, 0.00, 0.00, 0.00, 0.00, 0.00
0, 5718.20, 73929.45, 13471.87, 34288.16, -27560.19, -5331.27, 10029.25, -28529.86, -998.43, 43590.06, 13712.08, -38830.37, 0.00, 0.00, 0.00, 0.00, 0.00, 0.00, 0.00
1, 5708.77, 73924.44, 13463.39, 34274.63, -27569.09, -5340.70, 10014.25, -28542.69, -998.43, 43590.06, 13712.08, -38830.37, 0.00, 0.00, 0.00, 0.00, 0.00, 0.00, 0.00
2, 5708.77, 73924.44, 13463.39, 34274.63, -27569.09, -5340.70, 10014.25, -28542.69, -995.23, 43587.18, 13712.28, -38831.80, 0.00, 0.00, 0.00, 0.00, -0.13, 0.41, 0.91
3, 5722.49, 73941.09, 13477.36, 34292.54, -27558.40, -5329.17, 10025.96, -28531.17, -995.23, 43587.18, 13712.28, -38831.80, 0.00, 0.00, 0.00, 0.00, 0.00, 0.00, 0.00
4, 5722.49, 73941.09, 13477.36, 34292.54, -27558.40, -5329.17, 10025.96, -28531.17, -995.19, 43587.04, 13716.39, -38807.03, 0.00, 0.00, 0.00, 0.00, 0.00, 0.00, 0.00
5, 5724.37, 73928.10, 13467.04, 34278.75, -27571.97, -5338.76, 10016.51, -28541.86, -995.19, 43587.04, 13716.39, -38807.03, 0.00, 0.00, 0.00, 0.00, 0.00, 0.00, 0.00
6, 5724.37, 73928.10, 13467.04, 34278.75, -27571.97, -5338.76, 10016.51, -28541.86, -993.83, 43577.94, 13712.08, -38819.48, 0.00, 0.00, 0.00, 0.00, 0.00, 0.00, 0.00
7, 5729.38, 73940.84, 13477.72, 34288.65, -27557.87, -5334.24, 10025.56, -28539.27, -993.83, 43577.94, 13712.08, -38819.48, 0.00, 0.00, 0.00, 0.00, 0.00, 0.00, 0.00
8, 5729.38, 73940.84, 13477.72, 34288.65, -27557.87, -5334.24, 10025.56, -28539.27, -1002.32, 43561.31, 13716.84, -38868.36, 0.00, 0.00, 0.00, 0.00, 0.00, 0.00, 0.00
9, 5707.76, 73926.47, 13465.83, 34268.31, -27575.70, -5355.23, 9993.13, -28564.54, -1002.32, 43561.31, 13716.84, -38868.36, 0.00, 0.00, 0.00, 0.00, 0.00, 0.00, 0.00
10, 5707.76, 73926.47, 13465.83, 34268.31, -27575.70, -5355.23, 9993.13, -28564.54, -999.44, 43554.45, 13709.35, -38839.29, 0.00, 0.00, 0.00, 0.00, 0.00, 0.00, 0.00
11, 5721.13, 73940.46, 13474.99, 34283.60, -27564.84, -5343.83, 10020.02, -28547.09, -999.44, 43554.45, 13709.35, -38839.29, 0.00, 0.00, 0.00, 0.00, 0.00, 0.00, 0.00
12, 5721.13, 73940.46, 13474.99, 34283.60, -27564.84, -5343.83, 10020.02, -28547.09, -1004.51, 43559.59, 13717.40, -38868.52, 0.00, 0.00, 0.00, 0.00, -0.14, 0.40, 0.90
13, 5722.65, 73930.80, 13467.10, 34274.90, -27579.01, -5353.47, 9993.78, -28565.24, -1004.51, 43559.59, 13717.40, -38868.52, 0.00, 0.00, 0.00, 0.00, 0.00, 0.00, 0.00
14, 5722.65, 73930.80, 13467.10, 34274.90, -27579.01, -5353.47, 9993.78, -28565.24, -1003.46, 43545.96, 13712.68, -38880.14, 0.00, 0.00, 0.00, 0.00, 0.00, 0.00, 0.00
15, 5733.27, 73944.75, 13481.25, 34288.31, -27561.13, -5339.12, 10018.28, -28547.94, -1003.46, 43545.96, 13712.68, -38880.14, 0.00, 0.00, 0.00, 0.00, 0.00, 0.00, 0.00
16, 5733.27, 73944.75, 13481.25, 34288.31, -27561.13, -5339.12, 10018.28, -28547.94, -1004.76, 43557.22, 13720.15, -38862.04, 0.00, 0.00, 0.00, 0.00, 0.00, 0.00, 0.00
17, 5724.55, 73936.80, 13477.39, 34282.79, -27565.38, -5344.79, 10007.77, -28555.22, -1004.76, 43557.22, 13720.15, -38862.04, 0.00, 0.00, 0.00, 0.00, 0.00, 0.00, 0.00
18, 5724.55, 73936.80, 13477.39, 34282.79, -27565.38, -5344.79, 10007.77, -28555.22, -1003.71, 43547.70, 13713.71, -38861.93, 0.00, 0.00, 0.00, 0.00, 0.00, 0.00, 0.00
19, 5722.11, 73946.61, 13481.79, 34286.41, -27562.72, -5340.70, 10018.61, -28548.32, -1003.71, 43547.70, 13713.71, -38861.93, 0.00, 0.00, 0.00, 0.00, 0.00, 0.00, 0.00
20, 5722.11, 73946.61, 13481.79, 34286.41, -27562.72, -5340.70, 10018.61, -28548.32, -994.25, 43563.64, 13727.32, -38830.21, 0.00, 0.00, 0.00, 0.00, 0.00, 0.00, 0.00
21, 5732.42, 73944.27, 13480.45, 34286.32, -27561.35, -5338.02, 10015.26, -28546.04, -994.25, 43563.64, 13727.32, -38830.21, 0.00, 0.00, 0.00, 0.00, -0.13, 0.41, 0.90
22, 5732.42, 73944.27, 13480.45, 34286.32, -27561.35, -5338.02, 10015.26, -28546.04, -993.87, 43556.55, 13719.41, -38859.76, 0.00, 0.00, 0.00, 0.00, 0.00, 0.00, 0.00
23, 5725.78, 73939.59, 13475.02, 34278.37, -27564.68, -5344.57, 10015.01, -28548.70, -993.87, 43556.55, 13719.41, -38859.76, 0.00, 0.00, 0.00, 0.00, 0.00, 0.00, 0.00
24, 5725.78, 73939.59, 13475.02, 34278.37, -27564.68, -5344.57, 10015.01, -28548.70, -1003.15, 43553.02, 13719.52, -38871.65, 0.00, 0.00, 0.00, 0.00, 0.00, 0.00, 0.00
25, 5720.97, 73939.59, 13477.14, 34282.79, -27568.98, -5345.80, 10004.08, -28561.88, -1003.15, 43553.02, 13719.52, -38871.65, 0.00, 0.00, 0.00, 0.00, 0.00, 0.00, 0.00
26, 5720.97, 73939.59, 13477.14, 34282.79, -27568.98, -5345.80, 10004.08, -28561.88, -1007.57, 43532.95, 13712.93, -38867.67, 0.00, 0.00, 0.00, 0.00, 0.00, 0.00, 0.00
27, 5724.57, 73938.07, 13471.73, 34276.67, -27570.67, -5349.44, 10003.50, -28561.71, -1007.57, 43532.95, 13712.93, -38867.67, 0.00, 0.00, 0.00, 0.00, 0.00, 0.00, 0.00
28, 5724.57, 73938.07, 13471.73, 34276.67, -27570.67, -5349.44, 10003.50, -28561.71, -997.02, 43554.96, 13723.25, -38870.46, 0.00, 0.00, 0.00, 0.00, 0.00, 0.00, 0.00
29, 5736.75, 73953.00, 13488.20, 34290.95, -27554.63, -5332.48, 10020.80, -28541.75, -997.02, 43554.96, 13723.25, -38870.46, 0.00, 0.00, 0.00, 0.00, 0.00, 0.00, 0.00
30, 5736.75, 73953.00, 13488.20, 34290.95, -27554.63, -5332.48, 10020.80, -28541.75, -986.65, 43557.18, 13722.76, -38851.84, 0.00, 0.00, 0.00, 0.00, 0.00, 0.00, 0.00
31, 5717.26, 73939.01, 13474.48, 34272.22, -27569.58, -5348.88, 10011.14, -28552.92, -986.65, 43557.18, 13722.76, -38851.84, 0.00, 0.00, 0.00, 0.00, -0.13, 0.41, 0.91
32, 5717.26, 73939.01, 13474.48, 34272.22, -27569.58, -5348.88, 10011.14, -28552.92, -1001.74, 43556.22, 13722.25, -38879.14, 0.00, 0.00, 0.00, 0.00, 0.00, 0.00, 0.00
33, 5728.80, 73949.78, 13487.51, 34288.34, -27556.71, -5338.49, 10017.05, -28546.06, -1001.74, 43556.22, 13722.25, -38879.14, 0.00, 0.00, 0.00, 0.00, 0.00, 0.00, 0.00
34, 5728.80, 73949.78, 13487.51, 34288.34, -27556.71, -5338.49, 10017.05, -28546.06, -1002.95, 43548.30, 13721.36, -38840.31, 0.00, 0.00, 0.00, 0.00, 0.00, 0.00, 0.00
35, 5724.62, 73937.42, 13472.45, 34273.94, -27571.70, -5347.65, 10004.57, -28558.26, -1002.95, 43548.30, 13721.36, -38840.31, 0.00, 0.00, 0.00, 0.00, 0.00, 0.00, 0.00
36, 5724.62, 73937.42, 13472.45, 34273.94, -27571.70, -5347.65, 10004.57, -28558.26, -996.55, 43555.21, 13722.41, -38857.70, 0.00, 0.00, 0.00, 0.00, 0.00, 0.00, 0.00
37, 5735.06, 73949.38, 13481.05, 34284.94, -27559.43, -5338.60, 10016.89, -28545.08, -996.55, 43555.21, 13722.41, -38857.70, 0.00, 0.00, 0.00, 0.00, 0.00, 0.00, 0.00
38, 5735.06, 73949.38, 13481.05, 34284.94, -27559.43, -5338.60, 10016.89, -28545.08, -1004.67, 43544.13, 13713.69, -38860.14, 0.00, 0.00, 0.00, 0.00, 0.00, 0.00, 0.00
39, 5712.79, 73934.36, 13471.84, 34267.88, -27575.57, -5352.17, 9999.39, -28562.78, -1004.67, 43544.13, 13713.69, -38860.14, 0.00, 0.00, 0.00, 0.00, 0.00, 0.00, 0.00
40, 5712.79, 73934.36, 13471.84, 34267.88, -27575.57, -5352.17, 9999.39, -28562.78, -999.57, 43551.55, 13715.72, -38869.86, 0.00, 0.00, 0.00, 0.00, 0.00, 0.00, 0.00
41, 5731.64, 73951.62, 13484.32, 34286.66, -27562.27, -5338.56, 10019.42, -28548.21, -999.57, 43551.55, 13715.72, -38869.86, 0.00, 0.00, 0.00, 0.00, -0.14, 0.41, 0.90
42, 5731.64, 73951.62, 13484.32, 34286.66, -27562.27, -5338.56, 10019.42, -28548.21, -1005.98, 43541.87, 13719.84, -38880.68, 0.00, 0.00, 0.00, 0.00, 0.00, 0.00, 0.00
43, 5720.77, 73939.61, 13475.08, 34271.32, -27574.34, -5351.66, 10002.20, -28561.30, -1005.98, 43541.87, 13719.84, -38880.68, 0.00, 0.00, 0.00, 0.00, 0.00, 0.00, 0.00
44, 5720.77, 73939.61, 13475.08, 34271.32, -27574.34, -5351.66, 10002.20, -28561.30, -997.40, 43551.12, 13723.95, -38841.72, 0.00, 0.00, 0.00, 0.00, 0.00, 0.00, 0.00
45, 5737.42, 73958.68, 13488.74, 34287.38, -27554.74, -5334.62, 10018.79, -28538.13, -997.40, 43551.12, 13723.95, -38841.72, 0.00, 0.00, 0.00, 0.00, 0.00, 0.00, 0.00
46, 5737.42, 73958.68, 13488.74, 34287.38, -27554.74, -5334.62, 10018.79, -28538.13, -999.55, 43549.45, 13720.24, -38863.51, 0.00, 0.00, 0.00, 0.00, 0.00, 0.00, 0.00
47, 5718.67, 73939.16, 13472.58, 34266.83, -27574.81, -5355.59, 9997.93, -28562.55, -999.55, 43549.45, 13720.24, -38863.51, 0.00, 0.00, 0.00, 0.00, 0.00, 0.00, 0.00
48, 5718.67, 73939.16, 13472.58, 34266.83, -27574.81, -5355.59, 9997.93, -28562.55, -999.93, 43544.08, 13721.02, -38864.79, 0.00, 0.00, 0.00, 0.00, 0.00, 0.00, 0.00
49, 5733.96, 73958.57, 13492.83, 34291.20, -27555.16, -5335.94, 10021.83, -28540.92, -999.93, 43544.08, 13721.02, -38864.79, 0.00, 0.00, 0.00, 0.00, 0.00, 0.00, 0.00
50, 5733.96, 73958.57, 13492.83, 34291.20, -27555.16, -5335.94, 10021.83, -28540.92, -993.33, 43552.66, 13723.32, -38868.90, 0.00, 0.00, 0.00, 0.00, 0.00, 0.00, 0.00
51, 5727.50, 73941.24, 13475.11, 34270.57, -27574.43, -5353.06, 10000.10, -28559.47, -993.33, 43552.66, 13723.32, -38868.90, 0.00, 0.00, 0.00, 0.00, -0.14, 0.41, 0.90
52, 5727.50, 73941.24, 13475.11, 34270.57, -27574.43, -5353.06, 10000.10, -28559.47, -996.37, 43545.40, 13716.66, -38863.04, 0.00, 0.00, 0.00, 0.00, 0.00, 0.00, 0.00
53, 5732.53, 73951.75, 13482.33, 34285.25, -27565.24, -5339.36, 10014.52, -28546.57, -996.37, 43545.40, 13716.66, -38863.04, 0.00, 0.00, 0.00, 0.00, 0.00, 0.00, 0.00
54, 5732.53, 73951.75, 13482.33, 34285.25, -27565.24, -5339.36, 10014.52, -28546.57, -1002.50, 43543.41, 13712.10, -38863.18, 0.00, 0.00, 0.00, 0.00, 0.00, 0.00, 0.00
55, 5723.19, 73935.99, 13473.25, 34270.23, -27578.01, -5351.72, 9993.46, -28564.48, -1002.50, 43543.41, 13712.10, -38863.18, 0.00, 0.00, 0.00, 0.00, 0.00, 0.00, 0.00
56, 5723.19, 73935.99, 13473.25, 34270.23, -27578.01, -5351.72, 9993.46, -28564.48, -1003.68, 43537.80, 13708.26, -38876.77, 0.00, 0.00, 0.00, 0.00, 0.00, 0.00, 0.00
57, 5727.41, 73944.75, 13480.47, 34282.14, -27568.19, -5343.85, 10007.81, -28553.91, -1003.68, 43537.80, 13708.26, -38876.77, 0.00, 0.00, 0.00, 0.00, 0.00, 0.00, 0.00
58, 5727.41, 73944.75, 13480.47, 34282.14, -27568.19, -5343.85, 10007.81, -28553.91, -1007.17, 43539.90, 13710.81, -38859.67, 0.00, 0.00, 0.00, 0.00, 0.00, 0.00, 0.00
59, 5714.49, 73931.59, 13467.01, 34269.56, -27583.28, -5355.57, 9992.55, -28568.54, -1007.17, 43539.90, 13710.81, -38859.67, 0.00, 0.00, 0.00, 0.00, 0.00, 0.00, 0.00
60, 5714.49, 73931.59, 13467.01, 34269.56, -27583.28, -5355.57, 9992.55, -28568.54, -1006.50, 43531.38, 13703.67, -38861.37, 0.00, 0.00, 0.00, 0.00, -0.14, 0.41, 0.90
61, 5721.71, 73940.02, 13472.60, 34275.66, -27578.05, -5350.00, 10004.06, -28559.02, -1006.50, 43531.38, 13703.67, -38861.37, 0.00, 0.00, 0.00, 0.00, 0.00, 0.00, 0.00
62, 5721.71, 73940.02, 13472.60, 34275.66, -27578.05, -5350.00, 10004.06, -28559.02, -1002.99, 43541.98, 13709.08, -38881.44, 0.00, 0.00, 0.00, 0.00, 0.00, 0.00, 0.00
63, 5718.43, 73931.39, 13468.60, 34268.04, -27579.82, -5355.08, 9990.94, -28566.94, -1002.99, 43541.98, 13709.08, -38881.44, 0.00, 0.00, 0.00, 0.00, 0.00, 0.00, 0.00
64, 5718.43, 73931.39, 13468.60, 34268.04, -27579.82, -5355.08, 9990.94, -28566.94, -1005.67, 43527.56, 13703.97, -38862.84, 0.00, 0.00, 0.00, 0.00, 0.00, 0.00, 0.00
65, 5726.14, 73943.08, 13474.57, 34272.06, -27573.00, -5352.95, 9998.76, -28558.33, -1005.67, 43527.56, 13703.97, -38862.84, 0.00, 0.00, 0.00, 0.00, 0.00, 0.00, 0.00
66, 5726.14, 73943.08, 13474.57, 34272.06, -27573.00, -5352.95, 9998.76, -28558.33, -1001.05, 43537.93, 13713.13, -38874.18, 0.00, 0.00, 0.00, 0.00, 0.00, 0.00, 0.00
67, 5713.55, 73937.18, 13473.50, 34269.34, -27582.43, -5357.20, 9995.86, -28568.05, -1001.05, 43537.93, 13713.13, -38874.18, 0.00, 0.00, 0.00, 0.00, 0.00, 0.00, 0.00
68, 5713.55, 73937.18, 13473.50, 34269.34, -27582.43, -5357.20, 9995.86, -28568.05, -1012.76, 43518.31, 13700.05, -38886.45, 0.00, 0.00, 0.00, 0.00, 0.00, 0.00, 0.00
69, 5718.20, 73937.20, 13472.94, 34270.92, -27580.20, -5354.96, 9994.58, -28565.33, -1012.76, 43518.31, 13700.05, -38886.45, 0.00, 0.00, 0.00, 0.00, 0.00, 0.00, 0.00
70, 5718.20, 73937.20, 13472.94, 34270.92, -27580.20, -5354.96, 9994.58, -28565.33, -1004.47, 43542.92, 13712.37, -38858.95, 0.00, 0.00, 0.00, 0.00, -0.13, 0.41, 0.91
71, 5726.23, 73936.87, 13475.75, 34274.84, -27574.27, -5351.90, 9995.88, -28561.55, -1004.47, 43542.92, 13712.37, -38858.95, 0.00, 0.00, 0.00, 0.00, 0.00, 0.00, 0.00
72, 5726.23, 73936.87, 13475.75, 34274.84, -27574.27, -5351.90, 9995.88, -28561.55, -1009.65, 43520.30, 13702.31, -38863.89, 0.00, 0.00, 0.00, 0.00, 0.00, 0.00, 0.00
73, 5714.87, 73934.30, 13471.80, 34267.05, -27582.77, -5357.94, 9991.97, -28568.95, -1009.65, 43520.30, 13702.31, -38863.89, 0.00, 0.00, 0.00, 0.00, 0.00, 0.00, 0.00
74, 5714.87, 73934.30, 13471.80, 34267.05, -27582.77, -5357.94, 9991.97, -28568.95, -1007.28, 43534.43, 13708.91, -38877.62, 0.00, 0.00, 0.00, 0.00, 0.00, 0.00, 0.00
75, 5714.60, 73940.51, 13474.73, 34271.64, -27576.42, -5354.52, 9995.99, -28565.17, -1007.28, 43534.43, 13708.91, -38877.62, 0.00, 0.00, 0.00, 0.00, 0.00, 0.00, 0.00
76, 5714.60, 73940.51, 13474.73, 34271.64, -27576.42, -5354.52, 9995.99, -28565.17, -1006.74, 43523.43, 13702.00, -38890.56, 0.00, 0.00, 0.00, 0.00, 0.00, 0.00, 0.00
77, 5708.14, 73926.85, 13464.31, 34263.39, -27591.55, -5361.92, 9986.74, -28572.01, -1006.74, 43523.43, 13702.00, -38890.56, 0.00, 0.00, 0.00, 0.00, 0.00, 0.00, 0.00
78, 5708.14, 73926.85, 13464.31, 34263.39, -27591.55, -5361.92, 9986.74, -28572.01, -1003.48, 43534.98, 13709.64, -38873.59, 0.00, 0.00, 0.00, 0.00, 0.00, 0.00, 0.00
79, 5715.27, 73934.80, 13469.41, 34267.19, -27573.78, -5354.74, 9996.17, -28561.66, -1003.48, 43534.98, 13709.64, -38873.59, 0.00, 0.00, 0.00, 0.00, 0.00, 0.00, 0.00
80, 5715.27, 73934.80, 13469.41, 34267.19, -27573.78, -5354.74, 9996.17, -28561.66, -1005.36, 43522.89, 13705.46, -38863.04, 0.00, 0.00, 0.00, 0.00, -0.13, 0.41, 0.90
81, 5700.34, 73925.51, 13465.09, 34258.16, -27591.26, -5367.44, 9984.10, -28575.45, -1005.36, 43522.89, 13705.46, -38863.04, 0.00, 0.00, 0.00, 0.00, 0.00, 0.00, 0.00
82, 5700.34, 73925.51, 13465.09, 34258.16, -27591.26, -5367.44, 9984.10, -28575.45, -1010.70, 43531.05, 13702.00, -38884.59, 0.00, 0.00, 0.00, 0.00, 0.00, 0.00, 0.00
83, 5710.16, 73930.45, 13470.14, 34266.34, -27581.98, -5359.10, 9990.51, -28568.05, -1010.70, 43531.05, 13702.00, -38884.59, 0.00, 0.00, 0.00, 0.00, 0.00, 0.00, 0.00
84, 5710.16, 73930.45, 13470.14, 34266.34, -27581.98, -5359.10, 9990.51, -28568.05, -1008.38, 43514.69, 13705.44, -38893.20, 0.00, 0.00, 0.00, 0.00, 0.00, 0.00, 0.00
85, 5709.15, 73922.73, 13458.57, 34252.84, -27593.45, -5370.01, 9976.48, -28580.46, -1008.38, 43514.69, 13705.44, -38893.20, 0.00, 0.00, 0.00, 0.00, 0.00, 0.00, 0.00
86, 5709.15, 73922.73, 13458.57, 34252.84, -27593.45, -5370.01, 9976.48, -28580.46, -1004.96, 43523.11, 13713.40, -38886.78, 0.00, 0.00, 0.00, 0.00, 0.00, 0.00, 0.00
87, 5716.19, 73943.97, 13480.85, 34272.89, -27578.45, -5354.14, 10000.30, -28562.33, -1004.96, 43523.11, 13713.40, -38886.78, 0.00, 0.00, 0.00, 0.00, 0.00, 0.00, 0.00
88, 5716.19, 73943.97, 13480.85, 34272.89, -27578.45, -5354.14, 10000.30, -28562.33, -1006.95, 43520.05, 13712.21, -38876.57, 0.00, 0.00, 0.00, 0.00, 0.00, 0.00, 0.00
89, 5699.52, 73926.47, 13468.83, 34256.48, -27587.82, -5368.73, 9977.73, -28582.36, -1006.95, 43520.05, 13712.21, -38876.57, 0.00, 0.00, 0.00, 0.00, 0.00, 0.00, 0.00
90, 5699.52, 73926.47, 13468.83, 34256.48, -27587.82, -5368.73, 9977.73, -28582.36, -1006.39, 43527.59, 13710.60, -38900.98, 0.00, 0.00, 0.00, 0.00, -0.14, 0.41, 0.90
91, 5711.99, 73939.52, 13478.93, 34275.28, -27575.57, -5351.92, 9998.27, -28561.86, -1006.39, 43527.59, 13710.60, -38900.98, 0.00, 0.00, 0.00, 0.00, 0.00, 0.00, 0.00
92, 5711.99, 73939.52, 13478.93, 34275.28, -27575.57, -5351.92, 9998.27, -28561.86, -1004.78, 43522.53, 13707.81, -38857.84, 0.00, 0.00, 0.00, 0.00, 0.00, 0.00, 0.00
93, 5711.79, 73921.44, 13460.13, 34258.07, -27597.25, -5367.53, 9980.12, -28581.44, -1004.78, 43522.53, 13707.81, -38857.84, 0.00, 0.00, 0.00, 0.00, 0.00, 0.00, 0.00
94, 5711.79, 73921.44, 13460.13, 34258.07, -27597.25, -5367.53, 9980.12, -28581.44, -1014.68, 43516.03, 13706.63, -38869.79, 0.00, 0.00, 0.00, 0.00, 0.00, 0.00, 0.00
95, 5714.09, 73941.60, 13477.45, 34277.58, -27578.72, -5353.80, 9994.56, -28568.21, -1014.68, 43516.03, 13706.63, -38869.79, 0.00, 0.00, 0.00, 0.00, 0.00, 0.00, 0.00
96, 5714.09, 73941.60, 13477.45, 34277.58, -27578.72, -5353.80, 9994.56, -28568.21, -1009.65, 43518.67, 13710.09, -38889.17, 0.00, 0.00, 0.00, 0.00, 0.00, 0.00, 0.00
97, 5702.65, 73922.54, 13464.76, 34257.49, -27596.74, -5369.07, 9974.93, -28585.15, -1009.65, 43518.67, 13710.09, -38889.17, 0.00, 0.00, 0.00, 0.00, 0.00, 0.00, 0.00
98, 5702.65, 73922.54, 13464.76, 34257.49, -27596.74, -5369.07, 9974.93, -28585.15, -1012.44, 43518.49, 13699.47, -38904.55, 0.00, 0.00, 0.00, 0.00, 0.00, 0.00, 0.00
99, 5710.22, 73931.74, 13468.60, 34270.92, -27585.29, -5356.24, 9991.18, -28568.10, -1012.44, 43518.49, 13699.47, -38904.55, 0.00, 0.00, 0.00, 0.00, -0.14, 0.41, 0.90
100, 5710.22, 73931.74, 13468.60, 34270.92, -27585.29, -5356.24, 9991.18, -28568.10, -1012.62, 43521.48, 13703.54, -38864.23, 0.00, 0.00, 0.00, 0.00, 0.00, 0.00, 0.00
101, 5701.62, 73919.20, 13458.03, 34254.67, -27603.33, -5370.95, 9973.30, -28587.34, -1012.62, 43521.48, 13703.54, -38864.23, 0.00, 0.00, 0.00, 0.00, 0.00, 0.00, 0.00
102, 5701.62, 73919.20, 13458.03, 34254.67, -27603.33, -5370.95, 9973.30, -28587.34, -1009.40, 43515.27, 13697.04, -38876.12, 0.00, 0.00, 0.00, 0.00, 0.00, 0.00, 0.00
103, 5709.35, 73936.51, 13472.71, 34269.65, -27584.11, -5358.23, 9991.48, -28567.03, -1009.40, 43515.27, 13697.04, -38876.12, 0.00, 0.00, 0.00, 0.00, 0.00, 0.00, 0.00
104, 5709.35, 73936.51, 13472.71, 34269.65, -27584.11, -5358.23, 9991.48, -28567.03, -1005.07, 43531.50, 13711.48, -38886.67, 0.00, 0.00, 0.00, 0.00, 0.00, 0.00, 0.00
105, 5706.40, 73926.52, 13464.65, 34258.43, -27594.70, -5364.04, 9983.23, -28575.47, -1005.07, 43531.50, 13711.48, -38886.67, 0.00, 0.00, 0.00, 0.00, 0.00, 0.00, 0.00
106, 5706.40, 73926.52, 13464.65, 34258.43, -27594.70, -5364.04, 9983.23, -28575.47, -1003.73, 43525.77, 13702.33, -38889.96, 0.00, 0.00, 0.00, 0.00, 0.00, 0.00, 0.00
107, 5711.36, 73939.12, 13474.95, 34273.05, -27583.15, -5351.75, 9992.84, -28559.40, -1003.73, 43525.77, 13702.33, -38889.96, 0.00, 0.00, 0.00, 0.00, 0.00, 0.00, 0.00
108, 5711.36, 73939.12, 13474.95, 34273.05, -27583.15, -5351.75, 9992.84, -28559.40, -998.54, 43543.72, 13711.05, -38847.20, 0.00, 0.00, 0.00, 0.00, 0.00, 0.00, 0.00
109, 5706.80, 73921.69, 13459.13, 34258.56, -27595.08, -5363.44, 9981.39, -28573.17, -998.54, 43543.72, 13711.05, -38847.20, 0.00, 0.00, 0.00, 0.00, -0.13, 0.41, 0.90
110, 5706.80, 73921.69, 13459.13, 34258.56, -27595.08, -5363.44, 9981.39, -28573.17, -1015.28, 43517.53, 13691.90, -38883.34, 0.00, 0.00, 0.00, 0.00, 0.00, 0.00, 0.00
111, 5703.52, 73927.77, 13463.68, 34264.08, -27597.36, -5362.14, 9982.47, -28577.13, -1015.28, 43517.53, 13691.90, -38883.34, 0.00, 0.00, 0.00, 0.00, 0.00, 0.00, 0.00
112, 5703.52, 73927.77, 13463.68, 34264.08, -27597.36, -5362.14, 9982.47, -28577.13, -1014.61, 43522.20, 13704.12, -38869.79, 0.00, 0.00, 0.00, 0.00, 0.00, 0.00, 0.00
113, 5710.83, 73932.46, 13465.54, 34259.48, -27596.40, -5365.36, 9976.77, -28580.79, -1014.61, 43522.20, 13704.12, -38869.79, 0.00, 0.00, 0.00, 0.00, 0.00, 0.00, 0.00
114, 5710.83, 73932.46, 13465.54, 34259.48, -27596.40, -5365.36, 9976.77, -28580.79, -1012.94, 43510.75, 13703.94, -38882.36, 0.00, 0.00, 0.00, 0.00, 0.00, 0.00, 0.00
115, 5703.40, 73937.16, 13469.99, 34262.81, -27595.64, -5363.26, 9981.15, -28574.20, -1012.94, 43510.75, 13703.94, -38882.36, 0.00, 0.00, 0.00, 0.00, 0.00, 0.00, 0.00
116, 5703.40, 73937.16, 13469.99, 34262.81, -27595.64, -5363.26, 9981.15, -28574.20, -1013.20, 43526.67, 13705.24, -38889.42, 0.00, 0.00, 0.00, 0.00, 0.00, 0.00, 0.00
117, 5711.85, 73933.20, 13465.47, 34259.64, -27597.81, -5364.98, 9981.80, -28578.31, -1013.20, 43526.67, 13705.24, -38889.42, 0.00, 0.00, 0.00, 0.00, 0.00, 0.00, 0.00
118, 5711.85, 73933.20, 13465.47, 34259.64, -27597.81, -5364.98, 9981.80, -28578.31, -1014.08, 43510.35, 13698.45, -38876.84, 0.00, 0.00, 0.00, 0.00, 0.00, 0.00, 0.00
119, 5708.46, 73931.03, 13463.51, 34253.29, -27602.64, -5368.40, 9976.81, -28579.63, -1014.08, 43510.35, 13698.45, -38876.84, 0.00, 0.00, 0.00, 0.00, -0.13, 0.40, 0.91
120, 5708.46, 73931.03, 13463.51, 34253.29, -27602.64, -5368.40, 9976.81, -28579.63, -1012.49, 43522.46, 13706.31, -38878.69, 0.00, 0.00, 0.00, 0.00, 0.00, 0.00, 0.00
121, 5709.66, 73934.13, 13467.13, 34257.78, -27598.59, -5365.02, 9978.58, -28577.80, -1012.49, 43522.46, 13706.31, -38878.69, 0.00, 0.00, 0.00, 0.00, 0.00, 0.00, 0.00
122, 5709.66, 73934.13, 13467.13, 34257.78, -27598.59, -5365.02, 9978.58, -28577.80, -1012.53, 43514.38, 13700.79, -38878.51, 0.00, 0.00, 0.00, 0.00, 0.00, 0.00, 0.00
123, 5706.98, 73935.32, 13467.31, 34255.59, -27596.42, -5368.08, 9977.26, -28578.36, -1012.53, 43514.38, 13700.79, -38878.51, 0.00, 0.00, 0.00, 0.00, 0.00, 0.00, 0.00
124, 5706.98, 73935.32, 13467.31, 34255.59, -27596.42, -5368.08, 9977.26, -28578.36, -1009.49, 43527.38, 13714.31, -38880.46, 0.00, 0.00, 0.00, 0.00, 0.00, 0.00, 0.00
125, 5709.48, 73949.16, 13479.82, 34268.13, -27588.11, -5357.29, 9989.04, -28568.32, -1009.49, 43527.38, 13714.31, -38880.46, 0.00, 0.00, 0.00, 0.00, 0.00, 0.00, 0.00
126, 5709.48, 73949.16, 13479.82, 34268.13, -27588.11, -5357.29, 9989.04, -28568.32, -1008.67, 43521.93, 13705.33, -38893.75, 0.00, 0.00, 0.00, 0.00, 0.00, 0.00, 0.00
127, 5709.66, 73933.22, 13463.04, 34255.86, -27603.91, -5368.29, 9976.46, -28579.48, -1008.67, 43521.93, 13705.33, -38893.75, 0.00, 0.00, 0.00, 0.00, 0.00, 0.00, 0.00
128, 5709.66, 73933.22, 13463.04, 34255.86, -27603.91, -5368.29, 9976.46, -28579.48, -1011.68, 43519.58, 13708.03, -38870.71, 0.00, 0.00, 0.00, 0.00, 0.00, 0.00, 0.00
129, 5720.06, 73941.11, 13471.40, 34265.18, -27596.89, -5361.29, 9982.42, -28574.38, -1011.68, 43519.58, 13708.03, -38870.71, 0.00, 0.00, 0.00, 0.00, -0.13, 0.40, 0.91
130, 5720.06, 73941.11, 13471.40, 34265.18, -27596.89, -5361.29, 9982.42, -28574.38, -1013.00, 43507.60, 13705.60, -38860.38, 0.00, 0.00, 0.00, 0.00, 0.00, 0.00, 0.00
131, 5707.67, 73930.07, 13461.49, 34251.03, -27604.22, -5373.00, 9969.01, -28586.58, -1013.00, 43507.60, 13705.60, -38860.38, 0.00, 0.00, 0.00, 0.00, 0.00, 0.00, 0.00
132, 5707.67, 73930.07, 13461.49, 34251.03, -27604.22, -5373.00, 9969.01, -28586.58, -1012.40, 43520.30, 13707.61, -38884.57, 0.00, 0.00, 0.00, 0.00, 0.00, 0.00, 0.00
133, 5703.11, 73944.38, 13478.64, 34264.24, -27593.59, -5361.27, 9986.00, -28572.08, -1012.40, 43520.30, 13707.61, -38884.57, 0.00, 0.00, 0.00, 0.00, 0.00, 0.00, 0.00
134, 5703.11, 73944.38, 13478.64, 34264.24, -27593.59, -5361.27, 9986.00, -28572.08, -1009.87, 43515.58, 13707.32, -38876.54, 0.00, 0.00, 0.00, 0.00, 0.00, 0.00, 0.00
135, 5700.10, 73925.04, 13455.55, 34244.66, -27611.71, -5375.28, 9967.40, -28584.10, -1009.87, 43515.58, 13707.32, -38876.54, 0.00, 0.00, 0.00, 0.00, 0.00, 0.00, 0.00
136, 5700.10, 73925.04, 13455.55, 34244.66, -27611.71, -5375.28, 9967.40, -28584.10, -1010.59, 43518.69, 13707.16, -38875.92, 0.00, 0.00, 0.00, 0.00, 0.00, 0.00, 0.00
137, 5716.57, 73942.98, 13471.31, 34263.64, -27596.33, -5360.75, 9986.74, -28568.86, -1010.59, 43518.69, 13707.16, -38875.92, 0.00, 0.00, 0.00, 0.00, 0.00, 0.00, 0.00
138, 5716.57, 73942.98, 13471.31, 34263.64, -27596.33, -5360.75, 9986.74, -28568.86, -1007.12, 43519.02, 13708.10, -38885.20, 0.00, 0.00, 0.00, 0.00, -0.13, 0.41, 0.90
139, 5699.54, 73926.76, 13462.54, 34246.61, -27607.46, -5374.99, 9968.41, -28586.00, -1007.12, 43519.02, 13708.10, -38885.20, 0.00, 0.00, 0.00, 0.00, 0.00, 0.00, 0.00
140, 5699.54, 73926.76, 13462.54, 34246.61, -27607.46, -5374.99, 9968.41, -28586.00, -1010.30, 43517.28, 13704.95, -38882.91, 0.00, 0.00, 0.00, 0.00, 0.00, 0.00, 0.00
141, 5708.41, 73943.62, 13474.91, 34265.11, -27594.46, -5359.95, 9983.03, -28570.27, -1010.30, 43517.28, 13704.95, -38882.91, 0.00, 0.00, 0.00, 0.00, 0.00, 0.00, 0.00
142, 5708.41, 73943.62, 13474.91, 34265.11, -27594.46, -5359.95, 9983.03, -28570.27, -1009.99, 43518.13, 13708.70, -38855.15, 0.00, 0.00, 0.00, 0.00, 0.00, 0.00, 0.00
143, 5707.34, 73934.41, 13465.00, 34251.79, -27608.70, -5370.45, 9968.72, -28586.14, -1009.99, 43518.13, 13708.70, -38855.15, 0.00, 0.00, 0.00, 0.00, 0.00, 0.00, 0.00
144, 5707.34, 73934.41, 13465.00, 34251.79, -27608.70, -5370.45, 9968.72, -28586.14, -1003.97, 43521.24, 13710.76, -38880.79, 0.00, 0.00, 0.00, 0.00, 0.00, 0.00, 0.00
145, 5721.29, 73950.50, 13483.06, 34271.01, -27591.02, -5355.97, 9990.78, -28563.47, -1003.97, 43521.24, 13710.76, -38880.79, 0.00, 0.00, 0.00, 0.00, 0.00, 0.00, 0.00
146, 5721.29, 73950.50, 13483.06, 34271.01, -27591.02, -5355.97, 9990.78, -28563.47, -1005.22, 43521.73, 13709.80, -38897.87, 0.00, 0.00, 0.00, 0.00, 0.00, 0.00, 0.00
147, 5704.37, 73932.95, 13464.36, 34251.05, -27606.59, -5370.97, 9968.41, -28585.18, -1005.22, 43521.73, 13709.80, -38897.87, 0.00, 0.00, 0.00, 0.00, 0.00, 0.00, 0.00
148, 5704.37, 73932.95, 13464.36, 34251.05, -27606.59, -5370.97, 9968.41, -28585.18, -1011.22, 43511.89, 13705.49, -38845.99, 0.00, 0.00, 0.00, 0.00, -0.14, 0.41, 0.90
149, 5717.40, 73944.77, 13472.00, 34264.29, -27596.13, -5360.26, 9985.53, -28571.92, -1011.22, 43511.89, 13705.49, -38845.99, 0.00, 0.00, 0.00, 0.00, 0.00, 0.00, 0.00
150, 5717.40, 73944.77, 13472.00, 34264.29, -27596.13, -5360.26, 9985.53, -28571.92, -1010.34, 43520.77, 13707.97, -38869.97, 0.00, 0.00, 0.00, 0.00, 0.00, 0.00, 0.00
151, 5709.86, 73934.65, 13464.89, 34251.68, -27610.26, -5369.60, 9970.91, -28582.90, -1010.34, 43520.77, 13707.97, -38869.97, 0.00, 0.00, 0.00, 0.00, 0.00, 0.00, 0.00
152, 5709.86, 73934.65, 13464.89, 34251.68, -27610.26, -5369.60, 9970.91, -28582.90, -1013.03, 43513.57, 13702.56, -38911.28, 0.00, 0.00, 0.00, 0.00, 0.00, 0.00, 0.00
153, 5710.07, 73945.73, 13471.51, 34260.91, -27600.98, -5363.14, 9982.04, -28573.71, -1013.03, 43513.57, 13702.56, -38911.28, 0.00, 0.00, 0.00, 0.00, 0.00, 0.00, 0.00
154, 5710.07, 73945.73, 13471.51, 34260.91, -27600.98, -5363.14, 9982.04, -28573.71, -1015.15, 43518.27, 13709.82, -38876.97, 0.00, 0.00, 0.00, 0.00, 0.00, 0.00, 0.00
155, 5706.51, 73937.31, 13466.86, 34251.23, -27612.34, -5369.72, 9967.18, -28586.43, -1015.15, 43518.27, 13709.82, -38876.97, 0.00, 0.00, 0.00, 0.00, 0.00, 0.00, 0.00
156, 5706.51, 73937.31, 13466.86, 34251.23, -27612.34, -5369.72, 9967.18, -28586.43, -1012.98, 43511.47, 13704.68, -38853.19, 0.00, 0.00, 0.00, 0.00, 0.00, 0.00, 0.00
157, 5718.98, 73942.67, 13470.81, 34260.64, -27597.29, -5361.40, 9979.00, -28572.84, -1012.98, 43511.47, 13704.68, -38853.19, 0.00, 0.00, 0.00, 0.00, 0.00, 0.00, 0.00
158, 5718.98, 73942.67, 13470.81, 34260.64, -27597.29, -5361.40, 9979.00, -28572.84, -1009.14, 43525.33, 13709.89, -38878.60, 0.00, 0.00, 0.00, 0.00, -0.13, 0.41, 0.90
159, 5700.59, 73931.01, 13465.05, 34251.01, -27610.44, -5369.47, 9969.17, -28582.74, -1009.14, 43525.33, 13709.89, -38878.60, 0.00, 0.00, 0.00, 0.00, 0.00, 0.00, 0.00
160, 5700.59, 73931.01, 13465.05, 34251.01, -27610.44, -5369.47, 9969.17, -28582.74, -1011.13, 43512.16, 13698.60, -38888.21, 0.00, 0.00, 0.00, 0.00, 0.00, 0.00, 0.00
161, 5707.45, 73937.27, 13460.89, 34253.20, -27607.98, -5365.36, 9976.95, -28573.80, -1011.13, 43512.16, 13698.60, -38888.21, 0.00, 0.00, 0.00, 0.00, 0.00, 0.00, 0.00
162, 5707.45, 73937.27, 13460.89, 34253.20, -27607.98, -5365.36, 9976.95, -28573.80, -1005.87, 43526.42, 13707.07, -38854.80, 0.00, 0.00, 0.00, 0.00, 0.00, 0.00, 0.00
163, 5708.95, 73933.45, 13465.34, 34257.18, -27607.55, -5364.64, 9977.73, -28574.20, -1005.87, 43526.42, 13707.07, -38854.80, 0.00, 0.00, 0.00, 0.00, 0.00, 0.00, 0.00
164, 5708.95, 73933.45, 13465.34, 34257.18, -27607.55, -5364.64, 9977.73, -28574.20, -1003.21, 43516.30, 13704.90, -38890.04, 0.00, 0.00, 0.00, 0.00, 0.00, 0.00, 0.00
165, 5714.11, 73938.41, 13470.59, 34257.82, -27600.89, -5364.28, 9978.15, -28573.35, -1003.21, 43516.30, 13704.90, -38890.04, 0.00, 0.00, 0.00, 0.00, 0.00, 0.00, 0.00
166, 5714.11, 73938.41, 13470.59, 34257.82, -27600.89, -5364.28, 9978.15, -28573.35, -1005.74, 43522.58, 13709.29, -38881.28, 0.00, 0.00, 0.00, 0.00, 0.00, 0.00, 0.00
167, 5704.14, 73941.40, 13471.69, 34255.14, -27610.48, -5366.97, 9972.77, -28578.63, -1005.74, 43522.58, 13709.29, -38881.28, 0.00, 0.00, 0.00, 0.00, 0.00, 0.00, 0.00
168, 5704.14, 73941.40, 13471.69, 34255.14, -27610.48, -5366.97, 9972.77, -28578.63, -1011.39, 43511.38, 13699.54, -38857.57, 0.00, 0.00, 0.00, 0.00, -0.14, 0.41, 0.91
169, 5706.89, 73941.02, 13464.94, 34252.86, -27610.19, -5368.20, 9972.54, -28578.07, -1011.39, 43511.38, 13699.54, -38857.57, 0.00, 0.00, 0.00, 0.00, 0.00, 0.00, 0.00
170, 5706.89, 73941.02, 13464.94, 34252.86, -27610.19, -5368.20, 9972.54, -28578.07, -1006.77, 43527.70, 13709.58, -38885.29, 0.00, 0.00, 0.00, 0.00, 0.00, 0.00, 0.00
171, 5717.44, 73942.32, 13470.59, 34256.62, -27604.56, -5363.95, 9976.52, -28574.71, -1006.77, 43527.70, 13709.58, -38885.29, 0.00, 0.00, 0.00, 0.00, 0.00, 0.00, 0.00
172, 5717.44, 73942.32, 13470.59, 34256.62, -27604.56, -5363.95, 9976.52, -28574.71, -1007.57, 43509.10, 13701.78, -38893.02, 0.00, 0.00, 0.00, 0.00, 0.00, 0.00, 0.00
173, 5707.18, 73935.39, 13464.60, 34247.77, -27611.58, -5371.41, 9966.93, -28580.48, -1007.57, 43509.10, 13701.78, -38893.02, 0.00, 0.00, 0.00, 0.00, 0.00, 0.00, 0.00
174, 5707.18, 73935.39, 13464.60, 34247.77, -27611.58, -5371.41, 9966.93, -28580.48, -1007.75, 43521.84, 13707.01, -38861.70, 0.00, 0.00, 0.00, 0.00, 0.00, 0.00, 0.00
175, 5710.47, 73947.59, 13477.03, 34257.07, -27603.96, -5360.71, 9980.30, -28570.29, -1007.75, 43521.84, 13707.01, -38861.70, 0.00, 0.00, 0.00, 0.00, 0.00, 0.00, 0.00
176, 5710.47, 73947.59, 13477.03, 34257.07, -27603.96, -5360.71, 9980.30, -28570.29, -1007.57, 43516.41, 13707.54, -38860.00, 0.00, 0.00, 0.00, 0.00, 0.00, 0.00, 0.00
177, 5704.46, 73939.92, 13472.27, 34251.36, -27612.47, -5369.05, 9969.10, -28579.56, -1007.57, 43516.41, 13707.54, -38860.00, 0.00, 0.00, 0.00, 0.00, -0.13, 0.41, 0.91
178, 5704.46, 73939.92, 13472.27, 34251.36, -27612.47, -5369.05, 9969.10, -28579.56, -1010.66, 43517.23, 13709.00, -38875.07, 0.00, 0.00, 0.00, 0.00, 0.00, 0.00, 0.00
179, 5715.30, 73948.69, 13476.04, 34261.73, -27606.82, -5361.29, 9981.82, -28570.58, -1010.66, 43517.23, 13709.00, -38875.07, 0.00, 0.00, 0.00, 0.00, 0.00, 0.00, 0.00
180, 5715.30, 73948.69, 13476.04, 34261.73, -27606.82, -5361.29, 9981.82, -28570.58, -1010.37, 43511.00, 13703.21, -38887.83, 0.00, 0.00, 0.00, 0.00, 0.00, 0.00, 0.00
181, 5701.75, 73934.90, 13467.66, 34250.02, -27614.71, -5370.86, 9963.85, -28584.64, -1010.37, 43511.00, 13703.21, -38887.83, 0.00, 0.00, 0.00, 0.00, 0.00, 0.00, 0.00
182, 5701.75, 73934.90, 13467.66, 34250.02, -27614.71, -5370.86, 9963.85, -28584.64, -1010.41, 43518.09, 13704.79, -38916.64, 0.00, 0.00, 0.00, 0.00, 0.00, 0.00, 0.00
183, 5719.86, 73950.34, 13481.66, 34265.63, -27604.65, -5359.10, 9981.80, -28568.79, -1010.41, 43518.09, 13704.79, -38916.64, 0.00, 0.00, 0.00, 0.00, 0.00, 0.00, 0.00
184, 5719.86, 73950.34, 13481.66, 34265.63, -27604.65, -5359.10, 9981.80, -28568.79, -1008.64, 43512.16, 13706.04, -38855.18, 0.00, 0.00, 0.00, 0.00, 0.00, 0.00, 0.00
185, 5710.09, 73933.73, 13466.68, 34251.07, -27615.89, -5371.93, 9965.37, -28585.15, -1008.64, 43512.16, 13706.04, -38855.18, 0.00, 0.00, 0.00, 0.00, 0.00, 0.00, 0.00
186, 5710.09, 73933.73, 13466.68, 34251.07, -27615.89, -5371.93, 9965.37, -28585.15, -1009.67, 43513.01, 13699.14, -38868.30, 0.00, 0.00, 0.00, 0.00, 0.00, 0.00, 0.00
187, 5726.65, 73952.78, 13484.36, 34268.84, -27602.23, -5357.62, 9982.96, -28568.32, -1009.67, 43513.01, 13699.14, -38868.30, 0.00, 0.00, 0.00, 0.00, -0.14, 0.41, 0.91
188, 5726.65, 73952.78, 13484.36, 34268.84, -27602.23, -5357.62, 9982.96, -28568.32, -1005.09, 43515.07, 13710.22, -38881.04, 0.00, 0.00, 0.00, 0.00, 0.00, 0.00, 0.00
189, 5710.54, 73942.14, 13469.76, 34250.14, -27620.05, -5372.44, 9964.81, -28583.37, -1005.09, 43515.07, 13710.22, -38881.04, 0.00, 0.00, 0.00, 0.00, 0.00, 0.00, 0.00
190, 5710.54, 73942.14, 13469.76, 34250.14, -27620.05, -5372.44, 9964.81, -28583.37, -1009.96, 43512.45, 13701.93, -38893.20, 0.00, 0.00, 0.00, 0.00, 0.00, 0.00, 0.00
191, 5719.59, 73948.98, 13482.35, 34265.16, -27602.37, -5359.21, 9979.36, -28568.10, -1009.96, 43512.45, 13701.93, -38893.20, 0.00, 0.00, 0.00, 0.00, 0.00, 0.00, 0.00
192, 5719.59, 73948.98, 13482.35, 34265.16, -27602.37, -5359.21, 9979.36, -28568.10, -1009.74, 43511.67, 13705.20, -38876.05, 0.00, 0.00, 0.00, 0.00, 0.00, 0.00, 0.00
193, 5706.36, 73929.71, 13463.71, 34246.89, -27620.74, -5373.29, 9964.47, -28587.37, -1009.74, 43511.67, 13705.20, -38876.05, 0.00, 0.00, 0.00, 0.00, 0.00, 0.00, 0.00
194, 5706.36, 73929.71, 13463.71, 34246.89, -27620.74, -5373.29, 9964.47, -28587.37, -1014.08, 43505.59, 13695.67, -38874.20, 0.00, 0.00, 0.00, 0.00, 0.00, 0.00, 0.00
195, 5709.13, 73942.23, 13474.01, 34260.08, -27608.76, -5363.68, 9976.41, -28571.76, -1014.08, 43505.59, 13695.67, -38874.20, 0.00, 0.00, 0.00, 0.00, 0.00, 0.00, 0.00
196, 5709.13, 73942.23, 13474.01, 34260.08, -27608.76, -5363.68, 9976.41, -28571.76, -1011.08, 43512.16, 13702.83, -38874.31, 0.00, 0.00, 0.00, 0.00, 0.00, 0.00, 0.00
197, 5699.29, 73931.19, 13461.47, 34246.65, -27626.00, -5375.68, 9959.98, -28587.03, -1011.08, 43512.16, 13702.83, -38874.31, 0.00, 0.00, 0.00, 0.00, -0.14, 0.41, 0.91
198, 5699.29, 73931.19, 13461.47, 34246.65, -27626.00, -5375.68, 9959.98, -28587.03, -1013.52, 43506.60, 13694.82, -38884.37, 0.00, 0.00, 0.00, 0.00, 0.00, 0.00, 0.00
199, 5716.32, 73946.23, 13476.87, 34261.20, -27608.94, -5361.71, 9978.82, -28572.68, -1013.52, 43506.60, 13694.82, -38884.37, 0.00, 0.00, 0.00, 0.00, 0.00, 0.00, 0.00
200, 5716.32, 73946.23, 13476.87, 34261.20, -27608.94, -5361.71, 9978.82, -28572.68, -1005.69, 43520.72, 13710.34, -38894.92, 0.00, 0.00, 0.00, 0.00, 0.00, 0.00, 0.00
201, 5717.71, 73943.14, 13474.66, 34253.40, -27612.38, -5367.03, 9967.85, -28580.50, -1005.69, 43520.72, 13710.34, -38894.92, 0.00, 0.00, 0.00, 0.00, 0.00, 0.00, 0.00
202, 5717.71, 73943.14, 13474.66, 34253.40, -27612.38, -5367.03, 9967.85, -28580.50, -1006.74, 43507.60, 13705.26, -38850.30, 0.00, 0.00, 0.00, 0.00, 0.00, 0.00, 0.00
203, 5725.53, 73955.39, 13484.34, 34267.93, -27607.87, -5355.72, 9983.54, -28567.63, -1006.74, 43507.60, 13705.26, -38850.30, 0.00, 0.00, 0.00, 0.00, 0.00, 0.00, 0.00
204, 5725.53, 73955.39, 13484.34, 34267.93, -27607.87, -5355.72, 9983.54, -28567.63, -1002.57, 43525.26, 13714.49, -38864.47, 0.00, 0.00, 0.00, 0.00, 0.00, 0.00, 0.00
205, 5719.07, 73951.19, 13481.25, 34260.30, -27613.10, -5363.03, 9971.00, -28577.51, -1002.57, 43525.26, 13714.49, -38864.47, 0.00, 0.00, 0.00, 0.00, 0.00, 0.00, 0.00
