%OpenBCI Raw EEG Data
%
%Sample Rate = 250.0 Hz
%First Column = SampleIndex
%Other Columns = EEG data in microvolts followed by Accel Data (in G) interleaved with Aux Data
0, 0.00, 0.00, 0.00, 0.00, 0.00, 0.00, 0.00, 0.00, -7825.97, 39706.49, 11066.06, -7881.29, 0.00, 0.00, 0.00, 0.00, 0.00, 0.40, 0.92
1, 5187.50, 75017.05, 7031.68, 30999.23, -22322.91, -2780.51, 7507.30, -57297.51, -7825.97, 39706.49, 11066.06, -7881.29, 0.00, 0.00, 0.00, 0.00, 0.00, 0.00, 0.00
2, 5187.50, 75017.05, 7031.68, 30999.23, -22322.91, -2780.51, 7507.30, -57297.51, -7910.95, 39797.93, 11058.91, -7819.78, 0.00, 0.00, 0.00, 0.00, 0.00, 0.00, 0.00
3, 5179.12, 75002.39, 7016.93, 30982.22, -22341.26, -2794.77, 7481.62, -57315.75, -7910.95, 39797.93, 11058.91, -7819.78, 0.00, 0.00, 0.00, 0.00, 0.00, 0.00, 0.00
4, 5179.12, 75002.39, 7016.93, 30982.22, -22341.26, -2794.77, 7481.62, -57315.75, -7905.83, 39803.83, 11070.30, -7830.35, 0.00, 0.00, 0.00, 0.00, 0.00, 0.00, 0.00
5, 5190.46, 75021.98, 7034.76, 30997.09, -22323.40, -2782.19, 7495.10, -57295.59, -7905.83, 39803.83, 11070.30, -7830.35, 0.00, 0.00, 0.00, 0.00, 0.00, 0.00, 0.00
6, 5190.46, 75021.98, 7034.76, 30997.09, -22323.40, -2782.19, 7495.10, -57295.59, -7903.91, 39805.08, 11072.83, -7825.26, 0.00, 0.00, 0.00, 0.00, -0.01, 0.40, 0.92
7, 5174.21, 74999.33, 7017.64, 30976.34, -22339.70, -2796.27, 7470.22, -57313.20, -7903.91, 39805.08, 11072.83, -7825.26, 0.00, 0.00, 0.00, 0.00, 0.00, 0.00, 0.00
8, 5174.21, 74999.33, 7017.64, 30976.34, -22339.70, -2796.27, 7470.22, -57313.20, -7902.79, 39802.67, 11073.63, -7824.38, 0.00, 0.00, 0.00, 0.00, 0.00, 0.00, 0.00
9, 5190.81, 75021.52, 7036.93, 30994.02, -22324.03, -2782.12, 7485.00, -57292.66, -7902.79, 39802.67, 11073.63, -7824.38, 0.00, 0.00, 0.00, 0.00, 0.00, 0.00, 0.00
10, 5190.81, 75021.52, 7036.93, 30994.02, -22324.03, -2782.12, 7485.00, -57292.66, -7897.70, 39816.01, 11084.59, -7819.29, 0.00, 0.00, 0.00, 0.00, 0.00, 0.00, 0.00
11, 5187.59, 75011.06, 7027.39, 30982.27, -22336.66, -2790.48, 7462.64, -57308.24, -7897.70, 39816.01, 11084.59, -7819.29, 0.00, 0.00, 0.00, 0.00, 0.00, 0.00, 0.00
12, 5187.59, 75011.06, 7027.39, 30982.27, -22336.66, -2790.48, 7462.64, -57308.24, -7907.18, 39798.62, 11075.24, -7819.65, 0.00, 0.00, 0.00, 0.00, 0.00, 0.00, 0.00
13, 5195.31, 75025.51, 7040.58, 30996.15, -22328.30, -2781.27, 7470.62, -57297.04, -7907.18, 39798.62, 11075.24, -7819.65, 0.00, 0.00, 0.00, 0.00, 0.00, 0.00, 0.00
14, 5195.31, 75025.51, 7040.58, 30996.15, -22328.30, -2781.27, 7470.62, -57297.04, -7904.18, 39806.87, 11087.65, -7839.40, 0.00, 0.00, 0.00, 0.00, 0.00, 0.00, 0.00
15, 5185.16, 75009.81, 7026.65, 30979.94, -22342.96, -2793.70, 7446.22, -57314.90, -7904.18, 39806.87, 11087.65, -7839.40, 0.00, 0.00, 0.00, 0.00, 0.00, 0.00, 0.00
16, 5185.16, 75009.81, 7026.65, 30979.94, -22342.96, -2793.70, 7446.22, -57314.90, -7911.56, 39790.64, 11067.49, -7816.58, 0.00, 0.00, 0.00, 0.00, -0.01, 0.41, 0.92
17, 5186.92, 75017.10, 7031.37, 30987.85, -22340.37, -2788.09, 7450.42, -57305.56, -7911.56, 39790.64, 11067.49, -7816.58, 0.00, 0.00, 0.00, 0.00, 0.00, 0.00, 0.00
18, 5186.92, 75017.10, 7031.37, 30987.85, -22340.37, -2788.09, 7450.42, -57305.56, -7913.41, 39803.63, 11081.19, -7850.76, 0.00, 0.00, 0.00, 0.00, 0.00, 0.00, 0.00
19, 5183.84, 75004.09, 7024.44, 30977.88, -22353.04, -2796.16, 7431.93, -57318.03, -7913.41, 39803.63, 11081.19, -7850.76, 0.00, 0.00, 0.00, 0.00, 0.00, 0.00, 0.00
20, 5183.84, 75004.09, 7024.44, 30977.88, -22353.04, -2796.16, 7431.93, -57318.03, -7913.99, 39787.85, 11061.92, -7814.48, 0.00, 0.00, 0.00, 0.00, 0.00, 0.00, 0.00
21, 5191.44, 75015.05, 7034.16, 30989.24, -22348.95, -2787.42, 7437.21, -57305.18, -7913.99, 39787.85, 11061.92, -7814.48, 0.00, 0.00, 0.00, 0.00, 0.00, 0.00, 0.00
22, 5191.44, 75015.05, 7034.16, 30989.24, -22348.95, -2787.42, 7437.21, -57305.18, -7909.39, 39809.11, 11087.22, -7847.32, 0.00, 0.00, 0.00, 0.00, 0.00, 0.00, 0.00
23, 5196.06, 75019.07, 7037.04, 30985.57, -22351.43, -2790.24, 7427.40, -57313.11, -7909.39, 39809.11, 11087.22, -7847.32, 0.00, 0.00, 0.00, 0.00, 0.00, 0.00, 0.00
24, 5196.06, 75019.07, 7037.04, 30985.57, -22351.43, -2790.24, 7427.40, -57313.11, -7916.45, 39780.07, 11064.96, -7820.76, 0.00, 0.00, 0.00, 0.00, 0.00, 0.00, 0.00
25, 5196.87, 75020.59, 7040.06, 30990.71, -22352.88, -2788.34, 7426.50, -57309.89, -7916.45, 39780.07, 11064.96, -7820.76, 0.00, 0.00, 0.00, 0.00, 0.00, 0.00, 0.00
26, 5196.87, 75020.59, 7040.06, 30990.71, -22352.88, -2788.34, 7426.50, -57309.89, -7909.25, 39808.57, 11090.98, -7858.67, 0.00, 0.00, 0.00, 0.00, -0.01, 0.41, 0.92
27, 5194.03, 75014.06, 7035.26, 30985.60, -22357.38, -2792.02, 7414.74, -57313.36, -7909.25, 39808.57, 11090.98, -7858.67, 0.00, 0.00, 0.00, 0.00, 0.00, 0.00, 0.00
28, 5194.03, 75014.06, 7035.26, 30985.60, -22357.38, -2792.02, 7414.74, -57313.36, -7915.27, 39780.94, 11060.85, -7817.52, 0.00, 0.00, 0.00, 0.00, 0.00, 0.00, 0.00
29, 5191.86, 75016.16, 7036.49, 30987.47, -22360.37, -2791.11, 7412.96, -57309.40, -7915.27, 39780.94, 11060.85, -7817.52, 0.00, 0.00, 0.00, 0.00, 0.00, 0.00, 0.00
30, 5191.86, 75016.16, 7036.49, 30987.47, -22360.37, -2791.11, 7412.96, -57309.40, -7907.87, 39811.59, 11085.57, -7854.74, 0.00, 0.00, 0.00, 0.00, 0.00, 0.00, 0.00
31, 5193.76, 75012.79, 7037.36, 30990.18, -22364.55, -2788.38, 7408.02, -57311.30, -7907.87, 39811.59, 11085.57, -7854.74, 0.00, 0.00, 0.00, 0.00, 0.00, 0.00, 0.00
32, 5193.76, 75012.79, 7037.36, 30990.18, -22364.55, -2788.38, 7408.02, -57311.30, -7916.85, 39780.76, 11057.07, -7820.41, 0.00, 0.00, 0.00, 0.00, 0.00, 0.00, 0.00
33, 5192.49, 75010.77, 7036.82, 30986.54, -22369.71, -2794.06, 7399.05, -57314.61, -7916.85, 39780.76, 11057.07, -7820.41, 0.00, 0.00, 0.00, 0.00, 0.00, 0.00, 0.00
34, 5192.49, 75010.77, 7036.82, 30986.54, -22369.71, -2794.06, 7399.05, -57314.61, -7908.72, 39804.59, 11089.13, -7864.48, 0.00, 0.00, 0.00, 0.00, 0.00, 0.00, 0.00
35, 5196.33, 75018.45, 7041.69, 30992.50, -22367.79, -2787.22, 7399.23, -57308.75, -7908.72, 39804.59, 11089.13, -7864.48, 0.00, 0.00, 0.00, 0.00, 0.00, 0.00, 0.00
36, 5196.33, 75018.45, 7041.69, 30992.50, -22367.79, -2787.22, 7399.23, -57308.75, -7918.08, 39777.57, 11060.18, -7824.59, 0.00, 0.00, 0.00, 0.00, -0.01, 0.42, 0.92
37, 5190.48, 75013.16, 7034.79, 30984.57, -22378.57, -2794.30, 7385.22, -57318.03, -7918.08, 39777.57, 11060.18, -7824.59, 0.00, 0.00, 0.00, 0.00, 0.00, 0.00, 0.00
38, 5190.48, 75013.16, 7034.79, 30984.57, -22378.57, -2794.30, 7385.22, -57318.03, -7916.65, 39797.68, 11079.49, -7865.22, 0.00, 0.00, 0.00, 0.00, 0.00, 0.00, 0.00
39, 5197.00, 75021.10, 7042.74, 30993.40, -22375.01, -2787.89, 7390.74, -57309.74, -7916.65, 39797.68, 11079.49, -7865.22, 0.00, 0.00, 0.00, 0.00, 0.00, 0.00, 0.00
40, 5197.00, 75021.10, 7042.74, 30993.40, -22375.01, -2787.89, 7390.74, -57309.74, -7918.69, 39781.95, 11059.53, -7819.18, 0.00, 0.00, 0.00, 0.00, 0.00, 0.00, 0.00
41, 5184.00, 75007.38, 7029.24, 30980.43, -22388.67, -2797.05, 7375.00, -57318.10, -7918.69, 39781.95, 11059.53, -7819.18, 0.00, 0.00, 0.00, 0.00, 0.00, 0.00, 0.00
42, 5184.00, 75007.38, 7029.24, 30980.43, -22388.67, -2797.05, 7375.00, -57318.10, -7916.45, 39796.59, 11072.27, -7861.47, 0.00, 0.00, 0.00, 0.00, 0.00, 0.00, 0.00
43, 5188.71, 75012.07, 7037.67, 30992.35, -22384.38, -2789.72, 7380.12, -57308.78, -7916.45, 39796.59, 11072.27, -7861.47, 0.00, 0.00, 0.00, 0.00, 0.00, 0.00, 0.00
44, 5188.71, 75012.07, 7037.67, 30992.35, -22384.38, -2789.72, 7380.12, -57308.78, -7922.20, 39775.42, 11056.60, -7833.46, 0.00, 0.00, 0.00, 0.00, 0.00, 0.00, 0.00
45, 5181.67, 74997.27, 7027.05, 30982.29, -22400.29, -2799.31, 7361.19, -57324.36, -7922.20, 39775.42, 11056.60, -7833.46, 0.00, 0.00, 0.00, 0.00, -0.01, 0.42, 0.92
46, 5181.67, 74997.27, 7027.05, 30982.29, -22400.29, -2799.31, 7361.19, -57324.36, -7915.71, 39796.54, 11067.51, -7857.22, 0.00, 0.00, 0.00, 0.00, 0.00, 0.00, 0.00
47, 5194.88, 75018.89, 7042.43, 30996.44, -22388.89, -2783.93, 7375.67, -57303.93, -7915.71, 39796.54, 11067.51, -7857.22, 0.00, 0.00, 0.00, 0.00, 0.00, 0.00, 0.00
48, 5194.88, 75018.89, 7042.43, 30996.44, -22388.89, -2783.93, 7375.67, -57303.93, -7908.31, 39789.84, 11071.38, -7829.30, 0.00, 0.00, 0.00, 0.00, 0.00, 0.00, 0.00
49, 5188.71, 75009.45, 7034.83, 30982.94, -22401.28, -2796.58, 7356.36, -57316.55, -7908.31, 39789.84, 11071.38, -7829.30, 0.00, 0.00, 0.00, 0.00, 0.00, 0.00, 0.00
50, 5188.71, 75009.45, 7034.83, 30982.94, -22401.28, -2796.58, 7356.36, -57316.55, -7910.28, 39795.49, 11073.75, -7853.91, 0.00, 0.00, 0.00, 0.00, 0.00, 0.00, 0.00
51, 5198.68, 75020.77, 7048.38, 31001.06, -22394.82, -2784.22, 7368.27, -57304.75, -7910.28, 39795.49, 11073.75, -7853.91, 0.00, 0.00, 0.00, 0.00, 0.00, 0.00, 0.00
52, 5198.68, 75020.77, 7048.38, 31001.06, -22394.82, -2784.22, 7368.27, -57304.75, -7910.24, 39788.88, 11072.09, -7842.85, 0.00, 0.00, 0.00, 0.00, 0.00, 0.00, 0.00
53, 5187.17, 75001.09, 7034.50, 30989.91, -22411.36, -2794.19, 7348.54, -57321.29, -7910.24, 39788.88, 11072.09, -7842.85, 0.00, 0.00, 0.00, 0.00, 0.00, 0.00, 0.00
54, 5187.17, 75001.09, 7034.50, 30989.91, -22411.36, -2794.19, 7348.54, -57321.29, -7910.77, 39788.70, 11064.16, -7849.40, 0.00, 0.00, 0.00, 0.00, 0.00, 0.00, 0.00
55, 5191.73, 75013.95, 7044.17, 31000.66, -22403.85, -2783.93, 7358.55, -57306.12, -7910.77, 39788.70, 11064.16, -7849.40, 0.00, 0.00, 0.00, 0.00, -0.01, 0.42, 0.92
56, 5191.73, 75013.95, 7044.17, 31000.66, -22403.85, -2783.93, 7358.55, -57306.12, -7912.25, 39792.74, 11063.40, -7847.07, 0.00, 0.00, 0.00, 0.00, 0.00, 0.00, 0.00
57, 5179.66, 75001.66, 7029.62, 30985.80, -22421.23, -2796.65, 7338.44, -57320.53, -7912.25, 39792.74, 11063.40, -7847.07, 0.00, 0.00, 0.00, 0.00, 0.00, 0.00, 0.00
58, 5179.66, 75001.66, 7029.62, 30985.80, -22421.23, -2796.65, 7338.44, -57320.53, -7913.03, 39786.37, 11053.61, -7843.12, 0.00, 0.00, 0.00, 0.00, 0.00, 0.00, 0.00
59, 5182.63, 74999.66, 7034.70, 30998.11, -22417.97, -2788.13, 7347.69, -57306.50, -7913.03, 39786.37, 11053.61, -7843.12, 0.00, 0.00, 0.00, 0.00, 0.00, 0.00, 0.00
60, 5182.63, 74999.66, 7034.70, 30998.11, -22417.97, -2788.13, 7347.69, -57306.50, -7916.14, 39787.82, 11054.46, -7861.02, 0.00, 0.00, 0.00, 0.00, 0.00, 0.00, 0.00
61, 5171.55, 74984.38, 7020.97, 30982.49, -22434.89, -2800.49, 7325.34, -57323.82, -7916.14, 39787.82, 11054.46, -7861.02, 0.00, 0.00, 0.00, 0.00, 0.00, 0.00, 0.00
62, 5171.55, 74984.38, 7020.97, 30982.49, -22434.89, -2800.49, 7325.34, -57323.82, -7913.08, 39778.37, 11044.31, -7847.47, 0.00, 0.00, 0.00, 0.00, 0.00, 0.00, 0.00
63, 5184.35, 75006.48, 7038.92, 31000.21, -22426.13, -2788.92, 7339.33, -57306.05, -7913.08, 39778.37, 11044.31, -7847.47, 0.00, 0.00, 0.00, 0.00, 0.00, 0.00, 0.00
64, 5184.35, 75006.48, 7038.92, 31000.21, -22426.13, -2788.92, 7339.33, -57306.05, -7905.86, 39801.17, 11061.92, -7856.08, 0.00, 0.00, 0.00, 0.00, 0.00, 0.00, 0.00
65, 5179.50, 74998.26, 7034.25, 30991.03, -22434.56, -2792.40, 7328.62, -57311.77, -7905.86, 39801.17, 11061.92, -7856.08, 0.00, 0.00, 0.00, 0.00, -0.01, 0.42, 0.93
66, 5179.50, 74998.26, 7034.25, 30991.03, -22434.56, -2792.40, 7328.62, -57311.77, -7907.80, 39782.66, 11050.01, -7834.73, 0.00, 0.00, 0.00, 0.00, 0.00, 0.00, 0.00
67, 5182.94, 75005.77, 7042.34, 31002.00, -22430.73, -2787.17, 7333.90, -57303.23, -7907.80, 39782.66, 11050.01, -7834.73, 0.00, 0.00, 0.00, 0.00, 0.00, 0.00, 0.00
68, 5182.94, 75005.77, 7042.34, 31002.00, -22430.73, -2787.17, 7333.90, -57303.23, -7906.75, 39800.68, 11070.53, -7863.57, 0.00, 0.00, 0.00, 0.00, 0.00, 0.00, 0.00
69, 5185.98, 75006.39, 7040.44, 30995.52, -22437.51, -2789.81, 7324.55, -57309.36, -7906.75, 39800.68, 11070.53, -7863.57, 0.00, 0.00, 0.00, 0.00, 0.00, 0.00, 0.00
70, 5185.98, 75006.39, 7040.44, 30995.52, -22437.51, -2789.81, 7324.55, -57309.36, -7906.77, 39784.43, 11050.93, -7823.07, 0.00, 0.00, 0.00, 0.00, 0.00, 0.00, 0.00
71, 5185.60, 75009.68, 7042.90, 31002.20, -22439.68, -2786.41, 7327.75, -57303.39, -7906.77, 39784.43, 11050.93, -7823.07, 0.00, 0.00, 0.00, 0.00, 0.00, 0.00, 0.00
72, 5185.60, 75009.68, 7042.90, 31002.20, -22439.68, -2786.41, 7327.75, -57303.39, -7906.71, 39805.24, 11072.29, -7864.13, 0.00, 0.00, 0.00, 0.00, 0.00, 0.00, 0.00
73, 5185.49, 75004.31, 7042.16, 30999.23, -22445.11, -2789.99, 7318.01, -57309.87, -7906.71, 39805.24, 11072.29, -7864.13, 0.00, 0.00, 0.00, 0.00, 0.00, 0.00, 0.00
74, 5185.49, 75004.31, 7042.16, 30999.23, -22445.11, -2789.99, 7318.01, -57309.87, -7910.33, 39781.19, 11050.79, -7823.74, 0.00, 0.00, 0.00, 0.00, 0.00, 0.00, 0.00
75, 5194.05, 75017.13, 7050.57, 31009.00, -22444.12, -2785.27, 7323.19, -57302.25, -7910.33, 39781.19, 11050.79, -7823.74, 0.00, 0.00, 0.00, 0.00, -0.02, 0.42, 0.92
76, 5194.05, 75017.13, 7050.57, 31009.00, -22444.12, -2785.27, 7323.19, -57302.25, -7902.93, 39803.83, 11075.36, -7868.24, 0.00, 0.00, 0.00, 0.00, 0.00, 0.00, 0.00
77, 5201.83, 75021.95, 7055.33, 31013.13, -22446.92, -2784.09, 7318.94, -57305.98, -7902.93, 39803.83, 11075.36, -7868.24, 0.00, 0.00, 0.00, 0.00, 0.00, 0.00, 0.00
78, 5201.83, 75021.95, 7055.33, 31013.13, -22446.92, -2784.09, 7318.94, -57305.98, -7908.31, 39778.14, 11054.08, -7825.05, 0.00, 0.00, 0.00, 0.00, 0.00, 0.00, 0.00
79, 5202.28, 75020.77, 7056.47, 31014.65, -22447.72, -2783.71, 7317.04, -57304.62, -7908.31, 39778.14, 11054.08, -7825.05, 0.00, 0.00, 0.00, 0.00, 0.00, 0.00, 0.00
80, 5202.28, 75020.77, 7056.47, 31014.65, -22447.72, -2783.71, 7317.04, -57304.62, -7905.99, 39804.23, 11075.04, -7864.10, 0.00, 0.00, 0.00, 0.00, 0.00, 0.00, 0.00
81, 5202.44, 75024.56, 7056.83, 31015.55, -22449.73, -2783.22, 7315.59, -57302.27, -7905.99, 39804.23, 11075.04, -7864.10, 0.00, 0.00, 0.00, 0.00, 0.00, 0.00, 0.00
82, 5202.44, 75024.56, 7056.83, 31015.55, -22449.73, -2783.22, 7315.59, -57302.27, -7908.05, 39777.25, 11049.79, -7825.46, 0.00, 0.00, 0.00, 0.00, 0.00, 0.00, 0.00
83, 5192.89, 75015.02, 7047.24, 31007.21, -22465.07, -2790.12, 7306.43, -57309.27, -7908.05, 39777.25, 11049.79, -7825.46, 0.00, 0.00, 0.00, 0.00, 0.00, 0.00, 0.00
84, 5192.89, 75015.02, 7047.24, 31007.21, -22465.07, -2790.12, 7306.43, -57309.27, -7908.78, 39799.47, 11061.86, -7869.80, 0.00, 0.00, 0.00, 0.00, -0.01, 0.41, 0.92
85, 5192.58, 75016.85, 7050.23, 31013.04, -22464.93, -2786.30, 7307.79, -57306.43, -7908.78, 39799.47, 11061.86, -7869.80, 0.00, 0.00, 0.00, 0.00, 0.00, 0.00, 0.00
86, 5192.58, 75016.85, 7050.23, 31013.04, -22464.93, -2786.30, 7307.79, -57306.43, -7912.34, 39772.85, 11040.55, -7832.21, 0.00, 0.00, 0.00, 0.00, 0.00, 0.00, 0.00
87, 5186.50, 75006.69, 7040.75, 31002.54, -22477.34, -2795.91, 7295.74, -57314.65, -7912.34, 39772.85, 11040.55, -7832.21, 0.00, 0.00, 0.00, 0.00, 0.00, 0.00, 0.00
88, 5186.50, 75006.69, 7040.75, 31002.54, -22477.34, -2795.91, 7295.74, -57314.65, -7909.95, 39792.00, 11056.58, -7875.75, 0.00, 0.00, 0.00, 0.00, 0.00, 0.00, 0.00
89, 5193.85, 75012.25, 7047.86, 31015.26, -22472.91, -2787.60, 7303.41, -57306.88, -7909.95, 39792.00, 11056.58, -7875.75, 0.00, 0.00, 0.00, 0.00, 0.00, 0.00, 0.00
90, 5193.85, 75012.25, 7047.86, 31015.26, -22472.91, -2787.60, 7303.41, -57306.88, -7912.50, 39777.32, 11039.75, -7836.79, 0.00, 0.00, 0.00, 0.00, 0.00, 0.00, 0.00
91, 5185.09, 75000.38, 7038.30, 31002.40, -22486.08, -2796.38, 7289.71, -57316.82, -7912.50, 39777.32, 11039.75, -7836.79, 0.00, 0.00, 0.00, 0.00, 0.00, 0.00, 0.00
92, 5185.09, 75000.38, 7038.30, 31002.40, -22486.08, -2796.38, 7289.71, -57316.82, -7911.91, 39788.94, 11049.12, -7868.71, 0.00, 0.00, 0.00, 0.00, 0.00, 0.00, 0.00
93, 5197.38, 75017.34, 7049.40, 31015.99, -22482.81, -2787.06, 7299.65, -57307.43, -7911.91, 39788.94, 11049.12, -7868.71, 0.00, 0.00, 0.00, 0.00, 0.00, 0.00, 0.00
94, 5197.38, 75017.34, 7049.40, 31015.99, -22482.81, -2787.06, 7299.65, -57307.43, -7912.79, 39773.36, 11035.57, -7846.78, 0.00, 0.00, 0.00, 0.00, -0.02, 0.41, 0.92
95, 5187.77, 75004.36, 7037.56, 31001.00, -22497.25, -2798.51, 7282.71, -57320.98, -7912.79, 39773.36, 11035.57, -7846.78, 0.00, 0.00, 0.00, 0.00, 0.00, 0.00, 0.00
96, 5187.77, 75004.36, 7037.56, 31001.00, -22497.25, -2798.51, 7282.71, -57320.98, -7911.73, 39783.89, 11043.75, -7867.10, 0.00, 0.00, 0.00, 0.00, 0.00, 0.00, 0.00
97, 5198.95, 75016.85, 7051.46, 31017.40, -22487.33, -2785.83, 7299.21, -57304.77, -7911.73, 39783.89, 11043.75, -7867.10, 0.00, 0.00, 0.00, 0.00, 0.00, 0.00, 0.00
98, 5198.95, 75016.85, 7051.46, 31017.40, -22487.33, -2785.83, 7299.21, -57304.77, -7912.27, 39779.38, 11042.32, -7843.03, 0.00, 0.00, 0.00, 0.00, 0.00, 0.00, 0.00
99, 5185.25, 75000.07, 7036.17, 30998.16, -22505.19, -2800.83, 7280.77, -57320.11, -7912.27, 39779.38, 11042.32, -7843.03, 0.00, 0.00, 0.00, 0.00, 0.00, 0.00, 0.00
100, 5185.25, 75000.07, 7036.17, 30998.16, -22505.19, -2800.83, 7280.77, -57320.11, -7907.15, 39785.25, 11045.09, -7855.83, 0.00, 0.00, 0.00, 0.00, 0.00, 0.00, 0.00
101, 5201.56, 75025.59, 7059.42, 31025.03, -22485.34, -2781.52, 7303.92, -57295.63, -7907.15, 39785.25, 11045.09, -7855.83, 0.00, 0.00, 0.00, 0.00, 0.00, 0.00, 0.00
102, 5201.56, 75025.59, 7059.42, 31025.03, -22485.34, -2781.52, 7303.92, -57295.63, -7904.38, 39794.15, 11052.47, -7838.29, 0.00, 0.00, 0.00, 0.00, 0.00, 0.00, 0.00
103, 5189.43, 75008.02, 7043.68, 31003.68, -22503.85, -2795.02, 7284.81, -57311.77, -7904.38, 39794.15, 11052.47, -7838.29, 0.00, 0.00, 0.00, 0.00, 0.00, 0.00, 0.00
104, 5189.43, 75008.02, 7043.68, 31003.68, -22503.85, -2795.02, 7284.81, -57311.77, -7906.37, 39791.31, 11042.21, -7835.09, 0.00, 0.00, 0.00, 0.00, -0.01, 0.41, 0.92
105, 5196.87, 75019.90, 7053.47, 31017.80, -22496.00, -2784.18, 7300.53, -57295.81, -7906.37, 39791.31, 11042.21, -7835.09, 0.00, 0.00, 0.00, 0.00, 0.00, 0.00, 0.00
106, 5196.87, 75019.90, 7053.47, 31017.80, -22496.00, -2784.18, 7300.53, -57295.81, -7910.06, 39787.31, 11051.24, -7852.10, 0.00, 0.00, 0.00, 0.00, 0.00, 0.00, 0.00
107, 5186.12, 75007.78, 7041.87, 30999.54, -22511.85, -2799.94, 7279.45, -57317.65, -7910.06, 39787.31, 11051.24, -7852.10, 0.00, 0.00, 0.00, 0.00, 0.00, 0.00, 0.00
108, 5186.12, 75007.78, 7041.87, 30999.54, -22511.85, -2799.94, 7279.45, -57317.65, -7909.39, 39780.29, 11042.25, -7846.58, 0.00, 0.00, 0.00, 0.00, 0.00, 0.00, 0.00
109, 5197.72, 75027.09, 7055.86, 31015.17, -22502.75, -2787.69, 7296.28, -57300.53, -7909.39, 39780.29, 11042.25, -7846.58, 0.00, 0.00, 0.00, 0.00, 0.00, 0.00, 0.00
110, 5197.72, 75027.09, 7055.86, 31015.17, -22502.75, -2787.69, 7296.28, -57300.53, -7911.33, 39786.51, 11051.95, -7859.21, 0.00, 0.00, 0.00, 0.00, 0.00, 0.00, 0.00
111, 5189.74, 75013.81, 7044.49, 30999.63, -22515.69, -2798.95, 7279.36, -57316.42, -7911.33, 39786.51, 11051.95, -7859.21, 0.00, 0.00, 0.00, 0.00, 0.00, 0.00, 0.00
112, 5189.74, 75013.81, 7044.49, 30999.63, -22515.69, -2798.95, 7279.36, -57316.42, -7910.37, 39769.61, 11034.68, -7840.59, 0.00, 0.00, 0.00, 0.00, 0.00, 0.00, 0.00
113, 5199.95, 75029.59, 7056.87, 31015.08, -22506.93, -2789.97, 7293.87, -57300.21, -7910.37, 39769.61, 11034.68, -7840.59, 0.00, 0.00, 0.00, 0.00, 0.00, 0.00, 0.00
114, 5199.95, 75029.59, 7056.87, 31015.08, -22506.93, -2789.97, 7293.87, -57300.21, -7906.95, 39790.60, 11055.89, -7863.97, 0.00, 0.00, 0.00, 0.00, -0.01, 0.42, 0.92
115, 5192.35, 75010.02, 7043.86, 31002.07, -22521.77, -2798.80, 7279.52, -57313.34, -7906.95, 39790.60, 11055.89, -7863.97, 0.00, 0.00, 0.00, 0.00, 0.00, 0.00, 0.00
116, 5192.35, 75010.02, 7043.86, 31002.07, -22521.77, -2798.80, 7279.52, -57313.34, -7913.10, 39769.90, 11032.28, -7838.80, 0.00, 0.00, 0.00, 0.00, 0.00, 0.00, 0.00
117, 5196.51, 75018.69, 7050.32, 31010.56, -22518.62, -2793.68, 7288.34, -57302.47, -7913.10, 39769.90, 11032.28, -7838.80, 0.00, 0.00, 0.00, 0.00, 0.00, 0.00, 0.00
118, 5196.51, 75018.69, 7050.32, 31010.56, -22518.62, -2793.68, 7288.34, -57302.47, -7908.56, 39788.99, 11050.39, -7865.60, 0.00, 0.00, 0.00, 0.00, 0.00, 0.00, 0.00
119, 5193.81, 75015.05, 7046.86, 31003.03, -22524.01, -2798.33, 7280.01, -57314.92, -7908.56, 39788.99, 11050.39, -7865.60, 0.00, 0.00, 0.00, 0.00, 0.00, 0.00, 0.00
120, 5193.81, 75015.05, 7046.86, 31003.03, -22524.01, -2798.33, 7280.01, -57314.92, -7909.75, 39770.91, 11033.65, -7833.19, 0.00, 0.00, 0.00, 0.00, 0.00, 0.00, 0.00
121, 5193.41, 75015.34, 7048.29, 31009.47, -22523.36, -2793.23, 7288.12, -57305.64, -7909.75, 39770.91, 11033.65, -7833.19, 0.00, 0.00, 0.00, 0.00, 0.00, 0.00, 0.00
122, 5193.41, 75015.34, 7048.29, 31009.47, -22523.36, -2793.23, 7288.12, -57305.64, -7906.24, 39795.25, 11052.83, -7867.86, 0.00, 0.00, 0.00, 0.00, 0.00, 0.00, 0.00
123, 5192.58, 75012.14, 7044.69, 31003.41, -22529.28, -2798.80, 7281.37, -57313.83, -7906.24, 39795.25, 11052.83, -7867.86, 0.00, 0.00, 0.00, 0.00, -0.01, 0.41, 0.92
124, 5192.58, 75012.14, 7044.69, 31003.41, -22529.28, -2798.80, 7281.37, -57313.83, -7912.27, 39765.05, 11025.40, -7837.04, 0.00, 0.00, 0.00, 0.00, 0.00, 0.00, 0.00
125, 5188.47, 75011.24, 7045.92, 31005.94, -22527.74, -2795.82, 7287.21, -57306.92, -7912.27, 39765.05, 11025.40, -7837.04, 0.00, 0.00, 0.00, 0.00, 0.00, 0.00, 0.00
126, 5188.47, 75011.24, 7045.92, 31005.94, -22527.74, -2795.82, 7287.21, -57306.92, -7903.80, 39796.68, 11047.37, -7868.19, 0.00, 0.00, 0.00, 0.00, 0.00, 0.00, 0.00
127, 5190.34, 75009.41, 7044.33, 31004.73, -22530.83, -2796.16, 7284.57, -57308.84, -7903.80, 39796.68, 11047.37, -7868.19, 0.00, 0.00, 0.00, 0.00, 0.00, 0.00, 0.00
128, 5190.34, 75009.41, 7044.33, 31004.73, -22530.83, -2796.16, 7284.57, -57308.84, -7909.03, 39766.25, 11021.47, -7836.72, 0.00, 0.00, 0.00, 0.00, 0.00, 0.00, 0.00
129, 5190.43, 75011.60, 7045.58, 31007.32, -22532.35, -2795.96, 7286.58, -57309.22, -7909.03, 39766.25, 11021.47, -7836.72, 0.00, 0.00, 0.00, 0.00, 0.00, 0.00, 0.00
130, 5190.43, 75011.60, 7045.58, 31007.32, -22532.35, -2795.96, 7286.58, -57309.22, -7899.80, 39795.92, 11048.82, -7867.19, 0.00, 0.00, 0.00, 0.00, 0.00, 0.00, 0.00
131, 5196.80, 75015.34, 7051.35, 31011.14, -22528.10, -2791.73, 7293.55, -57303.01, -7899.80, 39795.92, 11048.82, -7867.19, 0.00, 0.00, 0.00, 0.00, 0.00, 0.00, 0.00
132, 5196.80, 75015.34, 7051.35, 31011.14, -22528.10, -2791.73, 7293.55, -57303.01, -7906.53, 39770.28, 11024.48, -7830.75, 0.00, 0.00, 0.00, 0.00, 0.00, 0.00, 0.00
133, 5187.21, 75003.42, 7043.86, 31007.41, -22536.26, -2795.11, 7287.65, -57309.74, -7906.53, 39770.28, 11024.48, -7830.75, 0.00, 0.00, 0.00, 0.00, -0.01, 0.41, 0.93
134, 5187.21, 75003.42, 7043.86, 31007.41, -22536.26, -2795.11, 7287.65, -57309.74, -7903.00, 39794.06, 11043.59, -7862.23, 0.00, 0.00, 0.00, 0.00, 0.00, 0.00, 0.00
135, 5195.48, 75016.84, 7053.76, 31013.98, -22528.10, -2789.43, 7296.55, -57301.20, -7903.00, 39794.06, 11043.59, -7862.23, 0.00, 0.00, 0.00, 0.00, 0.00, 0.00, 0.00
136, 5195.48, 75016.84, 7053.76, 31013.98, -22528.10, -2789.43, 7296.55, -57301.20, -7903.80, 39773.56, 11030.83, -7832.74, 0.00, 0.00, 0.00, 0.00, 0.00, 0.00, 0.00
137, 5193.54, 75013.93, 7048.69, 31007.48, -22537.24, -2796.18, 7289.71, -57306.96, -7903.80, 39773.56, 11030.83, -7832.74, 0.00, 0.00, 0.00, 0.00, 0.00, 0.00, 0.00
138, 5193.54, 75013.93, 7048.69, 31007.48, -22537.24, -2796.18, 7289.71, -57306.96, -7897.52, 39795.56, 11049.63, -7853.31, 0.00, 0.00, 0.00, 0.00, 0.00, 0.00, 0.00
139, 5201.38, 75028.66, 7061.39, 31019.93, -22522.60, -2785.63, 7305.06, -57289.89, -7897.52, 39795.56, 11049.63, -7853.31, 0.00, 0.00, 0.00, 0.00, 0.00, 0.00, 0.00
140, 5201.38, 75028.66, 7061.39, 31019.93, -22522.60, -2785.63, 7305.06, -57289.89, -7900.29, 39776.36, 11030.18, -7830.96, 0.00, 0.00, 0.00, 0.00, 0.00, 0.00, 0.00
141, 5185.20, 75005.91, 7041.85, 30996.97, -22542.38, -2802.39, 7284.46, -57310.74, -7900.29, 39776.36, 11030.18, -7830.96, 0.00, 0.00, 0.00, 0.00, 0.00, 0.00, 0.00
142, 5185.20, 75005.91, 7041.85, 30996.97, -22542.38, -2802.39, 7284.46, -57310.74, -7898.59, 39790.06, 11043.24, -7854.51, 0.00, 0.00, 0.00, 0.00, 0.00, 0.00, 0.00
143, 5198.61, 75025.02, 7057.05, 31015.50, -22530.13, -2788.09, 7303.23, -57293.00, -7898.59, 39790.06, 11043.24, -7854.51, 0.00, 0.00, 0.00, 0.00, -0.02, 0.41, 0.93
144, 5198.61, 75025.02, 7057.05, 31015.50, -22530.13, -2788.09, 7303.23, -57293.00, -7900.63, 39781.03, 11033.38, -7828.03, 0.00, 0.00, 0.00, 0.00, 0.00, 0.00, 0.00
145, 5186.92, 75009.26, 7044.02, 31001.67, -22542.47, -2798.53, 7289.66, -57309.18, -7900.63, 39781.03, 11033.38, -7828.03, 0.00, 0.00, 0.00, 0.00, 0.00, 0.00, 0.00
146, 5186.92, 75009.26, 7044.02, 31001.67, -22542.47, -2798.53, 7289.66, -57309.18, -7896.71, 39790.11, 11040.82, -7849.02, 0.00, 0.00, 0.00, 0.00, 0.00, 0.00, 0.00
147, 5200.36, 75029.38, 7061.97, 31020.42, -22526.80, -2786.55, 7307.86, -57292.39, -7896.71, 39790.11, 11040.82, -7849.02, 0.00, 0.00, 0.00, 0.00, 0.00, 0.00, 0.00
148, 5200.36, 75029.38, 7061.97, 31020.42, -22526.80, -2786.55, 7307.86, -57292.39, -7896.92, 39781.25, 11038.01, -7839.52, 0.00, 0.00, 0.00, 0.00, 0.00, 0.00, 0.00
149, 5187.79, 75007.11, 7044.24, 31001.22, -22538.29, -2799.89, 7291.88, -57306.41, -7896.92, 39781.25, 11038.01, -7839.52, 0.00, 0.00, 0.00, 0.00, 0.00, 0.00, 0.00
150, 5187.79, 75007.11, 7044.24, 31001.22, -22538.29, -2799.89, 7291.88, -57306.41, -7893.14, 39787.85, 11040.89, -7843.61, 0.00, 0.00, 0.00, 0.00, 0.00, 0.00, 0.00
151, 5193.14, 75021.91, 7057.94, 31019.19, -22525.89, -2786.44, 7310.38, -57288.43, -7893.14, 39787.85, 11040.89, -7843.61, 0.00, 0.00, 0.00, 0.00, 0.00, 0.00, 0.00
152, 5193.14, 75021.91, 7057.94, 31019.19, -22525.89, -2786.44, 7310.38, -57288.43, -7894.03, 39790.60, 11037.51, -7836.52, 0.00, 0.00, 0.00, 0.00, 0.00, 0.00, 0.00
153, 5178.72, 75004.27, 7040.73, 30999.70, -22539.39, -2800.87, 7294.25, -57303.81, -7894.03, 39790.60, 11037.51, -7836.52, 0.00, 0.00, 0.00, 0.00, -0.01, 0.40, 0.93
154, 5178.72, 75004.27, 7040.73, 30999.70, -22539.39, -2800.87, 7294.25, -57303.81, -7892.18, 39786.93, 11030.76, -7837.59, 0.00, 0.00, 0.00, 0.00, 0.00, 0.00, 0.00
155, 5189.14, 75018.60, 7053.27, 31015.32, -22528.93, -2790.53, 7310.07, -57293.31, -7892.18, 39786.93, 11030.76, -7837.59, 0.00, 0.00, 0.00, 0.00, 0.00, 0.00, 0.00
156, 5189.14, 75018.60, 7053.27, 31015.32, -22528.93, -2790.53, 7310.07, -57293.31, -7899.69, 39784.34, 11029.58, -7850.33, 0.00, 0.00, 0.00, 0.00, 0.00, 0.00, 0.00
157, 5175.48, 74991.95, 7033.00, 30997.22, -22546.76, -2805.61, 7289.33, -57313.67, -7899.69, 39784.34, 11029.58, -7850.33, 0.00, 0.00, 0.00, 0.00, 0.00, 0.00, 0.00
158, 5175.48, 74991.95, 7033.00, 30997.22, -22546.76, -2805.61, 7289.33, -57313.67, -7899.46, 39779.58, 11021.62, -7836.83, 0.00, 0.00, 0.00, 0.00, 0.00, 0.00, 0.00
159, 5189.61, 75012.95, 7050.25, 31013.80, -22532.90, -2791.89, 7308.82, -57294.87, -7899.46, 39779.58, 11021.62, -7836.83, 0.00, 0.00, 0.00, 0.00, 0.00, 0.00, 0.00
160, 5189.61, 75012.95, 7050.25, 31013.80, -22532.90, -2791.89, 7308.82, -57294.87, -7900.16, 39785.41, 11029.31, -7855.72, 0.00, 0.00, 0.00, 0.00, 0.00, 0.00, 0.00
161, 5184.11, 75003.91, 7040.06, 31002.25, -22540.57, -2800.52, 7297.22, -57307.10, -7900.16, 39785.41, 11029.31, -7855.72, 0.00, 0.00, 0.00, 0.00, 0.00, 0.00, 0.00
162, 5184.11, 75003.91, 7040.06, 31002.25, -22540.57, -2800.52, 7297.22, -57307.10, -7894.12, 39779.11, 11020.57, -7828.72, 0.00, 0.00, 0.00, 0.00, -0.01, 0.40, 0.92
163, 5191.15, 75019.20, 7051.44, 31016.11, -22529.33, -2790.19, 7312.60, -57292.61, -7894.12, 39779.11, 11020.57, -7828.72, 0.00, 0.00, 0.00, 0.00, 0.00, 0.00, 0.00
164, 5191.15, 75019.20, 7051.44, 31016.11, -22529.33, -2790.19, 7312.60, -57292.61, -7895.87, 39788.85, 11033.51, -7857.29, 0.00, 0.00, 0.00, 0.00, 0.00, 0.00, 0.00
165, 5183.86, 75006.53, 7042.88, 31005.22, -22538.98, -2800.58, 7299.86, -57307.08, -7895.87, 39788.85, 11033.51, -7857.29, 0.00, 0.00, 0.00, 0.00, 0.00, 0.00, 0.00
166, 5183.86, 75006.53, 7042.88, 31005.22, -22538.98, -2800.58, 7299.86, -57307.08, -7897.97, 39772.20, 11018.69, -7829.75, 0.00, 0.00, 0.00, 0.00, 0.00, 0.00, 0.00
167, 5191.08, 75016.90, 7052.15, 31014.10, -22530.71, -2793.52, 7311.77, -57296.10, -7897.97, 39772.20, 11018.69, -7829.75, 0.00, 0.00, 0.00, 0.00, 0.00, 0.00, 0.00
168, 5191.08, 75016.90, 7052.15, 31014.10, -22530.71, -2793.52, 7311.77, -57296.10, -7891.64, 39795.43, 11036.31, -7856.15, 0.00, 0.00, 0.00, 0.00, 0.00, 0.00, 0.00
169, 5187.79, 75011.47, 7046.86, 31006.50, -22534.20, -2798.21, 7305.98, -57301.96, -7891.64, 39795.43, 11036.31, -7856.15, 0.00, 0.00, 0.00, 0.00, 0.00, 0.00, 0.00
170, 5187.79, 75011.47, 7046.86, 31006.50, -22534.20, -2798.21, 7305.98, -57301.96, -7891.82, 39772.60, 11016.62, -7826.82, 0.00, 0.00, 0.00, 0.00, 0.00, 0.00, 0.00
171, 5190.95, 75015.34, 7051.33, 31013.18, -22528.99, -2793.88, 7313.56, -57294.05, -7891.82, 39772.60, 11016.62, -7826.82, 0.00, 0.00, 0.00, 0.00, 0.00, 0.00, 0.00
172, 5190.95, 75015.34, 7051.33, 31013.18, -22528.99, -2793.88, 7313.56, -57294.05, -7883.28, 39797.35, 11042.32, -7855.34, 0.00, 0.00, 0.00, 0.00, -0.02, 0.41, 0.93
173, 5192.00, 75014.06, 7047.01, 31006.74, -22530.71, -2797.39, 7310.61, -57298.47, -7883.28, 39797.35, 11042.32, -7855.34, 0.00, 0.00, 0.00, 0.00, 0.00, 0.00, 0.00
174, 5192.00, 75014.06, 7047.01, 31006.74, -22530.71, -2797.39, 7310.61, -57298.47, -7890.77, 39772.18, 11014.67, -7827.98, 0.00, 0.00, 0.00, 0.00, 0.00, 0.00, 0.00
175, 5185.14, 75012.27, 7044.73, 31005.47, -22532.81, -2799.24, 7311.81, -57297.55, -7890.77, 39772.18, 11014.67, -7827.98, 0.00, 0.00, 0.00, 0.00, 0.00, 0.00, 0.00
176, 5185.14, 75012.27, 7044.73, 31005.47, -22532.81, -2799.24, 7311.81, -57297.55, -7885.05, 39800.23, 11038.79, -7856.97, 0.00, 0.00, 0.00, 0.00, 0.00, 0.00, 0.00
177, 5187.95, 75015.83, 7047.77, 31006.36, -22529.35, -2797.37, 7313.47, -57296.46, -7885.05, 39800.23, 11038.79, -7856.97, 0.00, 0.00, 0.00, 0.00, 0.00, 0.00, 0.00
178, 5187.95, 75015.83, 7047.77, 31006.36, -22529.35, -2797.37, 7313.47, -57296.46, -7892.87, 39770.35, 11018.47, -7824.70, 0.00, 0.00, 0.00, 0.00, 0.00, 0.00, 0.00
179, 5179.64, 75007.27, 7039.95, 30997.49, -22536.01, -2805.34, 7306.40, -57305.11, -7892.87, 39770.35, 11018.47, -7824.70, 0.00, 0.00, 0.00, 0.00, 0.00, 0.00, 0.00
180, 5179.64, 75007.27, 7039.95, 30997.49, -22536.01, -2805.34, 7306.40, -57305.11, -7888.96, 39795.25, 11036.15, -7856.53, 0.00, 0.00, 0.00, 0.00, 0.00, 0.00, 0.00
181, 5184.84, 75015.34, 7047.68, 31004.17, -22527.54, -2796.94, 7317.00, -57295.81, -7888.96, 39795.25, 11036.15, -7856.53, 0.00, 0.00, 0.00, 0.00, 0.00, 0.00, 0.00
182, 5184.84, 75015.34, 7047.68, 31004.17, -22527.54, -2796.94, 7317.00, -57295.81, -7894.03, 39774.91, 11020.39, -7826.46, 0.00, 0.00, 0.00, 0.00, -0.02, 0.41, 0.93
183, 5178.30, 75008.90, 7042.30, 30997.93, -22532.55, -2803.80, 7310.96, -57302.36, -7894.03, 39774.91, 11020.39, -7826.46, 0.00, 0.00, 0.00, 0.00, 0.00, 0.00, 0.00
184, 5178.30, 75008.90, 7042.30, 30997.93, -22532.55, -2803.80, 7310.96, -57302.36, -7888.71, 39797.48, 11038.03, -7856.95, 0.00, 0.00, 0.00, 0.00, 0.00, 0.00, 0.00
185, 5184.60, 75016.38, 7051.86, 31006.25, -22521.57, -2796.29, 7321.65, -57292.48, -7888.71, 39797.48, 11038.03, -7856.95, 0.00, 0.00, 0.00, 0.00, 0.00, 0.00, 0.00
186, 5184.60, 75016.38, 7051.86, 31006.25, -22521.57, -2796.29, 7321.65, -57292.48, -7893.12, 39774.57, 11022.29, -7825.46, 0.00, 0.00, 0.00, 0.00, 0.00, 0.00, 0.00
187, 5178.83, 75007.02, 7042.56, 30995.10, -22532.03, -2807.58, 7310.96, -57307.05, -7893.12, 39774.57, 11022.29, -7825.46, 0.00, 0.00, 0.00, 0.00, 0.00, 0.00, 0.00
188, 5178.83, 75007.02, 7042.56, 30995.10, -22532.03, -2807.58, 7310.96, -57307.05, -7886.25, 39792.94, 11042.50, -7854.98, 0.00, 0.00, 0.00, 0.00, 0.00, 0.00, 0.00
189, 5193.09, 75031.72, 7062.10, 31011.64, -22516.99, -2794.64, 7329.05, -57290.22, -7886.25, 39792.94, 11042.50, -7854.98, 0.00, 0.00, 0.00, 0.00, 0.00, 0.00, 0.00
190, 5193.09, 75031.72, 7062.10, 31011.64, -22516.99, -2794.64, 7329.05, -57290.22, -7891.22, 39780.16, 11033.76, -7830.37, 0.00, 0.00, 0.00, 0.00, 0.00, 0.00, 0.00
191, 5180.93, 75014.89, 7046.97, 30994.76, -22530.47, -2805.75, 7312.93, -57305.38, -7891.22, 39780.16, 11033.76, -7830.37, 0.00, 0.00, 0.00, 0.00, 0.00, 0.00, 0.00
192, 5180.93, 75014.89, 7046.97, 30994.76, -22530.47, -2805.75, 7312.93, -57305.38, -7883.17, 39793.21, 11044.80, -7846.15, 0.00, 0.00, 0.00, 0.00, -0.02, 0.40, 0.93
193, 5196.56, 75032.41, 7062.73, 31011.28, -22513.15, -2792.16, 7332.40, -57284.10, -7883.17, 39793.21, 11044.80, -7846.15, 0.00, 0.00, 0.00, 0.00, 0.00, 0.00, 0.00
194, 5196.56, 75032.41, 7062.73, 31011.28, -22513.15, -2792.16, 7332.40, -57284.10, -7885.16, 39784.45, 11039.10, -7831.27, 0.00, 0.00, 0.00, 0.00, 0.00, 0.00, 0.00
195, 5180.33, 75011.24, 7046.45, 30991.47, -22528.01, -2806.17, 7313.56, -57304.48, -7885.16, 39784.45, 11039.10, -7831.27, 0.00, 0.00, 0.00, 0.00, 0.00, 0.00, 0.00
196, 5180.33, 75011.24, 7046.45, 30991.47, -22528.01, -2806.17, 7313.56, -57304.48, -7883.84, 39793.10, 11042.28, -7842.44, 0.00, 0.00, 0.00, 0.00, 0.00, 0.00, 0.00
197, 5192.67, 75029.53, 7062.08, 31008.95, -22515.40, -2792.14, 7333.12, -57284.59, -7883.84, 39793.10, 11042.28, -7842.44, 0.00, 0.00, 0.00, 0.00, 0.00, 0.00, 0.00
198, 5192.67, 75029.53, 7062.08, 31008.95, -22515.40, -2792.14, 7333.12, -57284.59, -7886.37, 39788.56, 11038.03, -7830.46, 0.00, 0.00, 0.00, 0.00, 0.00, 0.00, 0.00
199, 5180.84, 75010.62, 7045.52, 30990.42, -22529.57, -2807.20, 7313.00, -57304.13, -7886.37, 39788.56, 11038.03, -7830.46, 0.00, 0.00, 0.00, 0.00, 0.00, 0.00, 0.00
200, 5180.84, 75010.62, 7045.52, 30990.42, -22529.57, -2807.20, 7313.00, -57304.13, -7881.85, 39788.41, 11040.49, -7838.87, 0.00, 0.00, 0.00, 0.00, 0.00, 0.00, 0.00
201, 5190.59, 75025.84, 7061.30, 31008.84, -22512.65, -2790.41, 7335.80, -57280.88, -7881.85, 39788.41, 11040.49, -7838.87, 0.00, 0.00, 0.00, 0.00, -0.01, 0.41, 0.92
202, 5190.59, 75025.84, 7061.30, 31008.84, -22512.65, -2790.41, 7335.80, -57280.88, -7883.84, 39793.10, 11039.97, -7837.06, 0.00, 0.00, 0.00, 0.00, 0.00, 0.00, 0.00
203, 5173.71, 75002.21, 7039.12, 30985.24, -22536.08, -2809.79, 7309.36, -57307.68, -7883.84, 39793.10, 11039.97, -7837.06, 0.00, 0.00, 0.00, 0.00, 0.00, 0.00, 0.00
204, 5173.71, 75002.21, 7039.12, 30985.24, -22536.08, -2809.79, 7309.36, -57307.68, -7890.12, 39778.93, 11027.81, -7839.92, 0.00, 0.00, 0.00, 0.00, 0.00, 0.00, 0.00
205, 5184.55, 75017.41, 7052.60, 30999.41, -22523.29, -2800.03, 7327.37, -57292.64, -7890.12, 39778.93, 11027.81, -7839.92, 0.00, 0.00, 0.00, 0.00, 0.00, 0.00, 0.00
206, 5184.55, 75017.41, 7052.60, 30999.41, -22523.29, -2800.03, 7327.37, -57292.64, -7889.20, 39788.79, 11036.15, -7847.09, 0.00, 0.00, 0.00, 0.00, 0.00, 0.00, 0.00
207, 5173.13, 75001.45, 7039.12, 30983.61, -22534.85, -2812.61, 7310.05, -57306.14, -7889.20, 39788.79, 11036.15, -7847.09, 0.00, 0.00, 0.00, 0.00, 0.00, 0.00, 0.00
208, 5173.13, 75001.45, 7039.12, 30983.61, -22534.85, -2812.61, 7310.05, -57306.14, -7887.10, 39780.45, 11026.14, -7835.94, 0.00, 0.00, 0.00, 0.00, 0.00, 0.00, 0.00
209, 5179.48, 75014.13, 7050.12, 30994.65, -22524.75, -2801.17, 7327.53, -57290.04, -7887.10, 39780.45, 11026.14, -7835.94, 0.00, 0.00, 0.00, 0.00, 0.00, 0.00, 0.00
210, 5179.48, 75014.13, 7050.12, 30994.65, -22524.75, -2801.17, 7327.53, -57290.04, -7880.80, 39795.52, 11042.54, -7845.17, 0.00, 0.00, 0.00, 0.00, 0.00, 0.00, 0.00
211, 5176.46, 75005.81, 7042.27, 30986.11, -22533.20, -2807.92, 7316.35, -57299.01, -7880.80, 39795.52, 11042.54, -7845.17, 0.00, 0.00, 0.00, 0.00, -0.01, 0.41, 0.92
212, 5176.46, 75005.81, 7042.27, 30986.11, -22533.20, -2807.92, 7316.35, -57299.01, -7885.43, 39778.57, 11022.34, -7828.83, 0.00, 0.00, 0.00, 0.00, 0.00, 0.00, 0.00
213, 5174.38, 75009.44, 7044.78, 30988.50, -22531.03, -2805.57, 7322.81, -57292.93, -7885.43, 39778.57, 11022.34, -7828.83, 0.00, 0.00, 0.00, 0.00, 0.00, 0.00, 0.00
214, 5174.38, 75009.44, 7044.78, 30988.50, -22531.03, -2805.57, 7322.81, -57292.93, -7886.61, 39794.08, 11032.51, -7857.78, 0.00, 0.00, 0.00, 0.00, 0.00, 0.00, 0.00
215, 5166.34, 74998.57, 7035.05, 30979.27, -22539.30, -2812.59, 7311.93, -57303.81, -7886.61, 39794.08, 11032.51, -7857.78, 0.00, 0.00, 0.00, 0.00, 0.00, 0.00, 0.00
216, 5166.34, 74998.57, 7035.05, 30979.27, -22539.30, -2812.59, 7311.93, -57303.81, -7883.26, 39773.27, 11020.71, -7828.47, 0.00, 0.00, 0.00, 0.00, 0.00, 0.00, 0.00
217, 5175.08, 75009.26, 7046.07, 30990.96, -22529.19, -2803.98, 7325.83, -57289.51, -7883.26, 39773.27, 11020.71, -7828.47, 0.00, 0.00, 0.00, 0.00, 0.00, 0.00, 0.00
218, 5175.08, 75009.26, 7046.07, 30990.96, -22529.19, -2803.98, 7325.83, -57289.51, -7874.59, 39800.54, 11043.86, -7853.26, 0.00, 0.00, 0.00, 0.00, 0.00, 0.00, 0.00
219, 5177.58, 75015.80, 7052.06, 30992.82, -22524.46, -2802.31, 7326.63, -57288.39, -7874.59, 39800.54, 11043.86, -7853.26, 0.00, 0.00, 0.00, 0.00, 0.00, 0.00, 0.00
220, 5177.58, 75015.80, 7052.06, 30992.82, -22524.46, -2802.31, 7326.63, -57288.39, -7867.23, 39790.80, 11064.63, -7814.24, 0.00, 0.00, 0.00, 0.00, 0.00, 0.00, 0.00
221, 5195.91, 75032.41, 7077.46, 31020.26, -22512.10, -2788.02, 7340.40, -57278.40, -7867.23, 39790.80, 11064.63, -7814.24, 0.00, 0.00, 0.00, 0.00, -0.01, 0.41, 0.92
222, 5195.91, 75032.41, 7077.46, 31020.26, -22512.10, -2788.02, 7340.40, -57278.40, -7883.28, 39797.30, 11011.61, -7858.60, 0.00, 0.00, 0.00, 0.00, 0.00, 0.00, 0.00
223, 5162.74, 74988.96, 7019.03, 30971.16, -22563.30, -2822.69, 7299.65, -57311.14, -7883.28, 39797.30, 11011.61, -7858.60, 0.00, 0.00, 0.00, 0.00, 0.00, 0.00, 0.00
224, 5162.74, 74988.96, 7019.03, 30971.16, -22563.30, -2822.69, 7299.65, -57311.14, -7891.80, 39766.73, 10992.19, -7831.36, 0.00, 0.00, 0.00, 0.00, 0.00, 0.00, 0.00
225, 5177.92, 75004.61, 7037.54, 30992.71, -22551.52, -2812.25, 7307.97, -57305.60, -7891.80, 39766.73, 10992.19, -7831.36, 0.00, 0.00, 0.00, 0.00, 0.00, 0.00, 0.00
226, 5177.92, 75004.61, 7037.54, 30992.71, -22551.52, -2812.25, 7307.97, -57305.60, -7891.17, 39785.88, 11004.19, -7863.19, 0.00, 0.00, 0.00, 0.00, 0.00, 0.00, 0.00
227, 5185.92, 75007.11, 7039.08, 30993.51, -22554.41, -2810.62, 7305.85, -57308.78, -7891.17, 39785.88, 11004.19, -7863.19, 0.00, 0.00, 0.00, 0.00, 0.00, 0.00, 0.00
228, 5185.92, 75007.11, 7039.08, 30993.51, -22554.41, -2810.62, 7305.85, -57308.78, -7898.26, 39763.13, 10982.64, -7834.02, 0.00, 0.00, 0.00, 0.00, 0.00, 0.00, 0.00
229, 5192.18, 75012.92, 7044.53, 31002.54, -22554.76, -2811.11, 7303.54, -57310.74, -7898.26, 39763.13, 10982.64, -7834.02, 0.00, 0.00, 0.00, 0.00, 0.00, 0.00, 0.00
230, 5192.18, 75012.92, 7044.53, 31002.54, -22554.76, -2811.11, 7303.54, -57310.74, -7894.26, 39787.15, 11011.23, -7863.95, 0.00, 0.00, 0.00, 0.00, 0.00, 0.00, 0.00
231, 5204.78, 75027.70, 7059.33, 31012.13, -22547.54, -2803.87, 7312.19, -57301.80, -7894.26, 39787.15, 11011.23, -7863.95, 0.00, 0.00, 0.00, 0.00, -0.01, 0.40, 0.92
232, 5204.78, 75027.70, 7059.33, 31012.13, -22547.54, -2803.87, 7312.19, -57301.80, -7894.93, 39767.71, 10995.52, -7833.30, 0.00, 0.00, 0.00, 0.00, 0.00, 0.00, 0.00
233, 5200.71, 75023.38, 7056.09, 31004.35, -22553.31, -2809.35, 7305.20, -57305.87, -7894.93, 39767.71, 10995.52, -7833.30, 0.00, 0.00, 0.00, 0.00, 0.00, 0.00, 0.00
234, 5200.71, 75023.38, 7056.09, 31004.35, -22553.31, -2809.35, 7305.20, -57305.87, -7888.02, 39787.78, 11014.87, -7860.73, 0.00, 0.00, 0.00, 0.00, 0.00, 0.00, 0.00
235, 5207.69, 75036.34, 7065.36, 31012.40, -22547.99, -2803.85, 7311.81, -57301.04, -7888.02, 39787.78, 11014.87, -7860.73, 0.00, 0.00, 0.00, 0.00, 0.00, 0.00, 0.00
236, 5207.69, 75036.34, 7065.36, 31012.40, -22547.99, -2803.85, 7311.81, -57301.04, -7893.83, 39766.30, 11000.83, -7840.34, 0.00, 0.00, 0.00, 0.00, 0.00, 0.00, 0.00
237, 5204.07, 75026.80, 7059.24, 31006.07, -22556.24, -2811.16, 7299.86, -57311.66, -7893.83, 39766.30, 11000.83, -7840.34, 0.00, 0.00, 0.00, 0.00, 0.00, 0.00, 0.00
238, 5204.07, 75026.80, 7059.24, 31006.07, -22556.24, -2811.16, 7299.86, -57311.66, -7885.14, 39785.61, 11016.30, -7857.89, 0.00, 0.00, 0.00, 0.00, 0.00, 0.00, 0.00
239, 5214.06, 75037.58, 7069.01, 31021.92, -22547.59, -2798.57, 7314.05, -57297.53, -7885.14, 39785.61, 11016.30, -7857.89, 0.00, 0.00, 0.00, 0.00, 0.00, 0.00, 0.00
240, 5214.06, 75037.58, 7069.01, 31021.92, -22547.59, -2798.57, 7314.05, -57297.53, -7890.99, 39776.11, 11003.03, -7834.84, 0.00, 0.00, 0.00, 0.00, -0.01, 0.40, 0.94
241, 5206.57, 75026.24, 7058.59, 31009.71, -22558.61, -2808.34, 7297.53, -57311.75, -7890.99, 39776.11, 11003.03, -7834.84, 0.00, 0.00, 0.00, 0.00, 0.00, 0.00, 0.00
242, 5206.57, 75026.24, 7058.59, 31009.71, -22558.61, -2808.34, 7297.53, -57311.75, -7889.38, 39781.90, 11009.33, -7853.51, 0.00, 0.00, 0.00, 0.00, 0.00, 0.00, 0.00
243, 5218.89, 75040.28, 7071.38, 31026.84, -22547.12, -2796.69, 7312.15, -57295.39, -7889.38, 39781.90, 11009.33, -7853.51, 0.00, 0.00, 0.00, 0.00, 0.00, 0.00, 0.00
244, 5218.89, 75040.28, 7071.38, 31026.84, -22547.12, -2796.69, 7312.15, -57295.39, -7893.54, 39772.40, 11007.32, -7849.02, 0.00, 0.00, 0.00, 0.00, 0.00, 0.00, 0.00
245, 5208.31, 75029.23, 7059.24, 31010.92, -22562.36, -2809.88, 7292.68, -57312.33, -7893.54, 39772.40, 11007.32, -7849.02, 0.00, 0.00, 0.00, 0.00, 0.00, 0.00, 0.00
246, 5208.31, 75029.23, 7059.24, 31010.92, -22562.36, -2809.88, 7292.68, -57312.33, -7887.48, 39777.90, 11010.56, -7851.59, 0.00, 0.00, 0.00, 0.00, 0.00, 0.00, 0.00
247, 5224.16, 75052.71, 7078.53, 31031.26, -22550.56, -2795.69, 7310.14, -57294.96, -7887.48, 39777.90, 11010.56, -7851.59, 0.00, 0.00, 0.00, 0.00, 0.00, 0.00, 0.00
248, 5224.16, 75052.71, 7078.53, 31031.26, -22550.56, -2795.69, 7310.14, -57294.96, -7895.33, 39773.90, 11011.03, -7850.36, 0.00, 0.00, 0.00, 0.00, 0.00, 0.00, 0.00
249, 5214.06, 75037.38, 7062.48, 31012.60, -22569.49, -2810.17, 7288.66, -57314.09, -7895.33, 39773.90, 11011.03, -7850.36, 0.00, 0.00, 0.00, 0.00, 0.00, 0.00, 0.00
250, 5214.06, 75037.38, 7062.48, 31012.60, -22569.49, -2810.17, 7288.66, -57314.09, -7889.29, 39773.81, 11009.53, -7850.85, 0.00, 0.00, 0.00, 0.00, -0.01, 0.39, 0.93
251, 5229.79, 75056.55, 7082.64, 31034.77, -22552.22, -2794.03, 7308.66, -57292.28, -7889.29, 39773.81, 11009.53, -7850.85, 0.00, 0.00, 0.00, 0.00, 0.00, 0.00, 0.00
252, 5229.79, 75056.55, 7082.64, 31034.77, -22552.22, -2794.03, 7308.66, -57292.28, -7890.59, 39776.58, 11019.90, -7855.27, 0.00, 0.00, 0.00, 0.00, 0.00, 0.00, 0.00
253, 5218.93, 75036.97, 7066.41, 31013.51, -22571.51, -2809.88, 7285.89, -57313.56, -7890.59, 39776.58, 11019.90, -7855.27, 0.00, 0.00, 0.00, 0.00, 0.00, 0.00, 0.00
254, 5218.93, 75036.97, 7066.41, 31013.51, -22571.51, -2809.88, 7285.89, -57313.56, -7891.22, 39766.34, 11005.22, -7848.95, 0.00, 0.00, 0.00, 0.00, 0.00, 0.00, 0.00
255, 5225.08, 75055.01, 7082.62, 31032.67, -22555.93, -2794.77, 7304.39, -57295.12, -7891.22, 39766.34, 11005.22, -7848.95, 0.00, 0.00, 0.00, 0.00, 0.00, 0.00, 0.00
0, 5225.08, 75055.01, 7082.62, 31032.67, -22555.93, -2794.77, 7304.39, -57295.12, -7888.71, 39779.49, 11017.51, -7858.81, 0.00, 0.00, 0.00, 0.00, 0.00, 0.00, 0.00
1, 5206.79, 75032.21, 7064.34, 31015.84, -22572.91, -2807.58, 7285.93, -57311.14, -7888.71, 39779.49, 11017.51, -7858.81, 0.00, 0.00, 0.00, 0.00, 0.00, 0.00, 0.00
2, 5206.79, 75032.21, 7064.34, 31015.84, -22572.91, -2807.58, 7285.93, -57311.14, -7888.87, 39768.00, 10999.07, -7836.79, 0.00, 0.00, 0.00, 0.00, 0.00, 0.00, 0.00
3, 5211.76, 75042.34, 7077.25, 31033.61, -22560.87, -2793.86, 7302.20, -57292.84, -7888.87, 39768.00, 10999.07, -7836.79, 0.00, 0.00, 0.00, 0.00, 0.00, 0.00, 0.00
4, 5211.76, 75042.34, 7077.25, 31033.61, -22560.87, -2793.86, 7302.20, -57292.84, -7888.06, 39788.20, 11008.23, -7855.81, 0.00, 0.00, 0.00, 0.00, -0.02, 0.40, 0.94
5, 5194.17, 75013.99, 7057.59, 31017.52, -22575.82, -2802.93, 7286.94, -57305.24, -7888.06, 39788.20, 11008.23, -7855.81, 0.00, 0.00, 0.00, 0.00, 0.00, 0.00, 0.00
6, 5194.17, 75013.99, 7057.59, 31017.52, -22575.82, -2802.93, 7286.94, -57305.24, -7889.47, 39775.84, 10982.24, -7826.71, 0.00, 0.00, 0.00, 0.00, 0.00, 0.00, 0.00
7, 5195.04, 75015.72, 7059.66, 31026.10, -22571.64, -2798.42, 7293.60, -57294.96, -7889.47, 39775.84, 10982.24, -7826.71, 0.00, 0.00, 0.00, 0.00, 0.00, 0.00, 0.00
8, 5195.04, 75015.72, 7059.66, 31026.10, -22571.64, -2798.42, 7293.60, -57294.96, -7889.85, 39787.22, 10995.27, -7861.53, 0.00, 0.00, 0.00, 0.00, 0.00, 0.00, 0.00
9, 5184.80, 75003.22, 7043.24, 31009.87, -22588.27, -2811.63, 7274.82, -57311.10, -7889.85, 39787.22, 10995.27, -7861.53, 0.00, 0.00, 0.00, 0.00, 0.00, 0.00, 0.00
10, 5184.80, 75003.22, 7043.24, 31009.87, -22588.27, -2811.63, 7274.82, -57311.10, -7899.08, 39759.35, 10967.33, -7839.78, 0.00, 0.00, 0.00, 0.00, 0.00, 0.00, 0.00
11, 5187.39, 75011.11, 7046.66, 31013.36, -22591.55, -2810.64, 7276.21, -57307.64, -7899.08, 39759.35, 10967.33, -7839.78, 0.00, 0.00, 0.00, 0.00, 0.00, 0.00, 0.00
12, 5187.39, 75011.11, 7046.66, 31013.36, -22591.55, -2810.64, 7276.21, -57307.64, -7891.06, 39782.89, 10999.11, -7866.14, 0.00, 0.00, 0.00, 0.00, 0.00, 0.00, 0.00
13, 5195.04, 75021.84, 7051.86, 31009.31, -22588.87, -2812.25, 7273.01, -57307.21, -7891.06, 39782.89, 10999.11, -7866.14, 0.00, 0.00, 0.00, 0.00, 0.00, 0.00, 0.00
14, 5195.04, 75021.84, 7051.86, 31009.31, -22588.87, -2812.25, 7273.01, -57307.21, -7886.79, 39764.22, 10988.70, -7833.26, 0.00, 0.00, 0.00, 0.00, -0.02, 0.40, 0.93
15, 5207.62, 75040.15, 7066.95, 31017.67, -22583.17, -2806.71, 7281.08, -57297.06, -7886.79, 39764.22, 10988.70, -7833.26, 0.00, 0.00, 0.00, 0.00, 0.00, 0.00, 0.00
16, 5207.62, 75040.15, 7066.95, 31017.67, -22583.17, -2806.71, 7281.08, -57297.06, -7873.40, 39797.59, 11030.63, -7852.44, 0.00, 0.00, 0.00, 0.00, 0.00, 0.00, 0.00
17, 5221.52, 75056.33, 7081.43, 31025.67, -22574.30, -2800.47, 7285.37, -57291.27, -7873.40, 39797.59, 11030.63, -7852.44, 0.00, 0.00, 0.00, 0.00, 0.00, 0.00, 0.00
18, 5221.52, 75056.33, 7081.43, 31025.67, -22574.30, -2800.47, 7285.37, -57291.27, -7876.78, 39772.13, 11016.15, -7823.29, 0.00, 0.00, 0.00, 0.00, 0.00, 0.00, 0.00
19, 5218.80, 75056.40, 7081.35, 31021.70, -22580.60, -2805.01, 7279.67, -57290.71, -7876.78, 39772.13, 11016.15, -7823.29, 0.00, 0.00, 0.00, 0.00, 0.00, 0.00, 0.00
20, 5218.80, 75056.40, 7081.35, 31021.70, -22580.60, -2805.01, 7279.67, -57290.71, -7873.54, 39798.24, 11040.89, -7853.13, 0.00, 0.00, 0.00, 0.00, 0.00, 0.00, 0.00
21, 5231.09, 75074.08, 7096.72, 31031.08, -22571.42, -2797.28, 7288.43, -57284.95, -7873.54, 39798.24, 11040.89, -7853.13, 0.00, 0.00, 0.00, 0.00, 0.00, 0.00, 0.00
22, 5231.09, 75074.08, 7096.72, 31031.08, -22571.42, -2797.28, 7288.43, -57284.95, -7870.34, 39778.21, 11034.88, -7818.75, 0.00, 0.00, 0.00, 0.00, 0.00, 0.00, 0.00
23, 5231.31, 75079.53, 7098.89, 31027.21, -22576.49, -2799.60, 7283.58, -57289.13, -7870.34, 39778.21, 11034.88, -7818.75, 0.00, 0.00, 0.00, 0.00, -0.02, 0.40, 0.93
24, 5231.31, 75079.53, 7098.89, 31027.21, -22576.49, -2799.60, 7283.58, -57289.13, -7866.94, 39795.58, 11053.03, -7850.89, 0.00, 0.00, 0.00, 0.00, 0.00, 0.00, 0.00
25, 5234.78, 75085.30, 7106.20, 31038.12, -22572.27, -2792.14, 7289.95, -57279.99, -7866.94, 39795.58, 11053.03, -7850.89, 0.00, 0.00, 0.00, 0.00, 0.00, 0.00, 0.00
26, 5234.78, 75085.30, 7106.20, 31038.12, -22572.27, -2792.14, 7289.95, -57279.99, -7869.13, 39779.33, 11036.35, -7825.17, 0.00, 0.00, 0.00, 0.00, 0.00, 0.00, 0.00
27, 5227.83, 75075.02, 7097.55, 31026.59, -22581.74, -2799.62, 7277.48, -57289.60, -7869.13, 39779.33, 11036.35, -7825.17, 0.00, 0.00, 0.00, 0.00, 0.00, 0.00, 0.00
28, 5227.83, 75075.02, 7097.55, 31026.59, -22581.74, -2799.62, 7277.48, -57289.60, -7863.61, 39797.48, 11049.45, -7847.23, 0.00, 0.00, 0.00, 0.00, 0.00, 0.00, 0.00
29, 5235.16, 75084.78, 7105.66, 31039.24, -22575.60, -2788.89, 7288.68, -57274.91, -7863.61, 39797.48, 11049.45, -7847.23, 0.00, 0.00, 0.00, 0.00, 0.00, 0.00, 0.00
30, 5235.16, 75084.78, 7105.66, 31039.24, -22575.60, -2788.89, 7288.68, -57274.91, -7869.71, 39782.30, 11029.56, -7822.75, 0.00, 0.00, 0.00, 0.00, 0.00, 0.00, 0.00
31, 5223.36, 75066.41, 7089.62, 31025.29, -22594.60, -2801.61, 7269.95, -57293.04, -7869.71, 39782.30, 11029.56, -7822.75, 0.00, 0.00, 0.00, 0.00, 0.00, 0.00, 0.00
32, 5223.36, 75066.41, 7089.62, 31025.29, -22594.60, -2801.61, 7269.95, -57293.04, -7873.25, 39788.81, 11027.48, -7850.36, 0.00, 0.00, 0.00, 0.00, 0.00, 0.00, 0.00
33, 5228.54, 75069.09, 7099.88, 31043.04, -22587.22, -2788.92, 7282.62, -57281.37, -7873.25, 39788.81, 11027.48, -7850.36, 0.00, 0.00, 0.00, 0.00, -0.02, 0.40, 0.92
34, 5228.54, 75069.09, 7099.88, 31043.04, -22587.22, -2788.92, 7282.62, -57281.37, -7875.21, 39775.51, 11018.54, -7836.36, 0.00, 0.00, 0.00, 0.00, 0.00, 0.00, 0.00
35, 5202.97, 75036.57, 7071.58, 31017.36, -22609.88, -2807.96, 7257.39, -57300.73, -7875.21, 39775.51, 11018.54, -7836.36, 0.00, 0.00, 0.00, 0.00, 0.00, 0.00, 0.00
36, 5202.97, 75036.57, 7071.58, 31017.36, -22609.88, -2807.96, 7257.39, -57300.73, -7875.08, 39781.93, 11005.64, -7848.77, 0.00, 0.00, 0.00, 0.00, 0.00, 0.00, 0.00
37, 5205.12, 75044.13, 7077.34, 31028.80, -22603.07, -2797.48, 7271.09, -57282.09, -7875.08, 39781.93, 11005.64, -7848.77, 0.00, 0.00, 0.00, 0.00, 0.00, 0.00, 0.00
38, 5205.12, 75044.13, 7077.34, 31028.80, -22603.07, -2797.48, 7271.09, -57282.09, -7874.34, 39786.17, 11004.88, -7836.79, 0.00, 0.00, 0.00, 0.00, 0.00, 0.00, 0.00
39, 5192.02, 75026.40, 7060.69, 31011.21, -22622.51, -2810.42, 7250.62, -57299.23, -7874.34, 39786.17, 11004.88, -7836.79, 0.00, 0.00, 0.00, 0.00, 0.00, 0.00, 0.00
40, 5192.02, 75026.40, 7060.69, 31011.21, -22622.51, -2810.42, 7250.62, -57299.23, -7876.26, 39781.28, 10996.77, -7841.84, 0.00, 0.00, 0.00, 0.00, 0.00, 0.00, 0.00
41, 5200.22, 75038.36, 7070.08, 31021.16, -22617.08, -2803.07, 7261.90, -57286.18, -7876.26, 39781.28, 10996.77, -7841.84, 0.00, 0.00, 0.00, 0.00, 0.00, 0.00, 0.00
42, 5200.22, 75038.36, 7070.08, 31021.16, -22617.08, -2803.07, 7261.90, -57286.18, -7877.13, 39782.39, 11000.48, -7844.08, 0.00, 0.00, 0.00, 0.00, 0.00, 0.00, 0.00
43, 5186.01, 75024.88, 7053.74, 31000.28, -22635.63, -2817.37, 7239.84, -57303.25, -7877.13, 39782.39, 11000.48, -7844.08, 0.00, 0.00, 0.00, 0.00, -0.02, 0.41, 0.93
44, 5186.01, 75024.88, 7053.74, 31000.28, -22635.63, -2817.37, 7239.84, -57303.25, -7875.50, 39779.91, 10993.57, -7841.55, 0.00, 0.00, 0.00, 0.00, 0.00, 0.00, 0.00
45, 5197.92, 75038.58, 7066.62, 31019.15, -22627.74, -2804.45, 7256.49, -57284.84, -7875.50, 39779.91, 10993.57, -7841.55, 0.00, 0.00, 0.00, 0.00, 0.00, 0.00, 0.00
46, 5197.92, 75038.58, 7066.62, 31019.15, -22627.74, -2804.45, 7256.49, -57284.84, -7877.85, 39788.96, 11003.41, -7842.56, 0.00, 0.00, 0.00, 0.00, 0.00, 0.00, 0.00
47, 5190.14, 75023.59, 7057.67, 31000.51, -22640.82, -2817.66, 7238.25, -57302.29, -7877.85, 39788.96, 11003.41, -7842.56, 0.00, 0.00, 0.00, 0.00, 0.00, 0.00, 0.00
48, 5190.14, 75023.59, 7057.67, 31000.51, -22640.82, -2817.66, 7238.25, -57302.29, -7877.56, 39772.40, 10996.23, -7837.75, 0.00, 0.00, 0.00, 0.00, 0.00, 0.00, 0.00
49, 5206.15, 75046.43, 7076.61, 31022.41, -22630.40, -2804.54, 7253.32, -57288.08, -7877.56, 39772.40, 10996.23, -7837.75, 0.00, 0.00, 0.00, 0.00, 0.00, 0.00, 0.00
50, 5206.15, 75046.43, 7076.61, 31022.41, -22630.40, -2804.54, 7253.32, -57288.08, -7874.14, 39788.32, 11011.21, -7853.35, 0.00, 0.00, 0.00, 0.00, 0.00, 0.00, 0.00
51, 5202.79, 75038.11, 7067.29, 31009.96, -22640.53, -2811.54, 7240.53, -57297.27, -7874.14, 39788.32, 11011.21, -7853.35, 0.00, 0.00, 0.00, 0.00, 0.00, 0.00, 0.00
52, 5202.79, 75038.11, 7067.29, 31009.96, -22640.53, -2811.54, 7240.53, -57297.27, -7875.52, 39775.15, 10995.94, -7832.34, 0.00, 0.00, 0.00, 0.00, 0.00, 0.00, 0.00
53, 5202.75, 75038.83, 7071.26, 31017.89, -22640.26, -2805.52, 7249.16, -57288.03, -7875.52, 39775.15, 10995.94, -7832.34, 0.00, 0.00, 0.00, 0.00, -0.01, 0.41, 0.93
54, 5202.75, 75038.83, 7071.26, 31017.89, -22640.26, -2805.52, 7249.16, -57288.03, -7871.35, 39795.54, 11009.44, -7844.63, 0.00, 0.00, 0.00, 0.00, 0.00, 0.00, 0.00
55, 5199.78, 75035.16, 7069.48, 31012.98, -22644.71, -2807.78, 7241.92, -57292.19, -7871.35, 39795.54, 11009.44, -7844.63, 0.00, 0.00, 0.00, 0.00, 0.00, 0.00, 0.00
56, 5199.78, 75035.16, 7069.48, 31012.98, -22644.71, -2807.78, 7241.92, -57292.19, -7869.71, 39780.58, 10994.44, -7819.04, 0.00, 0.00, 0.00, 0.00, 0.00, 0.00, 0.00
57, 5211.82, 75044.10, 7079.22, 31025.52, -22638.52, -2799.51, 7251.06, -57279.65, -7869.71, 39780.58, 10994.44, -7819.04, 0.00, 0.00, 0.00, 0.00, 0.00, 0.00, 0.00
58, 5211.82, 75044.10, 7079.22, 31025.52, -22638.52, -2799.51, 7251.06, -57279.65, -7862.32, 39798.49, 11018.90, -7847.94, 0.00, 0.00, 0.00, 0.00, 0.00, 0.00, 0.00
59, 5201.61, 75037.53, 7073.28, 31019.28, -22645.27, -2804.83, 7243.08, -57289.46, -7862.32, 39798.49, 11018.90, -7847.94, 0.00, 0.00, 0.00, 0.00, 0.00, 0.00, 0.00
60, 5201.61, 75037.53, 7073.28, 31019.28, -22645.27, -2804.83, 7243.08, -57289.46, -7869.45, 39779.80, 10992.19, -7819.06, 0.00, 0.00, 0.00, 0.00, 0.00, 0.00, 0.00
61, 5190.83, 75030.58, 7063.87, 31012.96, -22654.54, -2807.51, 7241.67, -57287.07, -7869.45, 39779.80, 10992.19, -7819.06, 0.00, 0.00, 0.00, 0.00, 0.00, 0.00, 0.00
62, 5190.83, 75030.58, 7063.87, 31012.96, -22654.54, -2807.51, 7241.67, -57287.07, -7864.30, 39800.63, 11007.81, -7851.59, 0.00, 0.00, 0.00, 0.00, -0.02, 0.41, 0.93
63, 5188.62, 75026.06, 7059.06, 31008.06, -22657.67, -2809.21, 7236.18, -57286.40, -7864.30, 39800.63, 11007.81, -7851.59, 0.00, 0.00, 0.00, 0.00, 0.00, 0.00, 0.00
64, 5188.62, 75026.06, 7059.06, 31008.06, -22657.67, -2809.21, 7236.18, -57286.40, -7869.15, 39775.75, 10980.21, -7818.46, 0.00, 0.00, 0.00, 0.00, 0.00, 0.00, 0.00
65, 5176.60, 75016.97, 7049.81, 30999.83, -22669.50, -2814.87, 7229.07, -57289.80, -7869.15, 39775.75, 10980.21, -7818.46, 0.00, 0.00, 0.00, 0.00, 0.00, 0.00, 0.00
66, 5176.60, 75016.97, 7049.81, 30999.83, -22669.50, -2814.87, 7229.07, -57289.80, -7862.14, 39798.75, 10999.41, -7850.27, 0.00, 0.00, 0.00, 0.00, 0.00, 0.00, 0.00
67, 5177.47, 75013.46, 7048.06, 30996.55, -22672.92, -2817.86, 7224.91, -57291.21, -7862.14, 39798.75, 10999.41, -7850.27, 0.00, 0.00, 0.00, 0.00, 0.00, 0.00, 0.00
68, 5177.47, 75013.46, 7048.06, 30996.55, -22672.92, -2817.86, 7224.91, -57291.21, -7869.76, 39773.50, 10976.92, -7824.09, 0.00, 0.00, 0.00, 0.00, 0.00, 0.00, 0.00
69, 5171.03, 75008.77, 7041.78, 30991.36, -22684.61, -2822.11, 7217.31, -57295.36, -7869.76, 39773.50, 10976.92, -7824.09, 0.00, 0.00, 0.00, 0.00, 0.00, 0.00, 0.00
70, 5171.03, 75008.77, 7041.78, 30991.36, -22684.61, -2822.11, 7217.31, -57295.36, -7865.00, 39794.87, 10994.78, -7851.07, 0.00, 0.00, 0.00, 0.00, 0.00, 0.00, 0.00
71, 5176.69, 75016.43, 7046.21, 30996.57, -22683.62, -2817.46, 7222.21, -57290.22, -7865.00, 39794.87, 10994.78, -7851.07, 0.00, 0.00, 0.00, 0.00, 0.00, 0.00, 0.00
72, 5176.69, 75016.43, 7046.21, 30996.57, -22683.62, -2817.46, 7222.21, -57290.22, -7872.06, 39772.11, 10972.65, -7824.09, 0.00, 0.00, 0.00, 0.00, -0.01, 0.41, 0.93
73, 5171.34, 75011.02, 7037.58, 30987.52, -22693.84, -2824.43, 7211.45, -57298.63, -7872.06, 39772.11, 10972.65, -7824.09, 0.00, 0.00, 0.00, 0.00, 0.00, 0.00, 0.00
74, 5171.34, 75011.02, 7037.58, 30987.52, -22693.84, -2824.43, 7211.45, -57298.63, -7863.46, 39794.35, 10990.02, -7850.11, 0.00, 0.00, 0.00, 0.00, 0.00, 0.00, 0.00
75, 5187.91, 75024.01, 7053.83, 31006.58, -22682.75, -2810.46, 7225.69, -57283.81, -7863.46, 39794.35, 10990.02, -7850.11, 0.00, 0.00, 0.00, 0.00, 0.00, 0.00, 0.00
76, 5187.91, 75024.01, 7053.83, 31006.58, -22682.75, -2810.46, 7225.69, -57283.81, -7873.78, 39772.11, 10971.73, -7830.40, 0.00, 0.00, 0.00, 0.00, 0.00, 0.00, 0.00
77, 5174.72, 75004.23, 7036.98, 30988.39, -22705.73, -2827.83, 7201.84, -57305.82, -7873.78, 39772.11, 10971.73, -7830.40, 0.00, 0.00, 0.00, 0.00, 0.00, 0.00, 0.00
78, 5174.72, 75004.23, 7036.98, 30988.39, -22705.73, -2827.83, 7201.84, -57305.82, -7877.67, 39782.77, 10980.23, -7859.39, 0.00, 0.00, 0.00, 0.00, 0.00, 0.00, 0.00
79, 5184.53, 75014.71, 7049.23, 31005.56, -22695.69, -2815.11, 7214.27, -57292.88, -7877.67, 39782.77, 10980.23, -7859.39, 0.00, 0.00, 0.00, 0.00, 0.00, 0.00, 0.00
80, 5184.53, 75014.71, 7049.23, 31005.56, -22695.69, -2815.11, 7214.27, -57292.88, -7880.26, 39771.78, 10970.79, -7839.52, 0.00, 0.00, 0.00, 0.00, 0.00, 0.00, 0.00
81, 5174.50, 74996.52, 7034.54, 30994.25, -22711.45, -2825.53, 7197.28, -57308.57, -7880.26, 39771.78, 10970.79, -7839.52, 0.00, 0.00, 0.00, 0.00, 0.00, 0.00, 0.00
82, 5174.50, 74996.52, 7034.54, 30994.25, -22711.45, -2825.53, 7197.28, -57308.57, -7882.68, 39775.42, 10967.44, -7858.14, 0.00, 0.00, 0.00, 0.00, -0.01, 0.41, 0.93
83, 5188.09, 75012.12, 7048.76, 31015.91, -22701.48, -2810.17, 7214.25, -57294.71, -7882.68, 39775.42, 10967.44, -7858.14, 0.00, 0.00, 0.00, 0.00, 0.00, 0.00, 0.00
84, 5188.09, 75012.12, 7048.76, 31015.91, -22701.48, -2810.17, 7214.25, -57294.71, -7881.72, 39769.96, 10966.50, -7845.60, 0.00, 0.00, 0.00, 0.00, 0.00, 0.00, 0.00
85, 5172.15, 74995.38, 7032.91, 30994.47, -22716.48, -2825.31, 7195.63, -57311.14, -7881.72, 39769.96, 10966.50, -7845.60, 0.00, 0.00, 0.00, 0.00, 0.00, 0.00, 0.00
86, 5172.15, 74995.38, 7032.91, 30994.47, -22716.48, -2825.31, 7195.63, -57311.14, -7881.67, 39775.84, 10964.69, -7856.88, 0.00, 0.00, 0.00, 0.00, 0.00, 0.00, 0.00
87, 5184.53, 75010.30, 7046.12, 31013.92, -22706.76, -2811.85, 7211.05, -57295.99, -7881.67, 39775.84, 10964.69, -7856.88, 0.00, 0.00, 0.00, 0.00, 0.00, 0.00, 0.00
88, 5184.53, 75010.30, 7046.12, 31013.92, -22706.76, -2811.85, 7211.05, -57295.99, -7885.16, 39773.00, 10966.82, -7849.53, 0.00, 0.00, 0.00, 0.00, 0.00, 0.00, 0.00
89, 5172.75, 74997.95, 7034.14, 30996.41, -22722.25, -2825.71, 7192.08, -57312.82, -7885.16, 39773.00, 10966.82, -7849.53, 0.00, 0.00, 0.00, 0.00, 0.00, 0.00, 0.00
90, 5172.75, 74997.95, 7034.14, 30996.41, -22722.25, -2825.71, 7192.08, -57312.82, -7885.02, 39769.77, 10966.75, -7853.40, 0.00, 0.00, 0.00, 0.00, 0.00, 0.00, 0.00
91, 5185.07, 75017.28, 7054.28, 31020.58, -22706.82, -2808.54, 7212.51, -57293.69, -7885.02, 39769.77, 10966.75, -7853.40, 0.00, 0.00, 0.00, 0.00, 0.00, 0.00, 0.00
92, 5185.07, 75017.28, 7054.28, 31020.58, -22706.82, -2808.54, 7212.51, -57293.69, -7876.15, 39780.72, 10980.94, -7851.09, 0.00, 0.00, 0.00, 0.00, -0.02, 0.41, 0.93
93, 5180.73, 75005.45, 7046.86, 31008.75, -22715.27, -2815.74, 7199.65, -57301.06, -7876.15, 39780.72, 10980.94, -7851.09, 0.00, 0.00, 0.00, 0.00, 0.00, 0.00, 0.00
94, 5180.73, 75005.45, 7046.86, 31008.75, -22715.27, -2815.74, 7199.65, -57301.06, -7873.89, 39777.01, 10975.64, -7834.42, 0.00, 0.00, 0.00, 0.00, 0.00, 0.00, 0.00
95, 5190.99, 75021.99, 7061.81, 31026.21, -22701.55, -2804.79, 7217.09, -57282.67, -7873.89, 39777.01, 10975.64, -7834.42, 0.00, 0.00, 0.00, 0.00, 0.00, 0.00, 0.00
96, 5190.99, 75021.99, 7061.81, 31026.21, -22701.55, -2804.79, 7217.09, -57282.67, -7867.19, 39788.90, 10988.94, -7846.45, 0.00, 0.00, 0.00, 0.00, 0.00, 0.00, 0.00
97, 5184.33, 75012.66, 7054.12, 31012.89, -22704.32, -2812.07, 7206.43, -57287.99, -7867.19, 39788.90, 10988.94, -7846.45, 0.00, 0.00, 0.00, 0.00, 0.00, 0.00, 0.00
98, 5184.33, 75012.66, 7054.12, 31012.89, -22704.32, -2812.07, 7206.43, -57287.99, -7867.32, 39780.07, 10978.37, -7830.22, 0.00, 0.00, 0.00, 0.00, 0.00, 0.00, 0.00
99, 5181.51, 75013.55, 7053.74, 31014.83, -22705.75, -2810.55, 7212.08, -57283.59, -7867.32, 39780.07, 10978.37, -7830.22, 0.00, 0.00, 0.00, 0.00, 0.00, 0.00, 0.00
100, 5181.51, 75013.55, 7053.74, 31014.83, -22705.75, -2810.55, 7212.08, -57283.59, -7863.70, 39796.36, 10990.33, -7844.97, 0.00, 0.00, 0.00, 0.00, 0.00, 0.00, 0.00
101, 5175.01, 75003.13, 7045.16, 31003.08, -22711.52, -2818.89, 7200.39, -57291.12, -7863.70, 39796.36, 10990.33, -7844.97, 0.00, 0.00, 0.00, 0.00, 0.00, 0.00, 0.00
102, 5175.01, 75003.13, 7045.16, 31003.08, -22711.52, -2818.89, 7200.39, -57291.12, -7865.06, 39778.13, 10971.31, -7827.63, 0.00, 0.00, 0.00, 0.00, -0.02, 0.40, 0.94
103, 5171.10, 75005.97, 7046.41, 31006.65, -22710.80, -2815.38, 7206.96, -57281.77, -7865.06, 39778.13, 10971.31, -7827.63, 0.00, 0.00, 0.00, 0.00, 0.00, 0.00, 0.00
104, 5171.10, 75005.97, 7046.41, 31006.65, -22710.80, -2815.38, 7206.96, -57281.77, -7864.24, 39796.86, 10983.18, -7853.04, 0.00, 0.00, 0.00, 0.00, 0.00, 0.00, 0.00
105, 5164.35, 74995.89, 7037.36, 30997.11, -22718.09, -2822.82, 7195.83, -57290.00, -7864.24, 39796.86, 10983.18, -7853.04, 0.00, 0.00, 0.00, 0.00, 0.00, 0.00, 0.00
106, 5164.35, 74995.89, 7037.36, 30997.11, -22718.09, -2822.82, 7195.83, -57290.00, -7868.33, 39775.40, 10968.43, -7822.19, 0.00, 0.00, 0.00, 0.00, 0.00, 0.00, 0.00
107, 5178.94, 75008.70, 7054.25, 31013.09, -22703.00, -2809.93, 7210.27, -57278.38, -7868.33, 39775.40, 10968.43, -7822.19, 0.00, 0.00, 0.00, 0.00, 0.00, 0.00, 0.00
108, 5178.94, 75008.70, 7054.25, 31013.09, -22703.00, -2809.93, 7210.27, -57278.38, -7861.15, 39799.54, 11011.54, -7848.12, 0.00, 0.00, 0.00, 0.00, 0.00, 0.00, 0.00
109, 5178.09, 75003.20, 7047.97, 31002.58, -22714.49, -2818.82, 7198.00, -57289.87, -7861.15, 39799.54, 11011.54, -7848.12, 0.00, 0.00, 0.00, 0.00, 0.00, 0.00, 0.00
110, 5178.09, 75003.20, 7047.97, 31002.58, -22714.49, -2818.82, 7198.00, -57289.87, -7874.18, 39767.13, 10955.22, -7829.46, 0.00, 0.00, 0.00, 0.00, 0.00, 0.00, 0.00
111, 5170.74, 75005.34, 7037.47, 30981.93, -22733.11, -2834.42, 7185.50, -57294.67, -7874.18, 39767.13, 10955.22, -7829.46, 0.00, 0.00, 0.00, 0.00, -0.01, 0.41, 0.93
112, 5170.74, 75005.34, 7037.47, 30981.93, -22733.11, -2834.42, 7185.50, -57294.67, -7866.94, 39794.22, 11007.72, -7854.51, 0.00, 0.00, 0.00, 0.00, 0.00, 0.00, 0.00
113, 5184.00, 75016.50, 7052.80, 30981.95, -22726.34, -2829.24, 7190.40, -57292.39, -7866.94, 39794.22, 11007.72, -7854.51, 0.00, 0.00, 0.00, 0.00, 0.00, 0.00, 0.00
114, 5184.00, 75016.50, 7052.80, 30981.95, -22726.34, -2829.24, 7190.40, -57292.39, -7866.65, 39775.11, 10995.00, -7822.73, 0.00, 0.00, 0.00, 0.00, 0.00, 0.00, 0.00
115, 5183.30, 75017.01, 7054.23, 30975.70, -22725.53, -2828.43, 7190.62, -57290.78, -7866.65, 39775.11, 10995.00, -7822.73, 0.00, 0.00, 0.00, 0.00, 0.00, 0.00, 0.00
116, 5183.30, 75017.01, 7054.23, 30975.70, -22725.53, -2828.43, 7190.62, -57290.78, -7865.85, 39792.63, 11008.01, -7857.38, 0.00, 0.00, 0.00, 0.00, 0.00, 0.00, 0.00
117, 5184.33, 75019.56, 7055.84, 30979.54, -22727.43, -2828.99, 7189.55, -57291.30, -7865.85, 39792.63, 11008.01, -7857.38, 0.00, 0.00, 0.00, 0.00, 0.00, 0.00, 0.00
118, 5184.33, 75019.56, 7055.84, 30979.54, -22727.43, -2828.99, 7189.55, -57291.30, -7874.41, 39765.65, 10992.23, -7832.97, 0.00, 0.00, 0.00, 0.00, 0.00, 0.00, 0.00
119, 5175.35, 75008.98, 7048.89, 30975.20, -22736.17, -2835.07, 7181.37, -57298.98, -7874.41, 39765.65, 10992.23, -7832.97, 0.00, 0.00, 0.00, 0.00, 0.00, 0.00, 0.00
120, 5175.35, 75008.98, 7048.89, 30975.20, -22736.17, -2835.07, 7181.37, -57298.98, -7865.35, 39790.75, 11015.50, -7860.21, 0.00, 0.00, 0.00, 0.00, 0.00, 0.00, 0.00
121, 5186.66, 75027.43, 7065.10, 30991.27, -22721.75, -2822.98, 7195.27, -57283.59, -7865.35, 39790.75, 11015.50, -7860.21, 0.00, 0.00, 0.00, 0.00, -0.02, 0.40, 0.93
122, 5186.66, 75027.43, 7065.10, 30991.27, -22721.75, -2822.98, 7195.27, -57283.59, -7865.27, 39775.33, 11005.24, -7824.03, 0.00, 0.00, 0.00, 0.00, 0.00, 0.00, 0.00
123, 5180.58, 75019.38, 7057.05, 30980.93, -22730.18, -2831.56, 7184.23, -57296.41, -7865.27, 39775.33, 11005.24, -7824.03, 0.00, 0.00, 0.00, 0.00, 0.00, 0.00, 0.00
124, 5180.58, 75019.38, 7057.05, 30980.93, -22730.18, -2831.56, 7184.23, -57296.41, -7861.96, 39790.46, 11019.88, -7852.64, 0.00, 0.00, 0.00, 0.00, 0.00, 0.00, 0.00
125, 5191.82, 75032.37, 7069.30, 30998.16, -22718.67, -2819.40, 7197.26, -57283.34, -7861.96, 39790.46, 11019.88, -7852.64, 0.00, 0.00, 0.00, 0.00, 0.00, 0.00, 0.00
126, 5191.82, 75032.37, 7069.30, 30998.16, -22718.67, -2819.40, 7197.26, -57283.34, -7863.61, 39776.80, 11009.17, -7824.92, 0.00, 0.00, 0.00, 0.00, 0.00, 0.00, 0.00
127, 5185.96, 75024.41, 7063.17, 30989.60, -22725.46, -2827.72, 7185.59, -57294.56, -7863.61, 39776.80, 11009.17, -7824.92, 0.00, 0.00, 0.00, 0.00, 0.00, 0.00, 0.00
128, 5185.96, 75024.41, 7063.17, 30989.60, -22725.46, -2827.72, 7185.59, -57294.56, -7857.13, 39788.25, 11016.95, -7847.61, 0.00, 0.00, 0.00, 0.00, 0.00, 0.00, 0.00
129, 5193.49, 75034.36, 7071.96, 31003.39, -22716.14, -2816.54, 7200.19, -57280.57, -7857.13, 39788.25, 11016.95, -7847.61, 0.00, 0.00, 0.00, 0.00, 0.00, 0.00, 0.00
130, 5193.49, 75034.36, 7071.96, 31003.39, -22716.14, -2816.54, 7200.19, -57280.57, -7863.21, 39779.51, 11005.73, -7830.60, 0.00, 0.00, 0.00, 0.00, 0.00, 0.00, 0.00
131, 5176.78, 75012.36, 7053.56, 30984.63, -22731.75, -2830.40, 7180.65, -57295.61, -7863.21, 39779.51, 11005.73, -7830.60, 0.00, 0.00, 0.00, 0.00, -0.02, 0.40, 0.92
132, 5176.78, 75012.36, 7053.56, 30984.63, -22731.75, -2830.40, 7180.65, -57295.61, -7857.87, 39791.11, 11008.43, -7837.21, 0.00, 0.00, 0.00, 0.00, 0.00, 0.00, 0.00
133, 5187.62, 75030.96, 7067.60, 30997.87, -22717.78, -2818.09, 7198.31, -57277.53, -7857.87, 39791.11, 11008.43, -7837.21, 0.00, 0.00, 0.00, 0.00, 0.00, 0.00, 0.00
134, 5187.62, 75030.96, 7067.60, 30997.87, -22717.78, -2818.09, 7198.31, -57277.53, -7853.73, 39790.04, 11008.77, -7823.54, 0.00, 0.00, 0.00, 0.00, 0.00, 0.00, 0.00
135, 5176.91, 75015.70, 7051.71, 30980.79, -22728.93, -2831.03, 7180.68, -57290.83, -7853.73, 39790.04, 11008.77, -7823.54, 0.00, 0.00, 0.00, 0.00, 0.00, 0.00, 0.00
136, 5176.91, 75015.70, 7051.71, 30980.79, -22728.93, -2831.03, 7180.68, -57290.83, -7853.73, 39792.32, 11006.56, -7835.20, 0.00, 0.00, 0.00, 0.00, 0.00, 0.00, 0.00
137, 5188.60, 75031.36, 7063.84, 30993.20, -22719.97, -2821.89, 7195.88, -57278.11, -7853.73, 39792.32, 11006.56, -7835.20, 0.00, 0.00, 0.00, 0.00, 0.00, 0.00, 0.00
138, 5188.60, 75031.36, 7063.84, 30993.20, -22719.97, -2821.89, 7195.88, -57278.11, -7859.32, 39786.42, 11006.67, -7837.48, 0.00, 0.00, 0.00, 0.00, 0.00, 0.00, 0.00
139, 5176.33, 75014.27, 7048.22, 30975.00, -22732.84, -2837.13, 7176.34, -57295.99, -7859.32, 39786.42, 11006.67, -7837.48, 0.00, 0.00, 0.00, 0.00, 0.00, 0.00, 0.00
140, 5176.33, 75014.27, 7048.22, 30975.00, -22732.84, -2837.13, 7176.34, -57295.99, -7859.25, 39784.56, 11003.03, -7832.10, 0.00, 0.00, 0.00, 0.00, 0.00, 0.00, 0.00
141, 5183.75, 75033.20, 7061.36, 30990.89, -22719.81, -2822.98, 7194.71, -57277.82, -7859.25, 39784.56, 11003.03, -7832.10, 0.00, 0.00, 0.00, 0.00, -0.02, 0.40, 0.93
142, 5183.75, 75033.20, 7061.36, 30990.89, -22719.81, -2822.98, 7194.71, -57277.82, -7855.43, 39793.14, 11011.47, -7839.18, 0.00, 0.00, 0.00, 0.00, 0.00, 0.00, 0.00
143, 5172.28, 75019.02, 7046.99, 30973.59, -22731.23, -2838.11, 7175.63, -57295.14, -7855.43, 39793.14, 11011.47, -7839.18, 0.00, 0.00, 0.00, 0.00, 0.00, 0.00, 0.00
144, 5172.28, 75019.02, 7046.99, 30973.59, -22731.23, -2838.11, 7175.63, -57295.14, -7854.29, 39784.27, 11003.29, -7827.74, 0.00, 0.00, 0.00, 0.00, 0.00, 0.00, 0.00
145, 5185.58, 75031.30, 7061.92, 30990.60, -22715.94, -2825.08, 7194.65, -57276.32, -7854.29, 39784.27, 11003.29, -7827.74, 0.00, 0.00, 0.00, 0.00, 0.00, 0.00, 0.00
146, 5185.58, 75031.30, 7061.92, 30990.60, -22715.94, -2825.08, 7194.65, -57276.32, -7850.22, 39797.61, 11016.95, -7837.24, 0.00, 0.00, 0.00, 0.00, 0.00, 0.00, 0.00
147, 5173.80, 75014.44, 7048.94, 30978.42, -22726.85, -2836.59, 7178.24, -57293.42, -7850.22, 39797.61, 11016.95, -7837.24, 0.00, 0.00, 0.00, 0.00, 0.00, 0.00, 0.00
148, 5173.80, 75014.44, 7048.94, 30978.42, -22726.85, -2836.59, 7178.24, -57293.42, -7857.91, 39775.75, 10996.50, -7828.63, 0.00, 0.00, 0.00, 0.00, 0.00, 0.00, 0.00
149, 5184.91, 75028.70, 7063.08, 30997.02, -22715.67, -2824.61, 7193.37, -57279.63, -7857.91, 39775.75, 10996.50, -7828.63, 0.00, 0.00, 0.00, 0.00, 0.00, 0.00, 0.00
150, 5184.91, 75028.70, 7063.08, 30997.02, -22715.67, -2824.61, 7193.37, -57279.63, -7849.84, 39796.39, 11017.89, -7843.83, 0.00, 0.00, 0.00, 0.00, -0.02, 0.40, 0.93
151, 5183.48, 75026.06, 7061.90, 30990.00, -22716.72, -2828.41, 7184.99, -57286.16, -7849.84, 39796.39, 11017.89, -7843.83, 0.00, 0.00, 0.00, 0.00, 0.00, 0.00, 0.00
152, 5183.48, 75026.06, 7061.90, 30990.00, -22716.72, -2828.41, 7184.99, -57286.16, -7852.84, 39777.12, 11005.64, -7817.37, 0.00, 0.00, 0.00, 0.00, 0.00, 0.00, 0.00
153, 5185.90, 75034.47, 7068.05, 30996.97, -22712.14, -2825.31, 7194.27, -57280.79, -7852.84, 39777.12, 11005.64, -7817.37, 0.00, 0.00, 0.00, 0.00, 0.00, 0.00, 0.00
154, 5185.90, 75034.47, 7068.05, 30996.97, -22712.14, -2825.31, 7194.27, -57280.79, -7845.51, 39807.05, 11023.99, -7839.38, 0.00, 0.00, 0.00, 0.00, 0.00, 0.00, 0.00
155, 5182.48, 75031.23, 7063.82, 30991.03, -22711.12, -2828.68, 7188.90, -57282.87, -7845.51, 39807.05, 11023.99, -7839.38, 0.00, 0.00, 0.00, 0.00, 0.00, 0.00, 0.00
156, 5182.48, 75031.23, 7063.82, 30991.03, -22711.12, -2828.68, 7188.90, -57282.87, -7850.60, 39781.84, 11002.53, -7812.63, 0.00, 0.00, 0.00, 0.00, 0.00, 0.00, 0.00
157, 5182.41, 75031.14, 7064.89, 30995.56, -22709.46, -2825.82, 7193.06, -57278.67, -7850.60, 39781.84, 11002.53, -7812.63, 0.00, 0.00, 0.00, 0.00, 0.00, 0.00, 0.00
158, 5182.41, 75031.14, 7064.89, 30995.56, -22709.46, -2825.82, 7193.06, -57278.67, -7843.94, 39805.37, 11022.74, -7841.01, 0.00, 0.00, 0.00, 0.00, 0.00, 0.00, 0.00
159, 5183.57, 75027.25, 7060.83, 30990.78, -22711.18, -2828.97, 7189.04, -57282.38, -7843.94, 39805.37, 11022.74, -7841.01, 0.00, 0.00, 0.00, 0.00, 0.00, 0.00, 0.00
160, 5183.57, 75027.25, 7060.83, 30990.78, -22711.18, -2828.97, 7189.04, -57282.38, -7850.36, 39783.98, 10998.31, -7812.18, 0.00, 0.00, 0.00, 0.00, -0.01, 0.40, 0.93
161, 5182.94, 75029.15, 7061.83, 30993.38, -22712.17, -2828.52, 7190.40, -57280.99, -7850.36, 39783.98, 10998.31, -7812.18, 0.00, 0.00, 0.00, 0.00, 0.00, 0.00, 0.00
162, 5182.94, 75029.15, 7061.83, 30993.38, -22712.17, -2828.52, 7190.40, -57280.99, -7848.77, 39803.83, 11013.40, -7844.70, 0.00, 0.00, 0.00, 0.00, 0.00, 0.00, 0.00
163, 5179.68, 75024.99, 7058.66, 30990.98, -22711.96, -2830.98, 7186.87, -57284.08, -7848.77, 39803.83, 11013.40, -7844.70, 0.00, 0.00, 0.00, 0.00, 0.00, 0.00, 0.00
164, 5179.68, 75024.99, 7058.66, 30990.98, -22711.96, -2830.98, 7186.87, -57284.08, -7854.81, 39778.50, 10993.12, -7814.24, 0.00, 0.00, 0.00, 0.00, 0.00, 0.00, 0.00
165, 5176.69, 75025.70, 7056.33, 30987.36, -22713.28, -2833.06, 7185.33, -57284.28, -7854.81, 39778.50, 10993.12, -7814.24, 0.00, 0.00, 0.00, 0.00, 0.00, 0.00, 0.00
166, 5176.69, 75025.70, 7056.33, 30987.36, -22713.28, -2833.06, 7185.33, -57284.28, -7844.37, 39808.70, 11010.45, -7840.50, 0.00, 0.00, 0.00, 0.00, 0.00, 0.00, 0.00
167, 5183.08, 75035.36, 7065.32, 30996.30, -22702.78, -2824.55, 7194.65, -57274.29, -7844.37, 39808.70, 11010.45, -7840.50, 0.00, 0.00, 0.00, 0.00, 0.00, 0.00, 0.00
168, 5183.08, 75035.36, 7065.32, 30996.30, -22702.78, -2824.55, 7194.65, -57274.29, -7850.69, 39785.54, 10996.72, -7810.08, 0.00, 0.00, 0.00, 0.00, 0.00, 0.00, 0.00
169, 5177.47, 75024.03, 7057.45, 30988.90, -22710.06, -2832.12, 7186.51, -57283.59, -7850.69, 39785.54, 10996.72, -7810.08, 0.00, 0.00, 0.00, 0.00, 0.00, 0.00, 0.00
170, 5177.47, 75024.03, 7057.45, 30988.90, -22710.06, -2832.12, 7186.51, -57283.59, -7844.39, 39809.82, 11011.41, -7833.15, 0.00, 0.00, 0.00, 0.00, -0.01, 0.40, 0.92
171, 5181.54, 75032.86, 7064.78, 30997.04, -22701.57, -2825.13, 7196.59, -57272.57, -7844.39, 39809.82, 11011.41, -7833.15, 0.00, 0.00, 0.00, 0.00, 0.00, 0.00, 0.00
172, 5181.54, 75032.86, 7064.78, 30997.04, -22701.57, -2825.13, 7196.59, -57272.57, -7848.01, 39787.33, 10996.59, -7808.27, 0.00, 0.00, 0.00, 0.00, 0.00, 0.00, 0.00
173, 5177.33, 75026.51, 7057.09, 30985.57, -22708.28, -2835.07, 7185.24, -57286.22, -7848.01, 39787.33, 10996.59, -7808.27, 0.00, 0.00, 0.00, 0.00, 0.00, 0.00, 0.00
174, 5177.33, 75026.51, 7057.09, 30985.57, -22708.28, -2835.07, 7185.24, -57286.22, -7841.64, 39801.44, 11013.84, -7833.95, 0.00, 0.00, 0.00, 0.00, 0.00, 0.00, 0.00
175, 5189.29, 75041.94, 7068.76, 31000.37, -22694.87, -2824.95, 7197.84, -57274.96, -7841.64, 39801.44, 11013.84, -7833.95, 0.00, 0.00, 0.00, 0.00, 0.00, 0.00, 0.00
176, 5189.29, 75041.94, 7068.76, 31000.37, -22694.87, -2824.95, 7197.84, -57274.96, -7846.13, 39786.62, 11002.67, -7822.06, 0.00, 0.00, 0.00, 0.00, 0.00, 0.00, 0.00
177, 5177.54, 75028.16, 7055.19, 30982.56, -22706.96, -2838.49, 7182.53, -57288.43, -7846.13, 39786.62, 11002.67, -7822.06, 0.00, 0.00, 0.00, 0.00, 0.00, 0.00, 0.00
178, 5177.54, 75028.16, 7055.19, 30982.56, -22706.96, -2838.49, 7182.53, -57288.43, -7841.77, 39798.13, 11011.41, -7834.44, 0.00, 0.00, 0.00, 0.00, 0.00, 0.00, 0.00
179, 5189.49, 75044.39, 7070.46, 31001.71, -22689.77, -2823.36, 7200.82, -57271.79, -7841.77, 39798.13, 11011.41, -7834.44, 0.00, 0.00, 0.00, 0.00, 0.00, 0.00, 0.00
180, 5189.49, 75044.39, 7070.46, 31001.71, -22689.77, -2823.36, 7200.82, -57271.79, -7842.33, 39794.20, 11005.01, -7817.90, 0.00, 0.00, 0.00, 0.00, -0.01, 0.40, 0.93
181, 5173.51, 75019.56, 7050.68, 30982.40, -22704.88, -2839.30, 7181.12, -57288.35, -7842.33, 39794.20, 11005.01, -7817.90, 0.00, 0.00, 0.00, 0.00, 0.00, 0.00, 0.00
182, 5173.51, 75019.56, 7050.68, 30982.40, -22704.88, -2839.30, 7181.12, -57288.35, -7841.08, 39796.92, 11003.52, -7829.30, 0.00, 0.00, 0.00, 0.00, 0.00, 0.00, 0.00
183, 5187.86, 75037.53, 7068.87, 31003.72, -22689.17, -2823.20, 7201.35, -57270.82, -7841.08, 39796.92, 11003.52, -7829.30, 0.00, 0.00, 0.00, 0.00, 0.00, 0.00, 0.00
184, 5187.86, 75037.53, 7068.87, 31003.72, -22689.17, -2823.20, 7201.35, -57270.82, -7843.25, 39790.71, 11003.56, -7822.51, 0.00, 0.00, 0.00, 0.00, 0.00, 0.00, 0.00
185, 5171.03, 75014.15, 7049.05, 30981.08, -22707.03, -2840.73, 7178.73, -57292.64, -7843.25, 39790.71, 11003.56, -7822.51, 0.00, 0.00, 0.00, 0.00, 0.00, 0.00, 0.00
186, 5171.03, 75014.15, 7049.05, 30981.08, -22707.03, -2840.73, 7178.73, -57292.64, -7843.07, 39790.30, 10992.61, -7826.78, 0.00, 0.00, 0.00, 0.00, 0.00, 0.00, 0.00
187, 5182.61, 75035.18, 7065.83, 30999.52, -22687.69, -2826.33, 7199.88, -57272.45, -7843.07, 39790.30, 10992.61, -7826.78, 0.00, 0.00, 0.00, 0.00, 0.00, 0.00, 0.00
188, 5182.61, 75035.18, 7065.83, 30999.52, -22687.69, -2826.33, 7199.88, -57272.45, -7834.00, 39801.39, 11012.01, -7826.91, 0.00, 0.00, 0.00, 0.00, 0.00, 0.00, 0.00
189, 5168.35, 75019.11, 7054.10, 30984.61, -22696.34, -2838.67, 7185.01, -57286.58, -7834.00, 39801.39, 11012.01, -7826.91, 0.00, 0.00, 0.00, 0.00, -0.01, 0.40, 0.93
190, 5168.35, 75019.11, 7054.10, 30984.61, -22696.34, -2838.67, 7185.01, -57286.58, -7836.25, 39793.86, 11003.79, -7816.27, 0.00, 0.00, 0.00, 0.00, 0.00, 0.00, 0.00
191, 5183.19, 75036.15, 7067.38, 31000.77, -22683.85, -2826.00, 7201.84, -57272.48, -7836.25, 39793.86, 11003.79, -7816.27, 0.00, 0.00, 0.00, 0.00, 0.00, 0.00, 0.00
192, 5183.19, 75036.15, 7067.38, 31000.77, -22683.85, -2826.00, 7201.84, -57272.48, -7838.94, 39798.06, 11014.31, -7832.72, 0.00, 0.00, 0.00, 0.00, 0.00, 0.00, 0.00
193, 5170.96, 75020.30, 7051.66, 30981.15, -22697.19, -2842.52, 7181.57, -57291.34, -7838.94, 39798.06, 11014.31, -7832.72, 0.00, 0.00, 0.00, 0.00, 0.00, 0.00, 0.00
194, 5170.96, 75020.30, 7051.66, 30981.15, -22697.19, -2842.52, 7181.57, -57291.34, -7836.68, 39788.61, 10999.29, -7818.33, 0.00, 0.00, 0.00, 0.00, 0.00, 0.00, 0.00
195, 5180.84, 75035.02, 7065.39, 30997.49, -22683.85, -2829.13, 7199.21, -57274.27, -7836.68, 39788.61, 10999.29, -7818.33, 0.00, 0.00, 0.00, 0.00, 0.00, 0.00, 0.00
196, 5180.84, 75035.02, 7065.39, 30997.49, -22683.85, -2829.13, 7199.21, -57274.27, -7833.44, 39807.43, 11014.67, -7829.88, 0.00, 0.00, 0.00, 0.00, 0.00, 0.00, 0.00
197, 5171.30, 75022.76, 7053.50, 30984.17, -22689.61, -2837.31, 7187.14, -57284.50, -7833.44, 39807.43, 11014.67, -7829.88, 0.00, 0.00, 0.00, 0.00, 0.00, 0.00, 0.00
198, 5171.30, 75022.76, 7053.50, 30984.17, -22689.61, -2837.31, 7187.14, -57284.50, -7837.33, 39784.76, 10993.73, -7814.57, 0.00, 0.00, 0.00, 0.00, 0.00, 0.00, 0.00
199, 5175.95, 75032.59, 7059.51, 30993.31, -22682.55, -2831.05, 7197.51, -57274.29, -7837.33, 39784.76, 10993.73, -7814.57, 0.00, 0.00, 0.00, 0.00, -0.01, 0.41, 0.93
200, 5175.95, 75032.59, 7059.51, 30993.31, -22682.55, -2831.05, 7197.51, -57274.29, -7832.48, 39808.21, 11013.26, -7834.58, 0.00, 0.00, 0.00, 0.00, 0.00, 0.00, 0.00
201, 5171.50, 75023.07, 7052.20, 30983.76, -22686.75, -2835.65, 7189.51, -57281.82, -7832.48, 39808.21, 11013.26, -7834.58, 0.00, 0.00, 0.00, 0.00, 0.00, 0.00, 0.00
202, 5171.50, 75023.07, 7052.20, 30983.76, -22686.75, -2835.65, 7189.51, -57281.82, -7831.89, 39791.60, 10997.53, -7804.74, 0.00, 0.00, 0.00, 0.00, 0.00, 0.00, 0.00
203, 5178.81, 75034.29, 7062.55, 30996.06, -22678.44, -2828.55, 7200.39, -57270.26, -7831.89, 39791.60, 10997.53, -7804.74, 0.00, 0.00, 0.00, 0.00, 0.00, 0.00, 0.00
204, 5178.81, 75034.29, 7062.55, 30996.06, -22678.44, -2828.55, 7200.39, -57270.26, -7831.18, 39813.46, 11015.95, -7831.22, 0.00, 0.00, 0.00, 0.00, 0.00, 0.00, 0.00
205, 5178.47, 75032.05, 7059.82, 30987.74, -22679.73, -2834.09, 7193.82, -57277.04, -7831.18, 39813.46, 11015.95, -7831.22, 0.00, 0.00, 0.00, 0.00, 0.00, 0.00, 0.00
206, 5178.47, 75032.05, 7059.82, 30987.74, -22679.73, -2834.09, 7193.82, -57277.04, -7832.74, 39789.57, 10994.42, -7799.84, 0.00, 0.00, 0.00, 0.00, 0.00, 0.00, 0.00
207, 5178.27, 75035.88, 7061.83, 30992.64, -22677.28, -2832.77, 7197.06, -57273.08, -7832.74, 39789.57, 10994.42, -7799.84, 0.00, 0.00, 0.00, 0.00, 0.00, 0.00, 0.00
208, 5178.27, 75035.88, 7061.83, 30992.64, -22677.28, -2832.77, 7197.06, -57273.08, -7825.64, 39816.59, 11020.80, -7831.40, 0.00, 0.00, 0.00, 0.00, 0.00, 0.00, 0.00
209, 5173.51, 75028.21, 7059.26, 30989.37, -22674.41, -2832.19, 7197.82, -57272.88, -7825.64, 39816.59, 11020.80, -7831.40, 0.00, 0.00, 0.00, 0.00, -0.01, 0.41, 0.93
210, 5173.51, 75028.21, 7059.26, 30989.37, -22674.41, -2832.19, 7197.82, -57272.88, -7831.83, 39793.41, 10997.62, -7798.05, 0.00, 0.00, 0.00, 0.00, 0.00, 0.00, 0.00
211, 5170.41, 75026.91, 7057.90, 30990.20, -22676.00, -2834.36, 7196.70, -57276.61, -7831.83, 39793.41, 10997.62, -7798.05, 0.00, 0.00, 0.00, 0.00, 0.00, 0.00, 0.00
212, 5170.41, 75026.91, 7057.90, 30990.20, -22676.00, -2834.36, 7196.70, -57276.61, -7825.26, 39815.34, 11018.67, -7827.83, 0.00, 0.00, 0.00, 0.00, 0.00, 0.00, 0.00
213, 5178.88, 75034.76, 7064.78, 30997.40, -22667.53, -2829.02, 7202.56, -57270.42, -7825.26, 39815.34, 11018.67, -7827.83, 0.00, 0.00, 0.00, 0.00, 0.00, 0.00, 0.00
214, 5178.88, 75034.76, 7064.78, 30997.40, -22667.53, -2829.02, 7202.56, -57270.42, -7826.33, 39797.35, 10999.99, -7797.74, 0.00, 0.00, 0.00, 0.00, 0.00, 0.00, 0.00
215, 5173.89, 75026.94, 7058.28, 30990.04, -22672.16, -2834.42, 7196.95, -57274.71, -7826.33, 39797.35, 10999.99, -7797.74, 0.00, 0.00, 0.00, 0.00, 0.00, 0.00, 0.00
216, 5173.89, 75026.94, 7058.28, 30990.04, -22672.16, -2834.42, 7196.95, -57274.71, -7825.37, 39818.94, 11016.08, -7826.60, 0.00, 0.00, 0.00, 0.00, 0.00, 0.00, 0.00
217, 5181.78, 75035.81, 7065.50, 31000.71, -22664.13, -2827.21, 7204.88, -57267.22, -7825.37, 39818.94, 11016.08, -7826.60, 0.00, 0.00, 0.00, 0.00, 0.00, 0.00, 0.00
218, 5181.78, 75035.81, 7065.50, 31000.71, -22664.13, -2827.21, 7204.88, -57267.22, -7827.36, 39795.52, 11000.48, -7800.04, 0.00, 0.00, 0.00, 0.00, 0.00, 0.00, 0.00
219, 5172.91, 75032.03, 7059.15, 30991.43, -22668.11, -2833.73, 7198.09, -57276.07, -7827.36, 39795.52, 11000.48, -7800.04, 0.00, 0.00, 0.00, 0.00, -0.01, 0.41, 0.93
220, 5172.91, 75032.03, 7059.15, 30991.43, -22668.11, -2833.73, 7198.09, -57276.07, -7820.81, 39818.16, 11020.84, -7822.48, 0.00, 0.00, 0.00, 0.00, 0.00, 0.00, 0.00
221, 5178.25, 75035.25, 7065.97, 31003.14, -22657.07, -2825.13, 7210.05, -57265.66, -7820.81, 39818.16, 11020.84, -7822.48, 0.00, 0.00, 0.00, 0.00, 0.00, 0.00, 0.00
222, 5178.25, 75035.25, 7065.97, 31003.14, -22657.07, -2825.13, 7210.05, -57265.66, -7824.88, 39804.61, 11003.56, -7793.74, 0.00, 0.00, 0.00, 0.00, 0.00, 0.00, 0.00
223, 5170.41, 75026.89, 7058.03, 30993.62, -22664.94, -2832.59, 7199.32, -57275.11, -7824.88, 39804.61, 11003.56, -7793.74, 0.00, 0.00, 0.00, 0.00, 0.00, 0.00, 0.00
224, 5170.41, 75026.89, 7058.03, 30993.62, -22664.94, -2832.59, 7199.32, -57275.11, -7817.86, 39818.07, 11014.72, -7817.84, 0.00, 0.00, 0.00, 0.00, 0.00, 0.00, 0.00
225, 5184.08, 75036.66, 7069.63, 31008.39, -22653.02, -2822.11, 7214.00, -57262.20, -7817.86, 39818.07, 11014.72, -7817.84, 0.00, 0.00, 0.00, 0.00, 0.00, 0.00, 0.00
226, 5184.08, 75036.66, 7069.63, 31008.39, -22653.02, -2822.11, 7214.00, -57262.20, -7826.89, 39802.84, 11003.72, -7804.22, 0.00, 0.00, 0.00, 0.00, 0.00, 0.00, 0.00
227, 5170.49, 75018.22, 7050.52, 30987.16, -22670.03, -2839.12, 7192.50, -57283.52, -7826.89, 39802.84, 11003.72, -7804.22, 0.00, 0.00, 0.00, 0.00, 0.00, 0.00, 0.00
228, 5170.49, 75018.22, 7050.52, 30987.16, -22670.03, -2839.12, 7192.50, -57283.52, -7826.11, 39812.39, 11007.00, -7813.25, 0.00, 0.00, 0.00, 0.00, -0.02, 0.41, 0.92
229, 5187.08, 75041.27, 7072.47, 31010.43, -22648.24, -2819.16, 7219.10, -57258.28, -7826.11, 39812.39, 11007.00, -7813.25, 0.00, 0.00, 0.00, 0.00, 0.00, 0.00, 0.00
230, 5187.08, 75041.27, 7072.47, 31010.43, -22648.24, -2819.16, 7219.10, -57258.28, -7821.88, 39809.24, 11010.18, -7805.77, 0.00, 0.00, 0.00, 0.00, 0.00, 0.00, 0.00
231, 5170.76, 75021.03, 7053.47, 30990.87, -22665.12, -2837.78, 7194.60, -57281.42, -7821.88, 39809.24, 11010.18, -7805.77, 0.00, 0.00, 0.00, 0.00, 0.00, 0.00, 0.00
232, 5170.76, 75021.03, 7053.47, 30990.87, -22665.12, -2837.78, 7194.60, -57281.42, -7826.53, 39803.56, 11002.91, -7816.34, 0.00, 0.00, 0.00, 0.00, 0.00, 0.00, 0.00
233, 5178.65, 75033.38, 7065.27, 31002.18, -22652.67, -2826.60, 7211.05, -57266.96, -7826.53, 39803.56, 11002.91, -7816.34, 0.00, 0.00, 0.00, 0.00, 0.00, 0.00, 0.00
234, 5178.65, 75033.38, 7065.27, 31002.18, -22652.67, -2826.60, 7211.05, -57266.96, -7826.80, 39806.42, 11006.96, -7812.20, 0.00, 0.00, 0.00, 0.00, 0.00, 0.00, 0.00
235, 5167.10, 75020.32, 7051.82, 30988.86, -22662.08, -2837.82, 7194.89, -57282.94, -7826.80, 39806.42, 11006.96, -7812.20, 0.00, 0.00, 0.00, 0.00, 0.00, 0.00, 0.00
236, 5167.10, 75020.32, 7051.82, 30988.86, -22662.08, -2837.82, 7194.89, -57282.94, -7824.90, 39802.87, 10999.38, -7813.99, 0.00, 0.00, 0.00, 0.00, 0.00, 0.00, 0.00
237, 5178.41, 75036.97, 7067.55, 31007.08, -22646.12, -2824.48, 7215.68, -57264.86, -7824.90, 39802.87, 10999.38, -7813.99, 0.00, 0.00, 0.00, 0.00, 0.00, 0.00, 0.00
238, 5178.41, 75036.97, 7067.55, 31007.08, -22646.12, -2824.48, 7215.68, -57264.86, -7821.43, 39812.77, 11011.00, -7815.31, 0.00, 0.00, 0.00, 0.00, -0.02, 0.41, 0.92
239, 5173.15, 75026.40, 7057.00, 30991.94, -22654.32, -2836.79, 7200.57, -57277.66, -7821.43, 39812.77, 11011.00, -7815.31, 0.00, 0.00, 0.00, 0.00, 0.00, 0.00, 0.00
240, 5173.15, 75026.40, 7057.00, 30991.94, -22654.32, -2836.79, 7200.57, -57277.66, -7824.81, 39800.99, 11000.12, -7804.27, 0.00, 0.00, 0.00, 0.00, 0.00, 0.00, 0.00
241, 5177.92, 75038.63, 7067.78, 31008.08, -22639.68, -2823.63, 7219.68, -57262.06, -7824.81, 39800.99, 11000.12, -7804.27, 0.00, 0.00, 0.00, 0.00, 0.00, 0.00, 0.00
242, 5177.92, 75038.63, 7067.78, 31008.08, -22639.68, -2823.63, 7219.68, -57262.06, -7810.55, 39823.88, 11019.86, -7812.60, 0.00, 0.00, 0.00, 0.00, 0.00, 0.00, 0.00
243, 5168.57, 75024.21, 7056.53, 30990.87, -22647.52, -2836.01, 7204.12, -57275.56, -7810.55, 39823.88, 11019.86, -7812.60, 0.00, 0.00, 0.00, 0.00, 0.00, 0.00, 0.00
244, 5168.57, 75024.21, 7056.53, 30990.87, -22647.52, -2836.01, 7204.12, -57275.56, -7821.10, 39800.45, 10998.00, -7799.73, 0.00, 0.00, 0.00, 0.00, 0.00, 0.00, 0.00
245, 5174.14, 75034.89, 7063.24, 31001.94, -22641.67, -2830.13, 7213.76, -57268.81, -7821.10, 39800.45, 10998.00, -7799.73, 0.00, 0.00, 0.00, 0.00, 0.00, 0.00, 0.00
246, 5174.14, 75034.89, 7063.24, 31001.94, -22641.67, -2830.13, 7213.76, -57268.81, -7820.88, 39812.90, 11016.95, -7823.47, 0.00, 0.00, 0.00, 0.00, 0.00, 0.00, 0.00
247, 5169.65, 75026.78, 7057.29, 30990.76, -22644.64, -2838.58, 7204.17, -57277.95, -7820.88, 39812.90, 11016.95, -7823.47, 0.00, 0.00, 0.00, 0.00, 0.00, 0.00, 0.00
248, 5169.65, 75026.78, 7057.29, 30990.76, -22644.64, -2838.58, 7204.17, -57277.95, -7820.50, 39796.34, 11000.54, -7800.56, 0.00, 0.00, 0.00, 0.00, -0.02, 0.41, 0.93
249, 5169.78, 75031.27, 7059.53, 30996.33, -22642.41, -2834.78, 7210.69, -57272.97, -7820.50, 39796.34, 11000.54, -7800.56, 0.00, 0.00, 0.00, 0.00, 0.00, 0.00, 0.00
250, 5169.78, 75031.27, 7059.53, 30996.33, -22642.41, -2834.78, 7210.69, -57272.97, -7814.86, 39818.85, 11016.64, -7824.05, 0.00, 0.00, 0.00, 0.00, 0.00, 0.00, 0.00
251, 5173.83, 75030.00, 7060.94, 30997.87, -22636.46, -2833.58, 7209.64, -57273.23, -7814.86, 39818.85, 11016.64, -7824.05, 0.00, 0.00, 0.00, 0.00, 0.00, 0.00, 0.00
252, 5173.83, 75030.00, 7060.94, 30997.87, -22636.46, -2833.58, 7209.64, -57273.23, -7815.24, 39797.97, 11000.14, -7794.23, 0.00, 0.00, 0.00, 0.00, 0.00, 0.00, 0.00
253, 5176.37, 75034.58, 7064.96, 31003.01, -22633.26, -2830.96, 7215.03, -57269.82, -7815.24, 39797.97, 11000.14, -7794.23, 0.00, 0.00, 0.00, 0.00, 0.00, 0.00, 0.00
254, 5176.37, 75034.58, 7064.96, 31003.01, -22633.26, -2830.96, 7215.03, -57269.82, -7815.78, 39818.92, 11016.75, -7828.83, 0.00, 0.00, 0.00, 0.00, 0.00, 0.00, 0.00
255, 5171.61, 75028.43, 7060.56, 30996.46, -22634.02, -2834.51, 7210.47, -57274.06, -7815.78, 39818.92, 11016.75, -7828.83, 0.00, 0.00, 0.00, 0.00, 0.00, 0.00, 0.00
0, 5171.61, 75028.43, 7060.56, 30996.46, -22634.02, -2834.51, 7210.47, -57274.06, -7818.95, 39796.79, 10997.44, -7796.11, 0.00, 0.00, 0.00, 0.00, 0.00, 0.00, 0.00
1, 5170.87, 75027.34, 7060.40, 30999.97, -22631.25, -2831.76, 7214.76, -57269.79, -7818.95, 39796.79, 10997.44, -7796.11, 0.00, 0.00, 0.00, 0.00, 0.00, 0.00, 0.00
2, 5170.87, 75027.34, 7060.40, 30999.97, -22631.25, -2831.76, 7214.76, -57269.79, -7818.19, 39822.83, 11018.52, -7822.77, 0.00, 0.00, 0.00, 0.00, -0.02, 0.40, 0.93
3, 5174.70, 75032.16, 7065.70, 31004.57, -22623.72, -2829.86, 7217.67, -57266.66, -7818.19, 39822.83, 11018.52, -7822.77, 0.00, 0.00, 0.00, 0.00, 0.00, 0.00, 0.00
4, 5174.70, 75032.16, 7065.70, 31004.57, -22623.72, -2829.86, 7217.67, -57266.66, -7821.10, 39799.78, 11000.59, -7792.71, 0.00, 0.00, 0.00, 0.00, 0.00, 0.00, 0.00
5, 5169.76, 75026.65, 7058.23, 30997.62, -22630.47, -2836.91, 7211.23, -57274.84, -7821.10, 39799.78, 11000.59, -7792.71, 0.00, 0.00, 0.00, 0.00, 0.00, 0.00, 0.00
6, 5169.76, 75026.65, 7058.23, 30997.62, -22630.47, -2836.91, 7211.23, -57274.84, -7822.98, 39814.98, 11008.95, -7826.53, 0.00, 0.00, 0.00, 0.00, 0.00, 0.00, 0.00
7, 5167.66, 75024.95, 7056.27, 30998.85, -22626.56, -2835.32, 7214.03, -57270.60, -7822.98, 39814.98, 11008.95, -7826.53, 0.00, 0.00, 0.00, 0.00, 0.00, 0.00, 0.00
8, 5167.66, 75024.95, 7056.27, 30998.85, -22626.56, -2835.32, 7214.03, -57270.60, -7823.11, 39794.89, 10994.91, -7798.03, 0.00, 0.00, 0.00, 0.00, 0.00, 0.00, 0.00
9, 5165.04, 75023.07, 7055.40, 30995.07, -22627.23, -2837.71, 7211.23, -57273.84, -7823.11, 39794.89, 10994.91, -7798.03, 0.00, 0.00, 0.00, 0.00, 0.00, 0.00, 0.00
10, 5165.04, 75023.07, 7055.40, 30995.07, -22627.23, -2837.71, 7211.23, -57273.84, -7814.68, 39819.09, 11015.30, -7823.78, 0.00, 0.00, 0.00, 0.00, 0.00, 0.00, 0.00
11, 5172.48, 75035.36, 7065.99, 31005.38, -22613.39, -2828.41, 7224.20, -57261.88, -7814.68, 39819.09, 11015.30, -7823.78, 0.00, 0.00, 0.00, 0.00, -0.01, 0.41, 0.93
12, 5172.48, 75035.36, 7065.99, 31005.38, -22613.39, -2828.41, 7224.20, -57261.88, -7816.63, 39805.13, 11001.82, -7793.16, 0.00, 0.00, 0.00, 0.00, 0.00, 0.00, 0.00
13, 5165.00, 75020.79, 7055.10, 30994.25, -22620.14, -2838.27, 7212.68, -57273.04, -7816.63, 39805.13, 11001.82, -7793.16, 0.00, 0.00, 0.00, 0.00, 0.00, 0.00, 0.00
14, 5165.00, 75020.79, 7055.10, 30994.25, -22620.14, -2838.27, 7212.68, -57273.04, -7814.91, 39816.75, 11013.35, -7823.22, 0.00, 0.00, 0.00, 0.00, 0.00, 0.00, 0.00
15, 5171.14, 75031.23, 7065.63, 31009.02, -22608.74, -2829.86, 7226.30, -57259.78, -7814.91, 39816.75, 11013.35, -7823.22, 0.00, 0.00, 0.00, 0.00, 0.00, 0.00, 0.00
16, 5171.14, 75031.23, 7065.63, 31009.02, -22608.74, -2829.86, 7226.30, -57259.78, -7814.17, 39806.55, 11006.92, -7798.23, 0.00, 0.00, 0.00, 0.00, 0.00, 0.00, 0.00
17, 5165.87, 75021.91, 7056.65, 30997.15, -22615.38, -2838.07, 7215.37, -57271.18, -7814.17, 39806.55, 11006.92, -7798.23, 0.00, 0.00, 0.00, 0.00, 0.00, 0.00, 0.00
18, 5165.87, 75021.91, 7056.65, 30997.15, -22615.38, -2838.07, 7215.37, -57271.18, -7808.58, 39818.94, 11014.20, -7815.02, 0.00, 0.00, 0.00, 0.00, 0.00, 0.00, 0.00
19, 5171.99, 75033.10, 7066.37, 31010.76, -22603.89, -2829.10, 7227.82, -57260.07, -7808.58, 39818.94, 11014.20, -7815.02, 0.00, 0.00, 0.00, 0.00, 0.00, 0.00, 0.00
20, 5171.99, 75033.10, 7066.37, 31010.76, -22603.89, -2829.10, 7227.82, -57260.07, -7816.23, 39807.50, 11003.81, -7802.66, 0.00, 0.00, 0.00, 0.00, 0.00, 0.00, 0.00
21, 5162.83, 75014.15, 7052.78, 30997.04, -22616.05, -2839.74, 7212.30, -57276.03, -7816.23, 39807.50, 11003.81, -7802.66, 0.00, 0.00, 0.00, 0.00, -0.01, 0.40, 0.92
22, 5162.83, 75014.15, 7052.78, 30997.04, -22616.05, -2839.74, 7212.30, -57276.03, -7814.80, 39811.32, 10999.81, -7814.80, 0.00, 0.00, 0.00, 0.00, 0.00, 0.00, 0.00
23, 5169.27, 75028.39, 7064.47, 31011.70, -22603.02, -2827.16, 7229.96, -57260.27, -7814.80, 39811.32, 10999.81, -7814.80, 0.00, 0.00, 0.00, 0.00, 0.00, 0.00, 0.00
24, 5169.27, 75028.39, 7064.47, 31011.70, -22603.02, -2827.16, 7229.96, -57260.27, -7815.18, 39809.82, 11004.43, -7805.23, 0.00, 0.00, 0.00, 0.00, 0.00, 0.00, 0.00
25, 5158.00, 75014.09, 7050.61, 30994.18, -22613.17, -2841.44, 7213.35, -57275.09, -7815.18, 39809.82, 11004.43, -7805.23, 0.00, 0.00, 0.00, 0.00, 0.00, 0.00, 0.00
26, 5158.00, 75014.09, 7050.61, 30994.18, -22613.17, -2841.44, 7213.35, -57275.09, -7809.36, 39809.42, 11005.84, -7811.71, 0.00, 0.00, 0.00, 0.00, 0.00, 0.00, 0.00
27, 5174.16, 75037.59, 7070.84, 31014.63, -22593.95, -2826.76, 7234.88, -57255.80, -7809.36, 39809.42, 11005.84, -7811.71, 0.00, 0.00, 0.00, 0.00, 0.00, 0.00, 0.00
28, 5174.16, 75037.59, 7070.84, 31014.63, -22593.95, -2826.76, 7234.88, -57255.80, -7807.49, 39815.77, 11015.27, -7808.85, 0.00, 0.00, 0.00, 0.00, 0.00, 0.00, 0.00
29, 5163.21, 75020.34, 7053.43, 30994.27, -22606.67, -2841.38, 7215.28, -57275.34, -7807.49, 39815.77, 11015.27, -7808.85, 0.00, 0.00, 0.00, 0.00, 0.00, 0.00, 0.00
30, 5163.21, 75020.34, 7053.43, 30994.27, -22606.67, -2841.38, 7215.28, -57275.34, -7811.20, 39804.01, 10998.87, -7802.19, 0.00, 0.00, 0.00, 0.00, 0.00, 0.00, 0.00
31, 5171.63, 75028.52, 7064.13, 31011.28, -22596.56, -2828.84, 7233.56, -57261.12, -7811.20, 39804.01, 10998.87, -7802.19, 0.00, 0.00, 0.00, 0.00, -0.01, 0.40, 0.93
32, 5171.63, 75028.52, 7064.13, 31011.28, -22596.56, -2828.84, 7233.56, -57261.12, -7810.93, 39816.19, 11004.28, -7813.07, 0.00, 0.00, 0.00, 0.00, 0.00, 0.00, 0.00
33, 5156.61, 75008.63, 7047.13, 30991.16, -22608.45, -2841.73, 7215.23, -57276.05, -7810.93, 39816.19, 11004.28, -7813.07, 0.00, 0.00, 0.00, 0.00, 0.00, 0.00, 0.00
34, 5156.61, 75008.63, 7047.13, 30991.16, -22608.45, -2841.73, 7215.23, -57276.05, -7814.64, 39803.02, 10984.83, -7804.80, 0.00, 0.00, 0.00, 0.00, 0.00, 0.00, 0.00
35, 5164.84, 75018.89, 7056.15, 31005.02, -22597.79, -2833.20, 7230.30, -57262.80, -7814.64, 39803.02, 10984.83, -7804.80, 0.00, 0.00, 0.00, 0.00, 0.00, 0.00, 0.00
36, 5164.84, 75018.89, 7056.15, 31005.02, -22597.79, -2833.20, 7230.30, -57262.80, -7812.07, 39816.52, 11006.33, -7816.90, 0.00, 0.00, 0.00, 0.00, 0.00, 0.00, 0.00
37, 5164.10, 75013.68, 7051.64, 30996.53, -22602.22, -2841.17, 7218.23, -57275.70, -7812.07, 39816.52, 11006.33, -7816.90, 0.00, 0.00, 0.00, 0.00, 0.00, 0.00, 0.00
38, 5164.10, 75013.68, 7051.64, 30996.53, -22602.22, -2841.17, 7218.23, -57275.70, -7813.79, 39801.14, 10988.16, -7795.89, 0.00, 0.00, 0.00, 0.00, 0.00, 0.00, 0.00
39, 5168.73, 75029.77, 7062.44, 31010.25, -22591.33, -2830.67, 7233.58, -57259.02, -7813.79, 39801.14, 10988.16, -7795.89, 0.00, 0.00, 0.00, 0.00, 0.00, 0.00, 0.00
40, 5168.73, 75029.77, 7062.44, 31010.25, -22591.33, -2830.67, 7233.58, -57259.02, -7807.49, 39822.85, 11007.09, -7817.37, 0.00, 0.00, 0.00, 0.00, 0.00, 0.00, 0.00
41, 5171.86, 75024.86, 7059.49, 31005.29, -22591.55, -2834.13, 7227.97, -57270.09, -7807.49, 39822.85, 11007.09, -7817.37, 0.00, 0.00, 0.00, 0.00, -0.02, 0.40, 0.93
42, 5171.86, 75024.86, 7059.49, 31005.29, -22591.55, -2834.13, 7227.97, -57270.09, -7804.80, 39809.04, 10996.28, -7789.69, 0.00, 0.00, 0.00, 0.00, 0.00, 0.00, 0.00
43, 5178.27, 75031.41, 7066.59, 31012.91, -22584.92, -2827.45, 7237.43, -57261.05, -7804.80, 39809.04, 10996.28, -7789.69, 0.00, 0.00, 0.00, 0.00, 0.00, 0.00, 0.00
44, 5178.27, 75031.41, 7066.59, 31012.91, -22584.92, -2827.45, 7237.43, -57261.05, -7802.21, 39827.01, 11011.85, -7818.06, 0.00, 0.00, 0.00, 0.00, 0.00, 0.00, 0.00
45, 5170.38, 75024.19, 7059.42, 31006.70, -22589.32, -2835.32, 7229.11, -57268.16, -7802.21, 39827.01, 11011.85, -7818.06, 0.00, 0.00, 0.00, 0.00, 0.00, 0.00, 0.00
46, 5170.38, 75024.19, 7059.42, 31006.70, -22589.32, -2835.32, 7229.11, -57268.16, -7806.41, 39802.13, 10988.41, -7788.93, 0.00, 0.00, 0.00, 0.00, 0.00, 0.00, 0.00
47, 5161.24, 75017.15, 7053.36, 31000.75, -22591.42, -2839.10, 7228.75, -57268.74, -7806.41, 39802.13, 10988.41, -7788.93, 0.00, 0.00, 0.00, 0.00, 0.00, 0.00, 0.00
48, 5161.24, 75017.15, 7053.36, 31000.75, -22591.42, -2839.10, 7228.75, -57268.74, -7805.16, 39824.50, 11004.21, -7818.98, 0.00, 0.00, 0.00, 0.00, 0.00, 0.00, 0.00
49, 5164.08, 75019.85, 7054.93, 31004.77, -22586.71, -2836.35, 7230.83, -57267.78, -7805.16, 39824.50, 11004.21, -7818.98, 0.00, 0.00, 0.00, 0.00, 0.00, 0.00, 0.00
50, 5164.08, 75019.85, 7054.93, 31004.77, -22586.71, -2836.35, 7230.83, -57267.78, -7804.42, 39804.07, 10992.95, -7787.68, 0.00, 0.00, 0.00, 0.00, -0.02, 0.40, 0.93
51, 5160.95, 75016.34, 7052.96, 31000.26, -22590.06, -2840.44, 7227.44, -57270.38, -7804.42, 39804.07, 10992.95, -7787.68, 0.00, 0.00, 0.00, 0.00, 0.00, 0.00, 0.00
52, 5160.95, 75016.34, 7052.96, 31000.26, -22590.06, -2840.44, 7227.44, -57270.38, -7804.29, 39824.50, 11006.38, -7820.09, 0.00, 0.00, 0.00, 0.00, 0.00, 0.00, 0.00
53, 5166.92, 75020.55, 7057.45, 31007.17, -22583.78, -2835.72, 7232.55, -57269.10, -7804.29, 39824.50, 11006.38, -7820.09, 0.00, 0.00, 0.00, 0.00, 0.00, 0.00, 0.00
54, 5166.92, 75020.55, 7057.45, 31007.17, -22583.78, -2835.72, 7232.55, -57269.10, -7808.02, 39801.50, 10993.55, -7790.52, 0.00, 0.00, 0.00, 0.00, 0.00, 0.00, 0.00
55, 5158.40, 75016.14, 7051.08, 30998.20, -22586.55, -2841.85, 7226.79, -57272.72, -7808.02, 39801.50, 10993.55, -7790.52, 0.00, 0.00, 0.00, 0.00, 0.00, 0.00, 0.00
56, 5158.40, 75016.14, 7051.08, 30998.20, -22586.55, -2841.85, 7226.79, -57272.72, -7803.31, 39823.23, 11006.24, -7821.12, 0.00, 0.00, 0.00, 0.00, 0.00, 0.00, 0.00
57, 5164.73, 75025.64, 7058.37, 31006.90, -22577.56, -2835.03, 7235.77, -57266.80, -7803.31, 39823.23, 11006.24, -7821.12, 0.00, 0.00, 0.00, 0.00, 0.00, 0.00, 0.00
58, 5164.73, 75025.64, 7058.37, 31006.90, -22577.56, -2835.03, 7235.77, -57266.80, -7804.83, 39800.70, 10994.84, -7796.00, 0.00, 0.00, 0.00, 0.00, 0.00, 0.00, 0.00
59, 5161.67, 75016.61, 7052.60, 30999.50, -22582.03, -2839.72, 7229.56, -57272.03, -7804.83, 39800.70, 10994.84, -7796.00, 0.00, 0.00, 0.00, 0.00, 0.00, 0.00, 0.00
60, 5161.67, 75016.61, 7052.60, 30999.50, -22582.03, -2839.72, 7229.56, -57272.03, -7794.32, 39828.06, 11013.62, -7810.06, 0.00, 0.00, 0.00, 0.00, -0.02, 0.40, 0.92
61, 5175.37, 75031.67, 7068.83, 31017.92, -22565.67, -2826.74, 7246.28, -57256.65, -7794.32, 39828.06, 11013.62, -7810.06, 0.00, 0.00, 0.00, 0.00, 0.00, 0.00, 0.00
62, 5175.37, 75031.67, 7068.83, 31017.92, -22565.67, -2826.74, 7246.28, -57256.65, -7799.37, 39812.88, 11002.18, -7790.75, 0.00, 0.00, 0.00, 0.00, 0.00, 0.00, 0.00
63, 5168.57, 75019.60, 7060.02, 31005.80, -22571.91, -2835.54, 7234.63, -57268.45, -7799.37, 39812.88, 11002.18, -7790.75, 0.00, 0.00, 0.00, 0.00, 0.00, 0.00, 0.00
64, 5168.57, 75019.60, 7060.02, 31005.80, -22571.91, -2835.54, 7234.63, -57268.45, -7794.92, 39822.92, 11012.77, -7816.40, 0.00, 0.00, 0.00, 0.00, 0.00, 0.00, 0.00
65, 5177.80, 75031.20, 7069.39, 31018.36, -22562.21, -2828.10, 7246.55, -57259.54, -7794.92, 39822.92, 11012.77, -7816.40, 0.00, 0.00, 0.00, 0.00, 0.00, 0.00, 0.00
66, 5177.80, 75031.20, 7069.39, 31018.36, -22562.21, -2828.10, 7246.55, -57259.54, -7798.75, 39810.89, 11000.95, -7796.04, 0.00, 0.00, 0.00, 0.00, 0.00, 0.00, 0.00
67, 5157.53, 75015.58, 7052.51, 30998.34, -22575.44, -2840.82, 7229.34, -57273.08, -7798.75, 39810.89, 11000.95, -7796.04, 0.00, 0.00, 0.00, 0.00, 0.00, 0.00, 0.00
68, 5157.53, 75015.58, 7052.51, 30998.34, -22575.44, -2840.82, 7229.34, -57273.08, -7796.09, 39824.04, 11005.95, -7808.22, 0.00, 0.00, 0.00, 0.00, 0.00, 0.00, 0.00
69, 5171.50, 75034.06, 7069.34, 31018.16, -22557.56, -2824.03, 7252.31, -57250.73, -7796.09, 39824.04, 11005.95, -7808.22, 0.00, 0.00, 0.00, 0.00, 0.00, 0.00, 0.00
70, 5171.50, 75034.06, 7069.34, 31018.16, -22557.56, -2824.03, 7252.31, -57250.73, -7790.72, 39826.07, 11004.81, -7789.43, 0.00, 0.00, 0.00, 0.00, -0.02, 0.40, 0.93
71, 5160.30, 75011.47, 7051.44, 31001.44, -22569.49, -2835.59, 7236.02, -57265.61, -7790.72, 39826.07, 11004.81, -7789.43, 0.00, 0.00, 0.00, 0.00, 0.00, 0.00, 0.00
72, 5160.30, 75011.47, 7051.44, 31001.44, -22569.49, -2835.59, 7236.02, -57265.61, -7791.08, 39826.88, 11000.14, -7793.56, 0.00, 0.00, 0.00, 0.00, 0.00, 0.00, 0.00
73, 5172.10, 75027.38, 7065.14, 31017.07, -22555.88, -2825.69, 7250.73, -57252.45, -7791.08, 39826.88, 11000.14, -7793.56, 0.00, 0.00, 0.00, 0.00, 0.00, 0.00, 0.00
74, 5172.10, 75027.38, 7065.14, 31017.07, -22555.88, -2825.69, 7250.73, -57252.45, -7797.16, 39822.63, 10998.18, -7797.03, 0.00, 0.00, 0.00, 0.00, 0.00, 0.00, 0.00
75, 5160.08, 75012.01, 7049.27, 30998.85, -22571.71, -2842.87, 7229.02, -57274.71, -7797.16, 39822.63, 10998.18, -7797.03, 0.00, 0.00, 0.00, 0.00, 0.00, 0.00, 0.00
76, 5160.08, 75012.01, 7049.27, 30998.85, -22571.71, -2842.87, 7229.02, -57274.71, -7800.36, 39810.15, 10996.16, -7806.21, 0.00, 0.00, 0.00, 0.00, 0.00, 0.00, 0.00
77, 5170.67, 75029.62, 7064.47, 31013.51, -22556.69, -2832.68, 7245.65, -57258.64, -7800.36, 39810.15, 10996.16, -7806.21, 0.00, 0.00, 0.00, 0.00, 0.00, 0.00, 0.00
78, 5170.67, 75029.62, 7064.47, 31013.51, -22556.69, -2832.68, 7245.65, -57258.64, -7796.15, 39821.11, 11008.48, -7806.30, 0.00, 0.00, 0.00, 0.00, 0.00, 0.00, 0.00
79, 5158.47, 75014.55, 7051.42, 30996.26, -22564.00, -2843.28, 7231.01, -57272.52, -7796.15, 39821.11, 11008.48, -7806.30, 0.00, 0.00, 0.00, 0.00, 0.00, 0.00, 0.00
80, 5158.47, 75014.55, 7051.42, 30996.26, -22564.00, -2843.28, 7231.01, -57272.52, -7797.34, 39810.87, 10993.73, -7795.75, 0.00, 0.00, 0.00, 0.00, -0.01, 0.40, 0.93
81, 5165.71, 75027.38, 7064.76, 31013.40, -22550.16, -2831.50, 7247.42, -57255.89, -7797.34, 39810.87, 10993.73, -7795.75, 0.00, 0.00, 0.00, 0.00, 0.00, 0.00, 0.00
82, 5165.71, 75027.38, 7064.76, 31013.40, -22550.16, -2831.50, 7247.42, -57255.89, -7791.42, 39827.63, 11014.65, -7808.43, 0.00, 0.00, 0.00, 0.00, 0.00, 0.00, 0.00
83, 5161.67, 75019.45, 7056.76, 31001.20, -22557.47, -2840.01, 7235.21, -57267.16, -7791.42, 39827.63, 11014.65, -7808.43, 0.00, 0.00, 0.00, 0.00, 0.00, 0.00, 0.00
84, 5161.67, 75019.45, 7056.76, 31001.20, -22557.47, -2840.01, 7235.21, -57267.16, -7793.99, 39812.34, 10997.35, -7793.49, 0.00, 0.00, 0.00, 0.00, 0.00, 0.00, 0.00
85, 5170.90, 75032.88, 7066.15, 31010.85, -22549.24, -2833.62, 7246.37, -57256.00, -7793.99, 39812.34, 10997.35, -7793.49, 0.00, 0.00, 0.00, 0.00, 0.00, 0.00, 0.00
86, 5170.90, 75032.88, 7066.15, 31010.85, -22549.24, -2833.62, 7246.37, -57256.00, -7793.85, 39826.61, 11014.67, -7813.86, 0.00, 0.00, 0.00, 0.00, 0.00, 0.00, 0.00
87, 5170.38, 75027.98, 7063.73, 31006.67, -22547.99, -2837.06, 7239.24, -57263.22, -7793.85, 39826.61, 11014.67, -7813.86, 0.00, 0.00, 0.00, 0.00, 0.00, 0.00, 0.00
88, 5170.38, 75027.98, 7063.73, 31006.67, -22547.99, -2837.06, 7239.24, -57263.22, -7794.84, 39809.91, 11000.75, -7784.67, 0.00, 0.00, 0.00, 0.00, 0.00, 0.00, 0.00
89, 5170.87, 75030.40, 7067.26, 31013.18, -22543.63, -2831.85, 7248.31, -57255.00, -7794.84, 39809.91, 11000.75, -7784.67, 0.00, 0.00, 0.00, 0.00, -0.01, 0.40, 0.93
90, 5170.87, 75030.40, 7067.26, 31013.18, -22543.63, -2831.85, 7248.31, -57255.00, -7787.59, 39834.74, 11019.72, -7808.67, 0.00, 0.00, 0.00, 0.00, 0.00, 0.00, 0.00
91, 5169.38, 75023.25, 7061.97, 31008.84, -22542.36, -2835.68, 7243.24, -57258.42, -7787.59, 39834.74, 11019.72, -7808.67, 0.00, 0.00, 0.00, 0.00, 0.00, 0.00, 0.00
92, 5169.38, 75023.25, 7061.97, 31008.84, -22542.36, -2835.68, 7243.24, -57258.42, -7794.08, 39808.90, 10996.37, -7785.49, 0.00, 0.00, 0.00, 0.00, 0.00, 0.00, 0.00
93, 5172.10, 75026.80, 7064.69, 31012.64, -22540.28, -2834.07, 7246.48, -57257.43, -7794.08, 39808.90, 10996.37, -7785.49, 0.00, 0.00, 0.00, 0.00, 0.00, 0.00, 0.00
94, 5172.10, 75026.80, 7064.69, 31012.64, -22540.28, -2834.07, 7246.48, -57257.43, -7789.14, 39832.44, 11019.50, -7811.35, 0.00, 0.00, 0.00, 0.00, 0.00, 0.00, 0.00
95, 5166.92, 75030.06, 7065.86, 31011.55, -22539.45, -2835.05, 7245.14, -57258.95, -7789.14, 39832.44, 11019.50, -7811.35, 0.00, 0.00, 0.00, 0.00, 0.00, 0.00, 0.00
96, 5166.92, 75030.06, 7065.86, 31011.55, -22539.45, -2835.05, 7245.14, -57258.95, -7791.97, 39809.26, 10998.20, -7785.87, 0.00, 0.00, 0.00, 0.00, 0.00, 0.00, 0.00
97, 5168.75, 75032.66, 7065.45, 31012.91, -22538.78, -2834.72, 7246.50, -57258.28, -7791.97, 39809.26, 10998.20, -7785.87, 0.00, 0.00, 0.00, 0.00, 0.00, 0.00, 0.00
98, 5168.75, 75032.66, 7065.45, 31012.91, -22538.78, -2834.72, 7246.50, -57258.28, -7790.23, 39832.15, 11019.12, -7815.87, 0.00, 0.00, 0.00, 0.00, 0.00, 0.00, 0.00
99, 5176.84, 75032.91, 7070.73, 31016.75, -22533.06, -2831.30, 7249.45, -57254.62, -7790.23, 39832.15, 11019.12, -7815.87, 0.00, 0.00, 0.00, 0.00, -0.02, 0.40, 0.93
100, 5176.84, 75032.91, 7070.73, 31016.75, -22533.06, -2831.30, 7249.45, -57254.62, -7786.70, 39816.34, 11005.69, -7779.01, 0.00, 0.00, 0.00, 0.00, 0.00, 0.00, 0.00
101, 5176.46, 75032.05, 7071.24, 31019.88, -22529.31, -2829.28, 7250.88, -57252.98, -7786.70, 39816.34, 11005.69, -7779.01, 0.00, 0.00, 0.00, 0.00, 0.00, 0.00, 0.00
102, 5176.46, 75032.05, 7071.24, 31019.88, -22529.31, -2829.28, 7250.88, -57252.98, -7782.18, 39839.95, 11026.88, -7805.85, 0.00, 0.00, 0.00, 0.00, 0.00, 0.00, 0.00
103, 5184.06, 75042.23, 7079.18, 31025.45, -22520.07, -2823.45, 7259.78, -57244.74, -7782.18, 39839.95, 11026.88, -7805.85, 0.00, 0.00, 0.00, 0.00, 0.00, 0.00, 0.00
104, 5184.06, 75042.23, 7079.18, 31025.45, -22520.07, -2823.45, 7259.78, -57244.74, -7785.36, 39822.38, 11012.30, -7771.48, 0.00, 0.00, 0.00, 0.00, 0.00, 0.00, 0.00
105, 5174.97, 75031.67, 7067.31, 31015.64, -22530.40, -2832.79, 7249.16, -57254.84, -7785.36, 39822.38, 11012.30, -7771.48, 0.00, 0.00, 0.00, 0.00, 0.00, 0.00, 0.00
106, 5174.97, 75031.67, 7067.31, 31015.64, -22530.40, -2832.79, 7249.16, -57254.84, -7781.51, 39841.78, 11026.27, -7806.28, 0.00, 0.00, 0.00, 0.00, 0.00, 0.00, 0.00
107, 5182.90, 75047.45, 7080.63, 31026.97, -22516.74, -2823.65, 7261.39, -57243.84, -7781.51, 39841.78, 11026.27, -7806.28, 0.00, 0.00, 0.00, 0.00, 0.00, 0.00, 0.00
108, 5182.90, 75047.45, 7080.63, 31026.97, -22516.74, -2823.65, 7261.39, -57243.84, -7788.89, 39817.46, 11011.47, -7778.79, 0.00, 0.00, 0.00, 0.00, 0.00, 0.00, 0.00
109, 5171.63, 75032.45, 7067.15, 31012.22, -22525.24, -2834.54, 7246.68, -57257.77, -7788.89, 39817.46, 11011.47, -7778.79, 0.00, 0.00, 0.00, 0.00, -0.01, 0.40, 0.93
110, 5171.63, 75032.45, 7067.15, 31012.22, -22525.24, -2834.54, 7246.68, -57257.77, -7780.89, 39838.43, 11022.38, -7798.39, 0.00, 0.00, 0.00, 0.00, 0.00, 0.00, 0.00
111, 5176.91, 75040.44, 7073.59, 31024.09, -22516.30, -2825.93, 7258.26, -57246.41, -7780.89, 39838.43, 11022.38, -7798.39, 0.00, 0.00, 0.00, 0.00, 0.00, 0.00, 0.00
112, 5176.91, 75040.44, 7073.59, 31024.09, -22516.30, -2825.93, 7258.26, -57246.41, -7787.10, 39822.78, 11008.28, -7779.41, 0.00, 0.00, 0.00, 0.00, 0.00, 0.00, 0.00
113, 5173.98, 75032.10, 7067.38, 31013.04, -22520.21, -2832.99, 7249.01, -57256.02, -7787.10, 39822.78, 11008.28, -7779.41, 0.00, 0.00, 0.00, 0.00, 0.00, 0.00, 0.00
114, 5173.98, 75032.10, 7067.38, 31013.04, -22520.21, -2832.99, 7249.01, -57256.02, -7780.02, 39838.18, 11023.46, -7792.47, 0.00, 0.00, 0.00, 0.00, 0.00, 0.00, 0.00
115, 5185.72, 75047.68, 7081.30, 31031.89, -22504.79, -2820.41, 7264.61, -57240.60, -7780.02, 39838.18, 11023.46, -7792.47, 0.00, 0.00, 0.00, 0.00, 0.00, 0.00, 0.00
116, 5185.72, 75047.68, 7081.30, 31031.89, -22504.79, -2820.41, 7264.61, -57240.60, -7781.63, 39828.59, 11015.92, -7780.24, 0.00, 0.00, 0.00, 0.00, 0.00, 0.00, 0.00
117, 5171.41, 75026.66, 7063.73, 31014.38, -22518.94, -2833.24, 7246.97, -57257.41, -7781.63, 39828.59, 11015.92, -7780.24, 0.00, 0.00, 0.00, 0.00, 0.00, 0.00, 0.00
118, 5171.41, 75026.66, 7063.73, 31014.38, -22518.94, -2833.24, 7246.97, -57257.41, -7782.50, 39834.27, 11011.32, -7787.37, 0.00, 0.00, 0.00, 0.00, 0.00, 0.00, 0.00
119, 5180.60, 75039.12, 7076.99, 31031.06, -22505.61, -2820.86, 7263.98, -57241.45, -7782.50, 39834.27, 11011.32, -7787.37, 0.00, 0.00, 0.00, 0.00, -0.01, 0.40, 0.93
120, 5180.60, 75039.12, 7076.99, 31031.06, -22505.61, -2820.86, 7263.98, -57241.45, -7784.29, 39832.19, 11013.26, -7783.66, 0.00, 0.00, 0.00, 0.00, 0.00, 0.00, 0.00
121, 5168.01, 75023.96, 7060.63, 31015.79, -22518.17, -2834.38, 7245.36, -57258.82, -7784.29, 39832.19, 11013.26, -7783.66, 0.00, 0.00, 0.00, 0.00, 0.00, 0.00, 0.00
122, 5168.01, 75023.96, 7060.63, 31015.79, -22518.17, -2834.38, 7245.36, -57258.82, -7782.03, 39829.45, 11010.69, -7790.28, 0.00, 0.00, 0.00, 0.00, 0.00, 0.00, 0.00
123, 5183.91, 75044.10, 7079.11, 31034.70, -22498.44, -2818.06, 7267.49, -57237.68, -7782.03, 39829.45, 11010.69, -7790.28, 0.00, 0.00, 0.00, 0.00, 0.00, 0.00, 0.00
124, 5183.91, 75044.10, 7079.11, 31034.70, -22498.44, -2818.06, 7267.49, -57237.68, -7779.41, 39838.36, 11019.77, -7781.00, 0.00, 0.00, 0.00, 0.00, 0.00, 0.00, 0.00
125, 5171.61, 75027.72, 7063.87, 31015.95, -22510.53, -2832.39, 7247.87, -57253.90, -7779.41, 39838.36, 11019.77, -7781.00, 0.00, 0.00, 0.00, 0.00, 0.00, 0.00, 0.00
126, 5171.61, 75027.72, 7063.87, 31015.95, -22510.53, -2832.39, 7247.87, -57253.90, -7779.03, 39831.16, 11011.03, -7776.71, 0.00, 0.00, 0.00, 0.00, 0.00, 0.00, 0.00
127, 5187.97, 75047.99, 7081.19, 31037.68, -22496.76, -2817.39, 7267.56, -57237.79, -7779.03, 39831.16, 11011.03, -7776.71, 0.00, 0.00, 0.00, 0.00, 0.00, 0.00, 0.00
128, 5187.97, 75047.99, 7081.19, 31037.68, -22496.76, -2817.39, 7267.56, -57237.79, -7778.45, 39840.22, 11021.02, -7788.58, 0.00, 0.00, 0.00, 0.00, -0.01, 0.40, 0.93
129, 5179.35, 75036.37, 7067.26, 31017.07, -22506.75, -2831.52, 7249.90, -57252.52, -7778.45, 39840.22, 11021.02, -7788.58, 0.00, 0.00, 0.00, 0.00, 0.00, 0.00, 0.00
130, 5179.35, 75036.37, 7067.26, 31017.07, -22506.75, -2831.52, 7249.90, -57252.52, -7778.79, 39830.45, 11009.96, -7768.97, 0.00, 0.00, 0.00, 0.00, 0.00, 0.00, 0.00
131, 5190.37, 75045.48, 7080.67, 31035.44, -22492.07, -2818.87, 7266.55, -57239.22, -7778.79, 39830.45, 11009.96, -7768.97, 0.00, 0.00, 0.00, 0.00, 0.00, 0.00, 0.00
132, 5190.37, 75045.48, 7080.67, 31035.44, -22492.07, -2818.87, 7266.55, -57239.22, -7781.63, 39839.17, 11021.40, -7794.28, 0.00, 0.00, 0.00, 0.00, 0.00, 0.00, 0.00
133, 5179.82, 75030.67, 7065.77, 31018.61, -22505.05, -2832.30, 7246.75, -57257.66, -7781.63, 39839.17, 11021.40, -7794.28, 0.00, 0.00, 0.00, 0.00, 0.00, 0.00, 0.00
134, 5179.82, 75030.67, 7065.77, 31018.61, -22505.05, -2832.30, 7246.75, -57257.66, -7787.59, 39818.67, 11002.85, -7780.24, 0.00, 0.00, 0.00, 0.00, 0.00, 0.00, 0.00
135, 5184.17, 75040.57, 7074.89, 31032.38, -22493.32, -2823.58, 7259.33, -57244.87, -7787.59, 39818.67, 11002.85, -7780.24, 0.00, 0.00, 0.00, 0.00, 0.00, 0.00, 0.00
136, 5184.17, 75040.57, 7074.89, 31032.38, -22493.32, -2823.58, 7259.33, -57244.87, -7783.57, 39841.07, 11020.50, -7798.23, 0.00, 0.00, 0.00, 0.00, 0.00, 0.00, 0.00
137, 5183.19, 75033.35, 7068.00, 31022.97, -22500.38, -2830.65, 7249.52, -57253.25, -7783.57, 39841.07, 11020.50, -7798.23, 0.00, 0.00, 0.00, 0.00, 0.00, 0.00, 0.00
138, 5183.19, 75033.35, 7068.00, 31022.97, -22500.38, -2830.65, 7249.52, -57253.25, -7785.25, 39820.68, 10999.25, -7767.23, 0.00, 0.00, 0.00, 0.00, -0.02, 0.41, 0.93
139, 5186.03, 75043.45, 7075.27, 31032.04, -22492.36, -2823.47, 7258.44, -57245.52, -7785.25, 39820.68, 10999.25, -7767.23, 0.00, 0.00, 0.00, 0.00, 0.00, 0.00, 0.00
140, 5186.03, 75043.45, 7075.27, 31032.04, -22492.36, -2823.47, 7258.44, -57245.52, -7782.81, 39842.32, 11021.29, -7798.75, 0.00, 0.00, 0.00, 0.00, 0.00, 0.00, 0.00
141, 5184.78, 75038.70, 7073.70, 31028.65, -22491.96, -2825.64, 7253.50, -57252.11, -7782.81, 39842.32, 11021.29, -7798.75, 0.00, 0.00, 0.00, 0.00, 0.00, 0.00, 0.00
142, 5184.78, 75038.70, 7073.70, 31028.65, -22491.96, -2825.64, 7253.50, -57252.11, -7785.22, 39819.50, 11001.73, -7772.24, 0.00, 0.00, 0.00, 0.00, 0.00, 0.00, 0.00
143, 5184.78, 75040.28, 7073.81, 31030.43, -22493.65, -2827.12, 7253.23, -57251.87, -7785.22, 39819.50, 11001.73, -7772.24, 0.00, 0.00, 0.00, 0.00, 0.00, 0.00, 0.00
144, 5184.78, 75040.28, 7073.81, 31030.43, -22493.65, -2827.12, 7253.23, -57251.87, -7784.62, 39841.11, 11019.79, -7800.80, 0.00, 0.00, 0.00, 0.00, 0.00, 0.00, 0.00
145, 5187.59, 75041.38, 7074.04, 31030.17, -22490.21, -2824.52, 7256.31, -57249.70, -7784.62, 39841.11, 11019.79, -7800.80, 0.00, 0.00, 0.00, 0.00, 0.00, 0.00, 0.00
146, 5187.59, 75041.38, 7074.04, 31030.17, -22490.21, -2824.52, 7256.31, -57249.70, -7784.51, 39819.56, 11000.83, -7768.84, 0.00, 0.00, 0.00, 0.00, 0.00, 0.00, 0.00
147, 5186.68, 75039.36, 7072.94, 31030.19, -22489.43, -2826.45, 7254.66, -57248.96, -7784.51, 39819.56, 11000.83, -7768.84, 0.00, 0.00, 0.00, 0.00, 0.00, 0.00, 0.00
148, 5186.68, 75039.36, 7072.94, 31030.19, -22489.43, -2826.45, 7254.66, -57248.96, -7779.17, 39846.16, 11019.81, -7797.79, 0.00, 0.00, 0.00, 0.00, -0.02, 0.40, 0.93
149, 5183.66, 75041.27, 7074.06, 31033.65, -22484.22, -2822.42, 7258.55, -57243.57, -7779.17, 39846.16, 11019.81, -7797.79, 0.00, 0.00, 0.00, 0.00, 0.00, 0.00, 0.00
150, 5183.66, 75041.27, 7074.06, 31033.65, -22484.22, -2822.42, 7258.55, -57243.57, -7783.17, 39821.91, 10999.43, -7772.68, 0.00, 0.00, 0.00, 0.00, 0.00, 0.00, 0.00
151, 5176.89, 75033.57, 7066.39, 31026.68, -22489.14, -2830.58, 7249.63, -57252.18, -7783.17, 39821.91, 10999.43, -7772.68, 0.00, 0.00, 0.00, 0.00, 0.00, 0.00, 0.00
152, 5176.89, 75033.57, 7066.39, 31026.68, -22489.14, -2830.58, 7249.63, -57252.18, -7781.09, 39843.75, 11019.41, -7801.43, 0.00, 0.00, 0.00, 0.00, 0.00, 0.00, 0.00
153, 5184.02, 75041.27, 7074.53, 31033.32, -22483.75, -2823.54, 7256.72, -57247.15, -7781.09, 39843.75, 11019.41, -7801.43, 0.00, 0.00, 0.00, 0.00, 0.00, 0.00, 0.00
154, 5184.02, 75041.27, 7074.53, 31033.32, -22483.75, -2823.54, 7256.72, -57247.15, -7788.24, 39817.69, 10999.58, -7778.21, 0.00, 0.00, 0.00, 0.00, 0.00, 0.00, 0.00
155, 5178.63, 75033.04, 7065.81, 31027.37, -22491.24, -2832.14, 7245.00, -57259.20, -7788.24, 39817.69, 10999.58, -7778.21, 0.00, 0.00, 0.00, 0.00, 0.00, 0.00, 0.00
156, 5178.63, 75033.04, 7065.81, 31027.37, -22491.24, -2832.14, 7245.00, -57259.20, -7785.98, 39835.41, 11011.14, -7809.16, 0.00, 0.00, 0.00, 0.00, 0.00, 0.00, 0.00
157, 5189.85, 75046.47, 7077.21, 31038.03, -22477.88, -2821.64, 7258.77, -57245.86, -7785.98, 39835.41, 11011.14, -7809.16, 0.00, 0.00, 0.00, 0.00, 0.00, 0.00, 0.00
158, 5189.85, 75046.47, 7077.21, 31038.03, -22477.88, -2821.64, 7258.77, -57245.86, -7783.39, 39825.33, 11006.87, -7771.66, 0.00, 0.00, 0.00, 0.00, -0.02, 0.40, 0.93
159, 5181.92, 75039.27, 7067.40, 31026.66, -22486.50, -2829.98, 7247.33, -57256.52, -7783.39, 39825.33, 11006.87, -7771.66, 0.00, 0.00, 0.00, 0.00, 0.00, 0.00, 0.00
160, 5181.92, 75039.27, 7067.40, 31026.66, -22486.50, -2829.98, 7247.33, -57256.52, -7780.82, 39838.74, 11017.06, -7797.67, 0.00, 0.00, 0.00, 0.00, 0.00, 0.00, 0.00
161, 5193.58, 75054.32, 7081.75, 31044.18, -22471.21, -2817.48, 7263.42, -57240.80, -7780.82, 39838.74, 11017.06, -7797.67, 0.00, 0.00, 0.00, 0.00, 0.00, 0.00, 0.00
162, 5193.58, 75054.32, 7081.75, 31044.18, -22471.21, -2817.48, 7263.42, -57240.80, -7779.68, 39830.36, 11009.15, -7775.59, 0.00, 0.00, 0.00, 0.00, 0.00, 0.00, 0.00
163, 5182.59, 75038.65, 7069.63, 31029.05, -22480.98, -2828.50, 7248.54, -57254.02, -7779.68, 39830.36, 11009.15, -7775.59, 0.00, 0.00, 0.00, 0.00, 0.00, 0.00, 0.00
164, 5182.59, 75038.65, 7069.63, 31029.05, -22480.98, -2828.50, 7248.54, -57254.02, -7775.61, 39839.19, 11016.28, -7793.23, 0.00, 0.00, 0.00, 0.00, 0.00, 0.00, 0.00
165, 5195.71, 75053.34, 7084.07, 31046.10, -22464.04, -2815.47, 7266.19, -57236.29, -7775.61, 39839.19, 11016.28, -7793.23, 0.00, 0.00, 0.00, 0.00, 0.00, 0.00, 0.00
166, 5195.71, 75053.34, 7084.07, 31046.10, -22464.04, -2815.47, 7266.19, -57236.29, -7776.89, 39833.24, 11011.68, -7778.81, 0.00, 0.00, 0.00, 0.00, 0.00, 0.00, 0.00
167, 5183.93, 75037.33, 7067.82, 31027.84, -22476.98, -2829.40, 7246.73, -57253.34, -7776.89, 39833.24, 11011.68, -7778.81, 0.00, 0.00, 0.00, 0.00, -0.01, 0.40, 0.93
168, 5183.93, 75037.33, 7067.82, 31027.84, -22476.98, -2829.40, 7246.73, -57253.34, -7774.56, 39836.51, 11017.40, -7783.99, 0.00, 0.00, 0.00, 0.00, 0.00, 0.00, 0.00
169, 5196.71, 75059.88, 7085.37, 31046.59, -22459.79, -2814.93, 7266.73, -57235.15, -7774.56, 39836.51, 11017.40, -7783.99, 0.00, 0.00, 0.00, 0.00, 0.00, 0.00, 0.00
170, 5196.71, 75059.88, 7085.37, 31046.59, -22459.79, -2814.93, 7266.73, -57235.15, -7774.03, 39838.88, 11016.97, -7783.91, 0.00, 0.00, 0.00, 0.00, 0.00, 0.00, 0.00
171, 5186.57, 75042.67, 7070.50, 31031.75, -22471.50, -2826.98, 7248.72, -57250.50, -7774.03, 39838.88, 11016.97, -7783.91, 0.00, 0.00, 0.00, 0.00, 0.00, 0.00, 0.00
172, 5186.57, 75042.67, 7070.50, 31031.75, -22471.50, -2826.98, 7248.72, -57250.50, -7774.90, 39834.12, 11010.25, -7778.79, 0.00, 0.00, 0.00, 0.00, 0.00, 0.00, 0.00
173, 5191.19, 75047.81, 7077.90, 31042.93, -22463.19, -2816.74, 7262.84, -57237.38, -7774.90, 39834.12, 11010.25, -7778.79, 0.00, 0.00, 0.00, 0.00, 0.00, 0.00, 0.00
174, 5191.19, 75047.81, 7077.90, 31042.93, -22463.19, -2816.74, 7262.84, -57237.38, -7778.79, 39837.25, 11010.04, -7783.86, 0.00, 0.00, 0.00, 0.00, 0.00, 0.00, 0.00
175, 5175.28, 75027.52, 7060.74, 31027.46, -22476.33, -2829.13, 7242.46, -57255.20, -7778.79, 39837.25, 11010.04, -7783.86, 0.00, 0.00, 0.00, 0.00, 0.00, 0.00, 0.00
176, 5175.28, 75027.52, 7060.74, 31027.46, -22476.33, -2829.13, 7242.46, -57255.20, -7777.13, 39826.79, 10996.97, -7781.94, 0.00, 0.00, 0.00, 0.00, 0.00, 0.00, 0.00
177, 5186.70, 75044.64, 7075.71, 31043.15, -22460.80, -2817.64, 7260.49, -57239.84, -7777.13, 39826.79, 10996.97, -7781.94, 0.00, 0.00, 0.00, 0.00, -0.01, 0.40, 0.93
178, 5186.70, 75044.64, 7075.71, 31043.15, -22460.80, -2817.64, 7260.49, -57239.84, -7773.24, 39843.08, 11015.36, -7790.01, 0.00, 0.00, 0.00, 0.00, 0.00, 0.00, 0.00
179, 5180.73, 75029.02, 7063.04, 31029.61, -22470.90, -2827.81, 7245.92, -57253.97, -7773.24, 39843.08, 11015.36, -7790.01, 0.00, 0.00, 0.00, 0.00, 0.00, 0.00, 0.00
180, 5180.73, 75029.02, 7063.04, 31029.61, -22470.90, -2827.81, 7245.92, -57253.97, -7779.08, 39824.50, 10993.19, -7772.28, 0.00, 0.00, 0.00, 0.00, 0.00, 0.00, 0.00
181, 5191.10, 75044.44, 7076.99, 31049.63, -22459.23, -2815.16, 7261.66, -57239.26, -7779.08, 39824.50, 10993.19, -7772.28, 0.00, 0.00, 0.00, 0.00, 0.00, 0.00, 0.00
182, 5191.10, 75044.44, 7076.99, 31049.63, -22459.23, -2815.16, 7261.66, -57239.26, -7775.32, 39843.32, 11013.73, -7796.53, 0.00, 0.00, 0.00, 0.00, 0.00, 0.00, 0.00
183, 5176.28, 75025.46, 7060.04, 31030.12, -22471.30, -2828.03, 7243.22, -57255.24, -7775.32, 39843.32, 11013.73, -7796.53, 0.00, 0.00, 0.00, 0.00, 0.00, 0.00, 0.00
184, 5176.28, 75025.46, 7060.04, 31030.12, -22471.30, -2828.03, 7243.22, -57255.24, -7780.31, 39820.86, 10992.34, -7776.31, 0.00, 0.00, 0.00, 0.00, 0.00, 0.00, 0.00
185, 5184.73, 75040.23, 7073.54, 31046.13, -22457.91, -2816.77, 7260.49, -57239.46, -7780.31, 39820.86, 10992.34, -7776.31, 0.00, 0.00, 0.00, 0.00, 0.00, 0.00, 0.00
186, 5184.73, 75040.23, 7073.54, 31046.13, -22457.91, -2816.77, 7260.49, -57239.46, -7771.39, 39847.17, 11015.83, -7791.93, 0.00, 0.00, 0.00, 0.00, 0.00, 0.00, 0.00
187, 5183.59, 75039.74, 7069.72, 31038.79, -22460.51, -2822.56, 7251.00, -57247.24, -7771.39, 39847.17, 11015.83, -7791.93, 0.00, 0.00, 0.00, 0.00, -0.01, 0.41, 0.93
188, 5183.59, 75039.74, 7069.72, 31038.79, -22460.51, -2822.56, 7251.00, -57247.24, -7777.16, 39824.37, 10998.02, -7769.15, 0.00, 0.00, 0.00, 0.00, 0.00, 0.00, 0.00
189, 5188.04, 75046.96, 7075.71, 31042.97, -22456.73, -2819.96, 7255.31, -57243.20, -7777.16, 39824.37, 10998.02, -7769.15, 0.00, 0.00, 0.00, 0.00, 0.00, 0.00, 0.00
190, 5188.04, 75046.96, 7075.71, 31042.97, -22456.73, -2819.96, 7255.31, -57243.20, -7775.39, 39845.87, 11018.54, -7799.86, 0.00, 0.00, 0.00, 0.00, 0.00, 0.00, 0.00
191, 5190.39, 75047.63, 7074.84, 31041.81, -22454.25, -2819.25, 7254.37, -57241.41, -7775.39, 39845.87, 11018.54, -7799.86, 0.00, 0.00, 0.00, 0.00, 0.00, 0.00, 0.00
192, 5190.39, 75047.63, 7074.84, 31041.81, -22454.25, -2819.25, 7254.37, -57241.41, -7770.85, 39829.18, 11000.08, -7762.20, 0.00, 0.00, 0.00, 0.00, 0.00, 0.00, 0.00
193, 5191.53, 75047.05, 7076.36, 31045.83, -22451.83, -2817.97, 7258.17, -57241.52, -7770.85, 39829.18, 11000.08, -7762.20, 0.00, 0.00, 0.00, 0.00, 0.00, 0.00, 0.00
194, 5191.53, 75047.05, 7076.36, 31045.83, -22451.83, -2817.97, 7258.17, -57241.52, -7767.10, 39854.28, 11021.42, -7793.16, 0.00, 0.00, 0.00, 0.00, 0.00, 0.00, 0.00
195, 5189.81, 75045.09, 7076.47, 31047.04, -22448.86, -2815.14, 7260.76, -57238.05, -7767.10, 39854.28, 11021.42, -7793.16, 0.00, 0.00, 0.00, 0.00, 0.00, 0.00, 0.00
196, 5189.81, 75045.09, 7076.47, 31047.04, -22448.86, -2815.14, 7260.76, -57238.05, -7771.25, 39829.04, 10998.40, -7761.22, 0.00, 0.00, 0.00, 0.00, 0.00, 0.00, 0.00
197, 5182.65, 75041.76, 7068.83, 31040.67, -22452.93, -2821.53, 7253.25, -57243.13, -7771.25, 39829.04, 10998.40, -7761.22, 0.00, 0.00, 0.00, 0.00, -0.01, 0.40, 0.92
198, 5182.65, 75041.76, 7068.83, 31040.67, -22452.93, -2821.53, 7253.25, -57243.13, -7767.23, 39849.65, 11019.45, -7796.02, 0.00, 0.00, 0.00, 0.00, 0.00, 0.00, 0.00
199, 5192.06, 75053.04, 7079.49, 31048.34, -22441.02, -2814.64, 7261.30, -57234.68, -7767.23, 39849.65, 11019.45, -7796.02, 0.00, 0.00, 0.00, 0.00, 0.00, 0.00, 0.00
200, 5192.06, 75053.04, 7079.49, 31048.34, -22441.02, -2814.64, 7261.30, -57234.68, -7766.29, 39829.96, 11009.02, -7766.67, 0.00, 0.00, 0.00, 0.00, 0.00, 0.00, 0.00
201, 5182.01, 75040.16, 7068.34, 31036.51, -22451.16, -2824.52, 7250.95, -57243.53, -7766.29, 39829.96, 11009.02, -7766.67, 0.00, 0.00, 0.00, 0.00, 0.00, 0.00, 0.00
202, 5182.01, 75040.16, 7068.34, 31036.51, -22451.16, -2824.52, 7250.95, -57243.53, -7766.34, 39850.43, 11016.93, -7795.82, 0.00, 0.00, 0.00, 0.00, 0.00, 0.00, 0.00
203, 5186.45, 75048.93, 7074.39, 31046.79, -22443.21, -2815.76, 7260.09, -57235.08, -7766.34, 39850.43, 11016.93, -7795.82, 0.00, 0.00, 0.00, 0.00, 0.00, 0.00, 0.00
204, 5186.45, 75048.93, 7074.39, 31046.79, -22443.21, -2815.76, 7260.09, -57235.08, -7769.49, 39833.33, 11003.58, -7765.35, 0.00, 0.00, 0.00, 0.00, 0.00, 0.00, 0.00
205, 5178.00, 75035.56, 7064.31, 31036.09, -22450.90, -2824.88, 7248.69, -57245.45, -7769.49, 39833.33, 11003.58, -7765.35, 0.00, 0.00, 0.00, 0.00, 0.00, 0.00, 0.00
206, 5178.00, 75035.56, 7064.31, 31036.09, -22450.90, -2824.88, 7248.69, -57245.45, -7766.29, 39847.59, 11012.84, -7791.62, 0.00, 0.00, 0.00, 0.00, -0.01, 0.40, 0.92
207, 5185.96, 75045.15, 7072.70, 31048.18, -22439.65, -2815.58, 7261.50, -57231.73, -7766.29, 39847.59, 11012.84, -7791.62, 0.00, 0.00, 0.00, 0.00, 0.00, 0.00, 0.00
208, 5185.96, 75045.15, 7072.70, 31048.18, -22439.65, -2815.58, 7261.50, -57231.73, -7766.63, 39836.08, 11002.89, -7766.98, 0.00, 0.00, 0.00, 0.00, 0.00, 0.00, 0.00
209, 5178.14, 75031.92, 7060.69, 31034.79, -22450.76, -2826.87, 7246.68, -57248.52, -7766.63, 39836.08, 11002.89, -7766.98, 0.00, 0.00, 0.00, 0.00, 0.00, 0.00, 0.00
210, 5178.14, 75031.92, 7060.69, 31034.79, -22450.76, -2826.87, 7246.68, -57248.52, -7764.66, 39844.53, 11010.36, -7787.95, 0.00, 0.00, 0.00, 0.00, 0.00, 0.00, 0.00
211, 5185.27, 75050.18, 7074.64, 31049.72, -22437.98, -2815.78, 7259.87, -57235.73, -7764.66, 39844.53, 11010.36, -7787.95, 0.00, 0.00, 0.00, 0.00, 0.00, 0.00, 0.00
212, 5185.27, 75050.18, 7074.64, 31049.72, -22437.98, -2815.78, 7259.87, -57235.73, -7769.24, 39834.56, 11004.39, -7778.43, 0.00, 0.00, 0.00, 0.00, 0.00, 0.00, 0.00
213, 5176.91, 75033.13, 7062.30, 31034.41, -22448.44, -2826.94, 7244.85, -57248.31, -7769.24, 39834.56, 11004.39, -7778.43, 0.00, 0.00, 0.00, 0.00, 0.00, 0.00, 0.00
214, 5176.91, 75033.13, 7062.30, 31034.41, -22448.44, -2826.94, 7244.85, -57248.31, -7766.74, 39845.67, 11007.34, -7783.01, 0.00, 0.00, 0.00, 0.00, 0.00, 0.00, 0.00
