%OpenBCI Raw EEG Data
%
%Sample Rate = 250.0 Hz
%First Column = SampleIndex
%Other Columns = EEG data in microvolts followed by Accel Data (in G) interleaved with Aux Data
0, 0.00, 0.00, 0.00, 0.00, 0.00, 0.00, 0.00, 0.00, -7263.04, 38245.98, 8285.86, -10069.01, 0.00, 0.00, 0.00, 0.00, 0.15, 0.29, 0.97
1, 1013.76, 69176.26, 3872.31, 29114.04, -22524.48, -3835.13, 4378.86, -59561.83, -7263.04, 38245.98, 8285.86, -10069.01, 0.00, 0.00, 0.00, 0.00, 0.00, 0.00, 0.00
2, 1013.76, 69176.26, 3872.31, 29114.04, -22524.48, -3835.13, 4378.86, -59561.83, -7126.72, 38547.68, 8762.35, -10883.60, 0.00, 0.00, 0.00, 0.00, 0.00, 0.00, 0.00
3, 1023.31, 69186.09, 3879.95, 29127.76, -22514.08, -3829.99, 4391.56, -59553.94, -7126.72, 38547.68, 8762.35, -10883.60, 0.00, 0.00, 0.00, 0.00, 0.00, 0.00, 0.00
4, 1023.31, 69186.09, 3879.95, 29127.76, -22514.08, -3829.99, 4391.56, -59553.94, -7140.44, 38509.11, 8727.64, -10845.47, 0.00, 0.00, 0.00, 0.00, 0.00, 0.00, 0.00
5, 1014.08, 69171.23, 3865.51, 29110.20, -22527.54, -3843.49, 4374.86, -59570.93, -7140.44, 38509.11, 8727.64, -10845.47, 0.00, 0.00, 0.00, 0.00, 0.00, 0.00, 0.00
6, 1014.08, 69171.23, 3865.51, 29110.20, -22527.54, -3843.49, 4374.86, -59570.93, -7136.67, 38535.28, 8744.45, -10884.00, 0.00, 0.00, 0.00, 0.00, 0.00, 0.00, 0.00
7, 1025.14, 69179.67, 3871.79, 29124.88, -22525.08, -3830.19, 4387.31, -59565.09, -7136.67, 38535.28, 8744.45, -10884.00, 0.00, 0.00, 0.00, 0.00, 0.16, 0.28, 0.96
8, 1025.14, 69179.67, 3871.79, 29124.88, -22525.08, -3830.19, 4387.31, -59565.09, -7156.69, 38498.60, 8708.15, -10865.76, 0.00, 0.00, 0.00, 0.00, 0.00, 0.00, 0.00
9, 1010.79, 69155.49, 3853.06, 29106.60, -22541.98, -3847.14, 4367.11, -59588.27, -7156.69, 38498.60, 8708.15, -10865.76, 0.00, 0.00, 0.00, 0.00, 0.00, 0.00, 0.00
10, 1010.79, 69155.49, 3853.06, 29106.60, -22541.98, -3847.14, 4367.11, -59588.27, -7149.83, 38522.45, 8720.22, -10882.64, 0.00, 0.00, 0.00, 0.00, 0.00, 0.00, 0.00
11, 1027.08, 69175.18, 3870.34, 29131.86, -22527.25, -3828.67, 4391.83, -59572.87, -7149.83, 38522.45, 8720.22, -10882.64, 0.00, 0.00, 0.00, 0.00, 0.00, 0.00, 0.00
12, 1027.08, 69175.18, 3870.34, 29131.86, -22527.25, -3828.67, 4391.83, -59572.87, -7153.90, 38502.93, 8708.95, -10861.49, 0.00, 0.00, 0.00, 0.00, 0.00, 0.00, 0.00
13, 1007.93, 69151.02, 3851.23, 29108.07, -22543.83, -3846.11, 4366.86, -59593.48, -7153.90, 38502.93, 8708.95, -10861.49, 0.00, 0.00, 0.00, 0.00, 0.00, 0.00, 0.00
14, 1007.93, 69151.02, 3851.23, 29108.07, -22543.83, -3846.11, 4366.86, -59593.48, -7145.43, 38516.95, 8718.97, -10885.88, 0.00, 0.00, 0.00, 0.00, 0.00, 0.00, 0.00
15, 1024.81, 69175.67, 3871.23, 29135.30, -22527.12, -3825.99, 4390.33, -59574.04, -7145.43, 38516.95, 8718.97, -10885.88, 0.00, 0.00, 0.00, 0.00, 0.00, 0.00, 0.00
16, 1024.81, 69175.67, 3871.23, 29135.30, -22527.12, -3825.99, 4390.33, -59574.04, -7145.72, 38509.21, 8717.74, -10875.22, 0.00, 0.00, 0.00, 0.00, 0.15, 0.27, 0.97
17, 1005.56, 69152.38, 3850.09, 29104.03, -22542.94, -3854.40, 4364.89, -59596.19, -7145.72, 38509.21, 8717.74, -10875.22, 0.00, 0.00, 0.00, 0.00, 0.00, 0.00, 0.00
18, 1005.56, 69152.38, 3850.09, 29104.03, -22542.94, -3854.40, 4364.89, -59596.19, -7140.20, 38516.41, 8717.31, -10870.52, 0.00, 0.00, 0.00, 0.00, 0.00, 0.00, 0.00
19, 1015.95, 69173.06, 3865.78, 29131.01, -22523.90, -3828.99, 4399.34, -59569.14, -7140.20, 38516.41, 8717.31, -10870.52, 0.00, 0.00, 0.00, 0.00, 0.00, 0.00, 0.00
20, 1015.95, 69173.06, 3865.78, 29131.01, -22523.90, -3828.99, 4399.34, -59569.14, -7145.03, 38510.91, 8714.54, -10875.78, 0.00, 0.00, 0.00, 0.00, 0.00, 0.00, 0.00
21, 1003.82, 69153.66, 3851.72, 29108.50, -22535.27, -3845.77, 4378.37, -59588.70, -7145.03, 38510.91, 8714.54, -10875.78, 0.00, 0.00, 0.00, 0.00, 0.00, 0.00, 0.00
22, 1003.82, 69153.66, 3851.72, 29108.50, -22535.27, -3845.77, 4378.37, -59588.70, -7132.71, 38515.25, 8723.15, -10862.97, 0.00, 0.00, 0.00, 0.00, 0.00, 0.00, 0.00
23, 1018.35, 69181.20, 3872.17, 29138.05, -22517.08, -3825.03, 4406.62, -59568.13, -7132.71, 38515.25, 8723.15, -10862.97, 0.00, 0.00, 0.00, 0.00, 0.00, 0.00, 0.00
24, 1018.35, 69181.20, 3872.17, 29138.05, -22517.08, -3825.03, 4406.62, -59568.13, -7133.92, 38518.89, 8730.59, -10875.38, 0.00, 0.00, 0.00, 0.00, 0.00, 0.00, 0.00
25, 994.27, 69147.40, 3845.84, 29107.67, -22535.41, -3847.63, 4376.76, -59593.41, -7133.92, 38518.89, 8730.59, -10875.38, 0.00, 0.00, 0.00, 0.00, 0.00, 0.00, 0.00
26, 994.27, 69147.40, 3845.84, 29107.67, -22535.41, -3847.63, 4376.76, -59593.41, -7137.49, 38507.09, 8705.29, -10868.45, 0.00, 0.00, 0.00, 0.00, 0.15, 0.27, 0.97
27, 1013.85, 69176.70, 3871.17, 29144.39, -22513.79, -3817.36, 4407.99, -59569.70, -7137.49, 38507.09, 8705.29, -10868.45, 0.00, 0.00, 0.00, 0.00, 0.00, 0.00, 0.00
28, 1013.85, 69176.70, 3871.17, 29144.39, -22513.79, -3817.36, 4407.99, -59569.70, -7121.60, 38532.57, 8762.80, -10873.81, 0.00, 0.00, 0.00, 0.00, 0.00, 0.00, 0.00
29, 1012.91, 69161.48, 3869.58, 29146.67, -22519.65, -3837.08, 4393.26, -59586.78, -7121.60, 38532.57, 8762.80, -10873.81, 0.00, 0.00, 0.00, 0.00, 0.00, 0.00, 0.00
30, 1012.91, 69161.48, 3869.58, 29146.67, -22519.65, -3837.08, 4393.26, -59586.78, -7144.82, 38495.27, 8674.09, -10861.76, 0.00, 0.00, 0.00, 0.00, 0.00, 0.00, 0.00
31, 999.26, 69151.09, 3843.16, 29131.65, -22534.31, -3839.83, 4399.09, -59581.97, -7144.82, 38495.27, 8674.09, -10861.76, 0.00, 0.00, 0.00, 0.00, 0.00, 0.00, 0.00
32, 999.26, 69151.09, 3843.16, 29131.65, -22534.31, -3839.83, 4399.09, -59581.97, -7142.57, 38521.75, 8669.46, -10881.39, 0.00, 0.00, 0.00, 0.00, 0.00, 0.00, 0.00
33, 980.46, 69120.40, 3818.44, 29112.77, -22543.70, -3852.43, 4376.94, -59601.42, -7142.57, 38521.75, 8669.46, -10881.39, 0.00, 0.00, 0.00, 0.00, 0.00, 0.00, 0.00
34, 980.46, 69120.40, 3818.44, 29112.77, -22543.70, -3852.43, 4376.94, -59601.42, -7145.67, 38497.77, 8643.87, -10855.59, 0.00, 0.00, 0.00, 0.00, 0.00, 0.00, 0.00
35, 1000.73, 69140.89, 3835.96, 29144.01, -22527.79, -3830.26, 4401.35, -59582.48, -7145.67, 38497.77, 8643.87, -10855.59, 0.00, 0.00, 0.00, 0.00, 0.00, 0.00, 0.00
36, 1000.73, 69140.89, 3835.96, 29144.01, -22527.79, -3830.26, 4401.35, -59582.48, -7146.59, 38524.71, 8646.82, -10890.82, 0.00, 0.00, 0.00, 0.00, 0.15, 0.27, 0.97
37, 991.32, 69127.06, 3822.22, 29139.59, -22539.10, -3839.00, 4380.79, -59603.34, -7146.59, 38524.71, 8646.82, -10890.82, 0.00, 0.00, 0.00, 0.00, 0.00, 0.00, 0.00
38, 991.32, 69127.06, 3822.22, 29139.59, -22539.10, -3839.00, 4380.79, -59603.34, -7148.38, 38493.21, 8631.19, -10847.26, 0.00, 0.00, 0.00, 0.00, 0.00, 0.00, 0.00
39, 1002.21, 69145.32, 3836.25, 29150.59, -22533.13, -3834.67, 4396.48, -59592.32, -7148.38, 38493.21, 8631.19, -10847.26, 0.00, 0.00, 0.00, 0.00, 0.00, 0.00, 0.00
40, 1002.21, 69145.32, 3836.25, 29150.59, -22533.13, -3834.67, 4396.48, -59592.32, -7145.38, 38523.70, 8664.65, -10894.46, 0.00, 0.00, 0.00, 0.00, 0.00, 0.00, 0.00
41, 1000.17, 69137.38, 3827.09, 29133.26, -22546.88, -3846.80, 4378.80, -59608.52, -7145.38, 38523.70, 8664.65, -10894.46, 0.00, 0.00, 0.00, 0.00, 0.00, 0.00, 0.00
42, 1000.17, 69137.38, 3827.09, 29133.26, -22546.88, -3846.80, 4378.80, -59608.52, -7167.62, 38470.05, 8636.62, -10880.81, 0.00, 0.00, 0.00, 0.00, 0.00, 0.00, 0.00
43, 1012.49, 69151.65, 3836.05, 29142.23, -22545.00, -3840.99, 4385.64, -59609.57, -7167.62, 38470.05, 8636.62, -10880.81, 0.00, 0.00, 0.00, 0.00, 0.00, 0.00, 0.00
44, 1012.49, 69151.65, 3836.05, 29142.23, -22545.00, -3840.99, 4385.64, -59609.57, -7147.57, 38520.57, 8679.61, -10884.96, 0.00, 0.00, 0.00, 0.00, 0.00, 0.00, 0.00
45, 1021.32, 69161.70, 3844.95, 29147.72, -22536.01, -3838.64, 4392.25, -59601.30, -7147.57, 38520.57, 8679.61, -10884.96, 0.00, 0.00, 0.00, 0.00, 0.00, 0.00, 0.00
46, 1021.32, 69161.70, 3844.95, 29147.72, -22536.01, -3838.64, 4392.25, -59601.30, -7157.12, 38484.76, 8652.20, -10851.53, 0.00, 0.00, 0.00, 0.00, 0.15, 0.27, 0.97
47, 1020.80, 69160.03, 3844.54, 29146.36, -22539.86, -3842.85, 4387.56, -59608.77, -7157.12, 38484.76, 8652.20, -10851.53, 0.00, 0.00, 0.00, 0.00, 0.00, 0.00, 0.00
48, 1020.80, 69160.03, 3844.54, 29146.36, -22539.86, -3842.85, 4387.56, -59608.77, -7145.07, 38518.36, 8686.69, -10901.04, 0.00, 0.00, 0.00, 0.00, 0.00, 0.00, 0.00
49, 1023.33, 69163.05, 3848.14, 29152.40, -22533.24, -3838.11, 4393.37, -59605.77, -7145.07, 38518.36, 8686.69, -10901.04, 0.00, 0.00, 0.00, 0.00, 0.00, 0.00, 0.00
50, 1023.33, 69163.05, 3848.14, 29152.40, -22533.24, -3838.11, 4393.37, -59605.77, -7158.66, 38481.28, 8652.16, -10856.89, 0.00, 0.00, 0.00, 0.00, 0.00, 0.00, 0.00
51, 1013.63, 69154.93, 3840.95, 29143.90, -22542.27, -3846.27, 4382.01, -59619.05, -7158.66, 38481.28, 8652.16, -10856.89, 0.00, 0.00, 0.00, 0.00, 0.00, 0.00, 0.00
52, 1013.63, 69154.93, 3840.95, 29143.90, -22542.27, -3846.27, 4382.01, -59619.05, -7152.09, 38510.64, 8675.07, -10898.38, 0.00, 0.00, 0.00, 0.00, 0.00, 0.00, 0.00
53, 1021.39, 69163.72, 3849.57, 29155.59, -22532.37, -3835.83, 4398.80, -59606.42, -7152.09, 38510.64, 8675.07, -10898.38, 0.00, 0.00, 0.00, 0.00, 0.00, 0.00, 0.00
54, 1021.39, 69163.72, 3849.57, 29155.59, -22532.37, -3835.83, 4398.80, -59606.42, -7157.94, 38486.21, 8652.00, -10862.77, 0.00, 0.00, 0.00, 0.00, 0.00, 0.00, 0.00
55, 1007.15, 69145.56, 3835.65, 29139.86, -22544.44, -3850.45, 4383.22, -59622.54, -7157.94, 38486.21, 8652.00, -10862.77, 0.00, 0.00, 0.00, 0.00, 0.15, 0.27, 0.97
56, 1007.15, 69145.56, 3835.65, 29139.86, -22544.44, -3850.45, 4383.22, -59622.54, -7147.86, 38510.73, 8671.60, -10892.43, 0.00, 0.00, 0.00, 0.00, 0.00, 0.00, 0.00
57, 1015.71, 69157.86, 3848.88, 29161.85, -22530.60, -3830.40, 4403.11, -59605.55, -7147.86, 38510.73, 8671.60, -10892.43, 0.00, 0.00, 0.00, 0.00, 0.00, 0.00, 0.00
58, 1015.71, 69157.86, 3848.88, 29161.85, -22530.60, -3830.40, 4403.11, -59605.55, -7163.15, 38480.98, 8643.06, -10863.35, 0.00, 0.00, 0.00, 0.00, 0.00, 0.00, 0.00
59, 987.79, 69125.88, 3820.32, 29130.94, -22551.79, -3857.64, 4379.89, -59630.99, -7163.15, 38480.98, 8643.06, -10863.35, 0.00, 0.00, 0.00, 0.00, 0.00, 0.00, 0.00
60, 987.79, 69125.88, 3820.32, 29130.94, -22551.79, -3857.64, 4379.89, -59630.99, -7149.14, 38505.06, 8659.65, -10889.10, 0.00, 0.00, 0.00, 0.00, 0.00, 0.00, 0.00
61, 1004.51, 69148.12, 3838.33, 29157.63, -22531.76, -3834.11, 4406.13, -59604.84, -7149.14, 38505.06, 8659.65, -10889.10, 0.00, 0.00, 0.00, 0.00, 0.00, 0.00, 0.00
62, 1004.51, 69148.12, 3838.33, 29157.63, -22531.76, -3834.11, 4406.13, -59604.84, -7156.76, 38488.74, 8647.91, -10876.92, 0.00, 0.00, 0.00, 0.00, 0.00, 0.00, 0.00
63, 982.29, 69118.97, 3812.69, 29130.33, -22556.13, -3853.87, 4372.56, -59638.41, -7156.76, 38488.74, 8647.91, -10876.92, 0.00, 0.00, 0.00, 0.00, 0.00, 0.00, 0.00
64, 982.29, 69118.97, 3812.69, 29130.33, -22556.13, -3853.87, 4372.56, -59638.41, -7152.56, 38498.51, 8652.63, -10876.47, 0.00, 0.00, 0.00, 0.00, 0.00, 0.00, 0.00
65, 1000.08, 69146.52, 3835.16, 29157.51, -22532.84, -3833.64, 4410.00, -59606.80, -7152.56, 38498.51, 8652.63, -10876.47, 0.00, 0.00, 0.00, 0.00, 0.15, 0.28, 0.97
66, 1000.08, 69146.52, 3835.16, 29157.51, -22532.84, -3833.64, 4410.00, -59606.80, -7154.28, 38496.21, 8649.66, -10861.25, 0.00, 0.00, 0.00, 0.00, 0.00, 0.00, 0.00
67, 979.16, 69117.96, 3808.78, 29124.88, -22556.96, -3864.12, 4377.59, -59638.12, -7154.28, 38496.21, 8649.66, -10861.25, 0.00, 0.00, 0.00, 0.00, 0.00, 0.00, 0.00
68, 979.16, 69117.96, 3808.78, 29124.88, -22556.96, -3864.12, 4377.59, -59638.12, -7158.88, 38483.80, 8648.25, -10889.86, 0.00, 0.00, 0.00, 0.00, 0.00, 0.00, 0.00
69, 1002.16, 69144.65, 3834.15, 29154.23, -22535.95, -3839.14, 4408.97, -59615.92, -7158.88, 38483.80, 8648.25, -10889.86, 0.00, 0.00, 0.00, 0.00, 0.00, 0.00, 0.00
70, 1002.16, 69144.65, 3834.15, 29154.23, -22535.95, -3839.14, 4408.97, -59615.92, -7160.02, 38493.37, 8649.23, -10888.14, 0.00, 0.00, 0.00, 0.00, 0.00, 0.00, 0.00
71, 983.21, 69118.32, 3812.27, 29128.52, -22557.16, -3855.90, 4374.68, -59643.82, -7160.02, 38493.37, 8649.23, -10888.14, 0.00, 0.00, 0.00, 0.00, 0.00, 0.00, 0.00
72, 983.21, 69118.32, 3812.27, 29128.52, -22557.16, -3855.90, 4374.68, -59643.82, -7159.67, 38481.19, 8641.65, -10870.08, 0.00, 0.00, 0.00, 0.00, 0.00, 0.00, 0.00
73, 1003.62, 69147.38, 3836.19, 29157.25, -22536.59, -3836.74, 4408.10, -59618.45, -7159.67, 38481.19, 8641.65, -10870.08, 0.00, 0.00, 0.00, 0.00, 0.00, 0.00, 0.00
74, 1003.62, 69147.38, 3836.19, 29157.25, -22536.59, -3836.74, 4408.10, -59618.45, -7160.52, 38494.91, 8654.15, -10885.01, 0.00, 0.00, 0.00, 0.00, 0.00, 0.00, 0.00
75, 990.85, 69125.56, 3816.78, 29132.90, -22554.61, -3856.32, 4383.02, -59642.99, -7160.52, 38494.91, 8654.15, -10885.01, 0.00, 0.00, 0.00, 0.00, 0.15, 0.28, 0.97
76, 990.85, 69125.56, 3816.78, 29132.90, -22554.61, -3856.32, 4383.02, -59642.99, -7165.50, 38480.05, 8639.46, -10868.00, 0.00, 0.00, 0.00, 0.00, 0.00, 0.00, 0.00
77, 1013.72, 69158.55, 3842.47, 29160.89, -22534.00, -3834.24, 4414.58, -59621.29, -7165.50, 38480.05, 8639.46, -10868.00, 0.00, 0.00, 0.00, 0.00, 0.00, 0.00, 0.00
78, 1013.72, 69158.55, 3842.47, 29160.89, -22534.00, -3834.24, 4414.58, -59621.29, -7160.81, 38501.48, 8660.29, -10885.01, 0.00, 0.00, 0.00, 0.00, 0.00, 0.00, 0.00
79, 1000.82, 69136.89, 3825.88, 29140.15, -22546.63, -3852.41, 4390.44, -59640.66, -7160.81, 38501.48, 8660.29, -10885.01, 0.00, 0.00, 0.00, 0.00, 0.00, 0.00, 0.00
80, 1000.82, 69136.89, 3825.88, 29140.15, -22546.63, -3852.41, 4390.44, -59640.66, -7159.69, 38477.16, 8662.98, -10861.27, 0.00, 0.00, 0.00, 0.00, 0.00, 0.00, 0.00
81, 1024.83, 69167.74, 3859.95, 29178.08, -22522.38, -3824.81, 4423.19, -59619.79, -7159.69, 38477.16, 8662.98, -10861.27, 0.00, 0.00, 0.00, 0.00, 0.00, 0.00, 0.00
82, 1024.83, 69167.74, 3859.95, 29178.08, -22522.38, -3824.81, 4423.19, -59619.79, -7165.07, 38492.74, 8644.29, -10898.78, 0.00, 0.00, 0.00, 0.00, 0.00, 0.00, 0.00
83, 992.40, 69124.09, 3807.44, 29127.65, -22568.82, -3863.88, 4377.48, -59657.09, -7165.07, 38492.74, 8644.29, -10898.78, 0.00, 0.00, 0.00, 0.00, 0.00, 0.00, 0.00
84, 992.40, 69124.09, 3807.44, 29127.65, -22568.82, -3863.88, 4377.48, -59657.09, -7174.40, 38466.17, 8625.27, -10875.29, 0.00, 0.00, 0.00, 0.00, 0.00, 0.00, 0.00
85, 1017.74, 69152.67, 3841.84, 29166.90, -22542.87, -3832.77, 4406.24, -59637.25, -7174.40, 38466.17, 8625.27, -10875.29, 0.00, 0.00, 0.00, 0.00, 0.16, 0.28, 0.97
86, 1017.74, 69152.67, 3841.84, 29166.90, -22542.87, -3832.77, 4406.24, -59637.25, -7162.64, 38506.04, 8660.29, -10880.20, 0.00, 0.00, 0.00, 0.00, 0.00, 0.00, 0.00
87, 1007.66, 69138.37, 3828.03, 29145.33, -22551.37, -3851.65, 4396.19, -59647.62, -7162.64, 38506.04, 8660.29, -10880.20, 0.00, 0.00, 0.00, 0.00, 0.00, 0.00, 0.00
88, 1007.66, 69138.37, 3828.03, 29145.33, -22551.37, -3851.65, 4396.19, -59647.62, -7182.13, 38456.00, 8617.80, -10869.34, 0.00, 0.00, 0.00, 0.00, 0.00, 0.00, 0.00
89, 1001.27, 69138.39, 3825.30, 29148.84, -22555.97, -3851.03, 4397.93, -59647.39, -7182.13, 38456.00, 8617.80, -10869.34, 0.00, 0.00, 0.00, 0.00, 0.00, 0.00, 0.00
90, 1001.27, 69138.39, 3825.30, 29148.84, -22555.97, -3851.03, 4397.93, -59647.39, -7166.39, 38501.91, 8654.42, -10893.23, 0.00, 0.00, 0.00, 0.00, 0.00, 0.00, 0.00
91, 997.04, 69132.20, 3820.56, 29139.59, -22555.08, -3852.21, 4393.97, -59647.71, -7166.39, 38501.91, 8654.42, -10893.23, 0.00, 0.00, 0.00, 0.00, 0.00, 0.00, 0.00
92, 997.04, 69132.20, 3820.56, 29139.59, -22555.08, -3852.21, 4393.97, -59647.71, -7179.09, 38456.55, 8614.90, -10872.92, 0.00, 0.00, 0.00, 0.00, 0.00, 0.00, 0.00
93, 985.87, 69120.60, 3810.10, 29135.54, -22565.09, -3858.60, 4389.01, -59657.43, -7179.09, 38456.55, 8614.90, -10872.92, 0.00, 0.00, 0.00, 0.00, 0.00, 0.00, 0.00
94, 985.87, 69120.60, 3810.10, 29135.54, -22565.09, -3858.60, 4389.01, -59657.43, -7166.37, 38495.80, 8648.81, -10892.29, 0.00, 0.00, 0.00, 0.00, 0.15, 0.27, 0.97
95, 988.30, 69125.09, 3813.88, 29139.10, -22557.00, -3852.90, 4395.09, -59651.89, -7166.37, 38495.80, 8648.81, -10892.29, 0.00, 0.00, 0.00, 0.00, 0.00, 0.00, 0.00
96, 988.30, 69125.09, 3813.88, 29139.10, -22557.00, -3852.90, 4395.09, -59651.89, -7180.30, 38459.80, 8617.42, -10858.68, 0.00, 0.00, 0.00, 0.00, 0.00, 0.00, 0.00
97, 976.93, 69114.19, 3801.81, 29129.37, -22570.59, -3865.20, 4389.03, -59662.44, -7180.30, 38459.80, 8617.42, -10858.68, 0.00, 0.00, 0.00, 0.00, 0.00, 0.00, 0.00
98, 976.93, 69114.19, 3801.81, 29129.37, -22570.59, -3865.20, 4389.03, -59662.44, -7168.09, 38493.73, 8645.48, -10904.32, 0.00, 0.00, 0.00, 0.00, 0.00, 0.00, 0.00
99, 991.97, 69128.49, 3814.84, 29144.06, -22557.18, -3850.89, 4400.72, -59649.34, -7168.09, 38493.73, 8645.48, -10904.32, 0.00, 0.00, 0.00, 0.00, 0.00, 0.00, 0.00
100, 991.97, 69128.49, 3814.84, 29144.06, -22557.18, -3850.89, 4400.72, -59649.34, -7170.93, 38466.99, 8624.11, -10845.67, 0.00, 0.00, 0.00, 0.00, 0.00, 0.00, 0.00
101, 987.99, 69125.25, 3809.94, 29139.66, -22561.36, -3851.59, 4392.50, -59658.12, -7170.93, 38466.99, 8624.11, -10845.67, 0.00, 0.00, 0.00, 0.00, 0.00, 0.00, 0.00
102, 987.99, 69125.25, 3809.94, 29139.66, -22561.36, -3851.59, 4392.50, -59658.12, -7158.37, 38497.82, 8654.13, -10891.60, 0.00, 0.00, 0.00, 0.00, 0.00, 0.00, 0.00
103, 999.41, 69143.35, 3826.02, 29151.72, -22544.51, -3850.20, 4412.77, -59640.13, -7158.37, 38497.82, 8654.13, -10891.60, 0.00, 0.00, 0.00, 0.00, 0.00, 0.00, 0.00
104, 999.41, 69143.35, 3826.02, 29151.72, -22544.51, -3850.20, 4412.77, -59640.13, -7162.57, 38472.38, 8635.53, -10860.49, 0.00, 0.00, 0.00, 0.00, 0.15, 0.27, 0.97
105, 984.73, 69123.93, 3810.01, 29136.53, -22559.95, -3859.97, 4391.98, -59659.42, -7162.57, 38472.38, 8635.53, -10860.49, 0.00, 0.00, 0.00, 0.00, 0.00, 0.00, 0.00
106, 984.73, 69123.93, 3810.01, 29136.53, -22559.95, -3859.97, 4391.98, -59659.42, -7164.52, 38493.35, 8650.53, -10892.03, 0.00, 0.00, 0.00, 0.00, 0.00, 0.00, 0.00
107, 996.51, 69140.88, 3823.78, 29155.12, -22545.27, -3843.05, 4414.78, -59645.98, -7164.52, 38493.35, 8650.53, -10892.03, 0.00, 0.00, 0.00, 0.00, 0.00, 0.00, 0.00
108, 996.51, 69140.88, 3823.78, 29155.12, -22545.27, -3843.05, 4414.78, -59645.98, -7176.59, 38468.60, 8625.67, -10855.35, 0.00, 0.00, 0.00, 0.00, 0.00, 0.00, 0.00
109, 976.30, 69116.80, 3803.75, 29129.31, -22562.41, -3862.69, 4393.28, -59663.53, -7176.59, 38468.60, 8625.67, -10855.35, 0.00, 0.00, 0.00, 0.00, 0.00, 0.00, 0.00
110, 976.30, 69116.80, 3803.75, 29129.31, -22562.41, -3862.69, 4393.28, -59663.53, -7160.65, 38493.41, 8643.17, -10874.79, 0.00, 0.00, 0.00, 0.00, 0.00, 0.00, 0.00
111, 997.27, 69144.80, 3825.93, 29155.95, -22543.01, -3845.73, 4420.24, -59644.69, -7160.65, 38493.41, 8643.17, -10874.79, 0.00, 0.00, 0.00, 0.00, 0.00, 0.00, 0.00
112, 997.27, 69144.80, 3825.93, 29155.95, -22543.01, -3845.73, 4420.24, -59644.69, -7168.92, 38477.39, 8633.47, -10869.67, 0.00, 0.00, 0.00, 0.00, 0.00, 0.00, 0.00
113, 976.23, 69115.52, 3802.10, 29128.93, -22563.44, -3866.40, 4393.08, -59667.91, -7168.92, 38477.39, 8633.47, -10869.67, 0.00, 0.00, 0.00, 0.00, 0.00, 0.00, 0.00
114, 976.23, 69115.52, 3802.10, 29128.93, -22563.44, -3866.40, 4393.08, -59667.91, -7164.36, 38493.30, 8636.83, -10859.33, 0.00, 0.00, 0.00, 0.00, 0.15, 0.27, 0.97
115, 991.37, 69137.68, 3819.69, 29154.99, -22547.50, -3841.33, 4420.26, -59641.76, -7164.36, 38493.30, 8636.83, -10859.33, 0.00, 0.00, 0.00, 0.00, 0.00, 0.00, 0.00
116, 991.37, 69137.68, 3819.69, 29154.99, -22547.50, -3841.33, 4420.26, -59641.76, -7169.12, 38488.70, 8631.17, -10851.39, 0.00, 0.00, 0.00, 0.00, 0.00, 0.00, 0.00
117, 969.84, 69111.21, 3794.59, 29126.02, -22567.71, -3865.15, 4393.57, -59670.10, -7169.12, 38488.70, 8631.17, -10851.39, 0.00, 0.00, 0.00, 0.00, 0.00, 0.00, 0.00
118, 969.84, 69111.21, 3794.59, 29126.02, -22567.71, -3865.15, 4393.57, -59670.10, -7171.20, 38474.61, 8630.75, -10876.16, 0.00, 0.00, 0.00, 0.00, 0.00, 0.00, 0.00
119, 992.69, 69141.21, 3819.02, 29154.52, -22548.55, -3842.44, 4420.84, -59646.43, -7171.20, 38474.61, 8630.75, -10876.16, 0.00, 0.00, 0.00, 0.00, 0.00, 0.00, 0.00
120, 992.69, 69141.21, 3819.02, 29154.52, -22548.55, -3842.44, 4420.84, -59646.43, -7159.96, 38499.11, 8641.09, -10857.87, 0.00, 0.00, 0.00, 0.00, 0.00, 0.00, 0.00
121, 978.13, 69114.70, 3797.67, 29129.75, -22564.06, -3862.43, 4393.44, -59671.15, -7159.96, 38499.11, 8641.09, -10857.87, 0.00, 0.00, 0.00, 0.00, 0.00, 0.00, 0.00
122, 978.13, 69114.70, 3797.67, 29129.75, -22564.06, -3862.43, 4393.44, -59671.15, -7177.44, 38465.61, 8618.56, -10882.62, 0.00, 0.00, 0.00, 0.00, 0.00, 0.00, 0.00
123, 987.43, 69133.52, 3809.32, 29145.98, -22557.20, -3854.67, 4416.01, -59657.21, -7177.44, 38465.61, 8618.56, -10882.62, 0.00, 0.00, 0.00, 0.00, 0.00, 0.00, 0.00
124, 987.43, 69133.52, 3809.32, 29145.98, -22557.20, -3854.67, 4416.01, -59657.21, -7163.62, 38494.38, 8640.54, -10861.47, 0.00, 0.00, 0.00, 0.00, 0.15, 0.27, 0.98
125, 971.59, 69106.95, 3788.64, 29125.35, -22573.38, -3871.05, 4390.37, -59678.48, -7163.62, 38494.38, 8640.54, -10861.47, 0.00, 0.00, 0.00, 0.00, 0.00, 0.00, 0.00
126, 971.59, 69106.95, 3788.64, 29125.35, -22573.38, -3871.05, 4390.37, -59678.48, -7179.54, 38459.41, 8610.50, -10870.19, 0.00, 0.00, 0.00, 0.00, 0.00, 0.00, 0.00
127, 985.33, 69134.08, 3809.30, 29149.20, -22554.61, -3845.89, 4420.88, -59653.65, -7179.54, 38459.41, 8610.50, -10870.19, 0.00, 0.00, 0.00, 0.00, 0.00, 0.00, 0.00
128, 985.33, 69134.08, 3809.30, 29149.20, -22554.61, -3845.89, 4420.88, -59653.65, -7159.15, 38504.12, 8641.18, -10869.54, 0.00, 0.00, 0.00, 0.00, 0.00, 0.00, 0.00
129, 971.97, 69112.84, 3792.29, 29128.70, -22566.83, -3866.83, 4401.80, -59671.45, -7159.15, 38504.12, 8641.18, -10869.54, 0.00, 0.00, 0.00, 0.00, 0.00, 0.00, 0.00
130, 971.97, 69112.84, 3792.29, 29128.70, -22566.83, -3866.83, 4401.80, -59671.45, -7178.24, 38458.68, 8604.39, -10851.39, 0.00, 0.00, 0.00, 0.00, 0.00, 0.00, 0.00
131, 973.02, 69119.26, 3795.71, 29137.76, -22567.39, -3860.39, 4408.03, -59672.36, -7178.24, 38458.68, 8604.39, -10851.39, 0.00, 0.00, 0.00, 0.00, 0.00, 0.00, 0.00
132, 973.02, 69119.26, 3795.71, 29137.76, -22567.39, -3860.39, 4408.03, -59672.36, -7178.51, 38483.00, 8625.69, -10892.59, 0.00, 0.00, 0.00, 0.00, 0.00, 0.00, 0.00
133, 962.18, 69102.45, 3784.75, 29127.32, -22570.52, -3864.86, 4401.30, -59678.42, -7178.51, 38483.00, 8625.69, -10892.59, 0.00, 0.00, 0.00, 0.00, 0.15, 0.28, 0.98
134, 962.18, 69102.45, 3784.75, 29127.32, -22570.52, -3864.86, 4401.30, -59678.42, -7179.11, 38460.64, 8594.18, -10849.40, 0.00, 0.00, 0.00, 0.00, 0.00, 0.00, 0.00
135, 963.36, 69112.20, 3793.83, 29140.15, -22562.70, -3857.60, 4413.02, -59669.01, -7179.11, 38460.64, 8594.18, -10849.40, 0.00, 0.00, 0.00, 0.00, 0.00, 0.00, 0.00
136, 963.36, 69112.20, 3793.83, 29140.15, -22562.70, -3857.60, 4413.02, -59669.01, -7177.88, 38483.78, 8625.99, -10905.57, 0.00, 0.00, 0.00, 0.00, 0.00, 0.00, 0.00
137, 955.49, 69097.31, 3780.06, 29132.82, -22575.60, -3868.73, 4397.12, -59683.78, -7177.88, 38483.78, 8625.99, -10905.57, 0.00, 0.00, 0.00, 0.00, 0.00, 0.00, 0.00
138, 955.49, 69097.31, 3780.06, 29132.82, -22575.60, -3868.73, 4397.12, -59683.78, -7194.18, 38442.03, 8565.77, -10857.36, 0.00, 0.00, 0.00, 0.00, 0.00, 0.00, 0.00
139, 952.09, 69093.35, 3773.26, 29126.58, -22580.20, -3868.13, 4400.34, -59684.07, -7194.18, 38442.03, 8565.77, -10857.36, 0.00, 0.00, 0.00, 0.00, 0.00, 0.00, 0.00
140, 952.09, 69093.35, 3773.26, 29126.58, -22580.20, -3868.13, 4400.34, -59684.07, -7180.12, 38488.77, 8614.45, -10887.11, 0.00, 0.00, 0.00, 0.00, 0.00, 0.00, 0.00
141, 960.21, 69101.91, 3783.57, 29138.09, -22570.01, -3860.08, 4408.12, -59677.28, -7180.12, 38488.77, 8614.45, -10887.11, 0.00, 0.00, 0.00, 0.00, 0.00, 0.00, 0.00
142, 960.21, 69101.91, 3783.57, 29138.09, -22570.01, -3860.08, 4408.12, -59677.28, -7187.27, 38450.77, 8588.03, -10848.24, 0.00, 0.00, 0.00, 0.00, 0.00, 0.00, 0.00
143, 957.66, 69102.59, 3783.52, 29134.43, -22570.21, -3858.92, 4407.70, -59678.57, -7187.27, 38450.77, 8588.03, -10848.24, 0.00, 0.00, 0.00, 0.00, 0.15, 0.28, 0.97
144, 957.66, 69102.59, 3783.52, 29134.43, -22570.21, -3858.92, 4407.70, -59678.57, -7164.87, 38498.26, 8627.33, -10878.33, 0.00, 0.00, 0.00, 0.00, 0.00, 0.00, 0.00
145, 966.18, 69112.17, 3792.80, 29143.19, -22560.40, -3849.60, 4421.55, -59666.08, -7164.87, 38498.26, 8627.33, -10878.33, 0.00, 0.00, 0.00, 0.00, 0.00, 0.00, 0.00
146, 966.18, 69112.17, 3792.80, 29143.19, -22560.40, -3849.60, 4421.55, -59666.08, -7183.22, 38456.04, 8590.22, -10853.00, 0.00, 0.00, 0.00, 0.00, 0.00, 0.00, 0.00
147, 953.57, 69095.72, 3777.13, 29128.08, -22577.54, -3871.19, 4406.45, -59683.78, -7183.22, 38456.04, 8590.22, -10853.00, 0.00, 0.00, 0.00, 0.00, 0.00, 0.00, 0.00
148, 953.57, 69095.72, 3777.13, 29128.08, -22577.54, -3871.19, 4406.45, -59683.78, -7171.07, 38487.13, 8619.15, -10888.29, 0.00, 0.00, 0.00, 0.00, 0.00, 0.00, 0.00
149, 969.33, 69114.48, 3794.10, 29147.48, -22558.41, -3848.88, 4427.32, -59663.02, -7171.07, 38487.13, 8619.15, -10888.29, 0.00, 0.00, 0.00, 0.00, 0.00, 0.00, 0.00
150, 969.33, 69114.48, 3794.10, 29147.48, -22558.41, -3848.88, 4427.32, -59663.02, -7176.88, 38468.07, 8589.08, -10848.82, 0.00, 0.00, 0.00, 0.00, 0.00, 0.00, 0.00
151, 953.99, 69093.24, 3777.33, 29131.16, -22575.24, -3863.45, 4411.70, -59680.72, -7176.88, 38468.07, 8589.08, -10848.82, 0.00, 0.00, 0.00, 0.00, 0.00, 0.00, 0.00
152, 953.99, 69093.24, 3777.33, 29131.16, -22575.24, -3863.45, 4411.70, -59680.72, -7171.53, 38492.47, 8610.54, -10869.74, 0.00, 0.00, 0.00, 0.00, 0.00, 0.00, 0.00
153, 971.97, 69115.32, 3792.91, 29149.36, -22565.02, -3849.64, 4426.38, -59670.57, -7171.53, 38492.47, 8610.54, -10869.74, 0.00, 0.00, 0.00, 0.00, 0.15, 0.27, 0.97
154, 971.97, 69115.32, 3792.91, 29149.36, -22565.02, -3849.64, 4426.38, -59670.57, -7178.93, 38465.29, 8592.28, -10843.52, 0.00, 0.00, 0.00, 0.00, 0.00, 0.00, 0.00
155, 964.25, 69104.46, 3782.07, 29134.29, -22575.24, -3860.95, 4406.38, -59686.64, -7178.93, 38465.29, 8592.28, -10843.52, 0.00, 0.00, 0.00, 0.00, 0.00, 0.00, 0.00
156, 964.25, 69104.46, 3782.07, 29134.29, -22575.24, -3860.95, 4406.38, -59686.64, -7175.36, 38483.49, 8606.18, -10880.40, 0.00, 0.00, 0.00, 0.00, 0.00, 0.00, 0.00
157, 982.34, 69124.78, 3800.85, 29156.33, -22557.47, -3845.37, 4433.20, -59666.08, -7175.36, 38483.49, 8606.18, -10880.40, 0.00, 0.00, 0.00, 0.00, 0.00, 0.00, 0.00
158, 982.34, 69124.78, 3800.85, 29156.33, -22557.47, -3845.37, 4433.20, -59666.08, -7187.54, 38457.36, 8594.94, -10859.55, 0.00, 0.00, 0.00, 0.00, 0.00, 0.00, 0.00
159, 957.21, 69096.26, 3774.34, 29127.27, -22581.18, -3872.17, 4403.05, -59694.89, -7187.54, 38457.36, 8594.94, -10859.55, 0.00, 0.00, 0.00, 0.00, 0.00, 0.00, 0.00
160, 957.21, 69096.26, 3774.34, 29127.27, -22581.18, -3872.17, 4403.05, -59694.89, -7178.11, 38478.17, 8603.30, -10869.52, 0.00, 0.00, 0.00, 0.00, 0.00, 0.00, 0.00
161, 977.04, 69126.74, 3799.22, 29157.22, -22557.47, -3841.24, 4434.92, -59667.18, -7178.11, 38478.17, 8603.30, -10869.52, 0.00, 0.00, 0.00, 0.00, 0.00, 0.00, 0.00
162, 977.04, 69126.74, 3799.22, 29157.22, -22557.47, -3841.24, 4434.92, -59667.18, -7176.81, 38473.36, 8601.15, -10855.97, 0.00, 0.00, 0.00, 0.00, 0.00, 0.00, 0.00
163, 962.49, 69104.77, 3779.66, 29130.25, -22577.61, -3868.37, 4407.27, -59693.82, -7176.81, 38473.36, 8601.15, -10855.97, 0.00, 0.00, 0.00, 0.00, 0.15, 0.27, 0.97
164, 962.49, 69104.77, 3779.66, 29130.25, -22577.61, -3868.37, 4407.27, -59693.82, -7178.42, 38465.45, 8600.59, -10876.02, 0.00, 0.00, 0.00, 0.00, 0.00, 0.00, 0.00
165, 978.25, 69132.05, 3801.07, 29155.70, -22556.51, -3847.85, 4437.25, -59668.85, -7178.42, 38465.45, 8600.59, -10876.02, 0.00, 0.00, 0.00, 0.00, 0.00, 0.00, 0.00
166, 978.25, 69132.05, 3801.07, 29155.70, -22556.51, -3847.85, 4437.25, -59668.85, -7176.79, 38471.78, 8604.93, -10855.06, 0.00, 0.00, 0.00, 0.00, 0.00, 0.00, 0.00
167, 961.35, 69103.88, 3779.64, 29130.80, -22573.61, -3865.58, 4411.05, -59688.57, -7176.79, 38471.78, 8604.93, -10855.06, 0.00, 0.00, 0.00, 0.00, 0.00, 0.00, 0.00
168, 961.35, 69103.88, 3779.64, 29130.80, -22573.61, -3865.58, 4411.05, -59688.57, -7173.35, 38470.39, 8599.12, -10857.43, 0.00, 0.00, 0.00, 0.00, 0.00, 0.00, 0.00
169, 979.14, 69130.48, 3801.81, 29158.90, -22554.96, -3839.74, 4439.95, -59667.44, -7173.35, 38470.39, 8599.12, -10857.43, 0.00, 0.00, 0.00, 0.00, 0.00, 0.00, 0.00
170, 979.14, 69130.48, 3801.81, 29158.90, -22554.96, -3839.74, 4439.95, -59667.44, -7173.99, 38482.21, 8612.15, -10868.11, 0.00, 0.00, 0.00, 0.00, 0.00, 0.00, 0.00
171, 958.53, 69103.52, 3779.34, 29133.13, -22574.66, -3864.01, 4411.21, -59695.50, -7173.99, 38482.21, 8612.15, -10868.11, 0.00, 0.00, 0.00, 0.00, 0.00, 0.00, 0.00
172, 958.53, 69103.52, 3779.34, 29133.13, -22574.66, -3864.01, 4411.21, -59695.50, -7180.59, 38456.67, 8586.29, -10859.01, 0.00, 0.00, 0.00, 0.00, 0.15, 0.28, 0.97
173, 967.92, 69120.66, 3794.01, 29153.51, -22559.14, -3849.01, 4436.40, -59672.16, -7180.59, 38456.67, 8586.29, -10859.01, 0.00, 0.00, 0.00, 0.00, 0.00, 0.00, 0.00
174, 967.92, 69120.66, 3794.01, 29153.51, -22559.14, -3849.01, 4436.40, -59672.16, -7166.71, 38488.77, 8607.77, -10864.15, 0.00, 0.00, 0.00, 0.00, 0.00, 0.00, 0.00
175, 955.34, 69098.52, 3777.51, 29133.87, -22568.53, -3865.24, 4419.77, -59686.24, -7166.71, 38488.77, 8607.77, -10864.15, 0.00, 0.00, 0.00, 0.00, 0.00, 0.00, 0.00
176, 955.34, 69098.52, 3777.51, 29133.87, -22568.53, -3865.24, 4419.77, -59686.24, -7173.57, 38463.57, 8581.19, -10844.66, 0.00, 0.00, 0.00, 0.00, 0.00, 0.00, 0.00
177, 963.74, 69111.55, 3786.41, 29152.26, -22567.57, -3850.45, 4429.15, -59682.42, -7173.57, 38463.57, 8581.19, -10844.66, 0.00, 0.00, 0.00, 0.00, 0.00, 0.00, 0.00
178, 963.74, 69111.55, 3786.41, 29152.26, -22567.57, -3850.45, 4429.15, -59682.42, -7179.34, 38474.23, 8596.64, -10888.81, 0.00, 0.00, 0.00, 0.00, 0.00, 0.00, 0.00
179, 952.14, 69093.98, 3770.65, 29131.21, -22577.79, -3864.37, 4406.78, -59696.77, -7179.34, 38474.23, 8596.64, -10888.81, 0.00, 0.00, 0.00, 0.00, 0.00, 0.00, 0.00
180, 952.14, 69093.98, 3770.65, 29131.21, -22577.79, -3864.37, 4406.78, -59696.77, -7181.44, 38454.83, 8566.35, -10839.28, 0.00, 0.00, 0.00, 0.00, 0.00, 0.00, 0.00
181, 965.35, 69112.58, 3784.57, 29152.71, -22565.83, -3848.37, 4434.63, -59675.82, -7181.44, 38454.83, 8566.35, -10839.28, 0.00, 0.00, 0.00, 0.00, 0.00, 0.00, 0.00
182, 965.35, 69112.58, 3784.57, 29152.71, -22565.83, -3848.37, 4434.63, -59675.82, -7167.35, 38488.20, 8602.54, -10877.79, 0.00, 0.00, 0.00, 0.00, 0.15, 0.28, 0.97
183, 953.99, 69094.73, 3770.05, 29136.12, -22575.51, -3868.30, 4414.58, -59692.16, -7167.35, 38488.20, 8602.54, -10877.79, 0.00, 0.00, 0.00, 0.00, 0.00, 0.00, 0.00
184, 953.99, 69094.73, 3770.05, 29136.12, -22575.51, -3868.30, 4414.58, -59692.16, -7184.68, 38446.52, 8562.10, -10852.04, 0.00, 0.00, 0.00, 0.00, 0.00, 0.00, 0.00
185, 956.30, 69103.70, 3775.57, 29147.93, -22571.19, -3858.00, 4423.48, -59687.07, -7184.68, 38446.52, 8562.10, -10852.04, 0.00, 0.00, 0.00, 0.00, 0.00, 0.00, 0.00
186, 956.30, 69103.70, 3775.57, 29147.93, -22571.19, -3858.00, 4423.48, -59687.07, -7166.24, 38493.86, 8598.38, -10875.26, 0.00, 0.00, 0.00, 0.00, 0.00, 0.00, 0.00
187, 962.71, 69106.65, 3780.60, 29151.26, -22565.45, -3854.04, 4424.46, -59683.80, -7166.24, 38493.86, 8598.38, -10875.26, 0.00, 0.00, 0.00, 0.00, 0.00, 0.00, 0.00
188, 962.71, 69106.65, 3780.60, 29151.26, -22565.45, -3854.04, 4424.46, -59683.80, -7180.30, 38451.23, 8566.51, -10835.59, 0.00, 0.00, 0.00, 0.00, 0.00, 0.00, 0.00
189, 959.40, 69109.24, 3777.47, 29146.85, -22572.24, -3859.59, 4420.84, -59689.71, -7180.30, 38451.23, 8566.51, -10835.59, 0.00, 0.00, 0.00, 0.00, 0.00, 0.00, 0.00
190, 959.40, 69109.24, 3777.47, 29146.85, -22572.24, -3859.59, 4420.84, -59689.71, -7170.48, 38484.83, 8599.10, -10881.03, 0.00, 0.00, 0.00, 0.00, 0.00, 0.00, 0.00
191, 958.93, 69108.41, 3776.13, 29144.64, -22569.45, -3861.82, 4423.07, -59689.26, -7170.48, 38484.83, 8599.10, -10881.03, 0.00, 0.00, 0.00, 0.00, 0.00, 0.00, 0.00
192, 958.93, 69108.41, 3776.13, 29144.64, -22569.45, -3861.82, 4423.07, -59689.26, -7185.37, 38448.60, 8566.80, -10851.70, 0.00, 0.00, 0.00, 0.00, 0.15, 0.28, 0.97
193, 955.81, 69106.49, 3776.19, 29144.46, -22571.33, -3863.77, 4422.40, -59687.31, -7185.37, 38448.60, 8566.80, -10851.70, 0.00, 0.00, 0.00, 0.00, 0.00, 0.00, 0.00
194, 955.81, 69106.49, 3776.19, 29144.46, -22571.33, -3863.77, 4422.40, -59687.31, -7160.78, 38496.14, 8600.24, -10862.99, 0.00, 0.00, 0.00, 0.00, 0.00, 0.00, 0.00
195, 964.77, 69118.41, 3787.10, 29155.84, -22557.98, -3849.46, 4435.06, -59676.43, -7160.78, 38496.14, 8600.24, -10862.99, 0.00, 0.00, 0.00, 0.00, 0.00, 0.00, 0.00
196, 964.77, 69118.41, 3787.10, 29155.84, -22557.98, -3849.46, 4435.06, -59676.43, -7175.96, 38457.25, 8569.95, -10832.26, 0.00, 0.00, 0.00, 0.00, 0.00, 0.00, 0.00
197, 951.07, 69101.47, 3770.27, 29139.19, -22574.61, -3863.16, 4414.76, -59693.44, -7175.96, 38457.25, 8569.95, -10832.26, 0.00, 0.00, 0.00, 0.00, 0.00, 0.00, 0.00
198, 951.07, 69101.47, 3770.27, 29139.19, -22574.61, -3863.16, 4414.76, -59693.44, -7166.06, 38497.55, 8596.88, -10860.73, 0.00, 0.00, 0.00, 0.00, 0.00, 0.00, 0.00
199, 966.27, 69123.39, 3786.65, 29156.40, -22559.26, -3850.78, 4434.23, -59677.43, -7166.06, 38497.55, 8596.88, -10860.73, 0.00, 0.00, 0.00, 0.00, 0.00, 0.00, 0.00
200, 966.27, 69123.39, 3786.65, 29156.40, -22559.26, -3850.78, 4434.23, -59677.43, -7183.29, 38456.42, 8573.46, -10848.31, 0.00, 0.00, 0.00, 0.00, 0.00, 0.00, 0.00
201, 954.15, 69106.41, 3774.34, 29139.95, -22570.77, -3865.40, 4418.83, -59691.11, -7183.29, 38456.42, 8573.46, -10848.31, 0.00, 0.00, 0.00, 0.00, 0.00, 0.00, 0.00
202, 954.15, 69106.41, 3774.34, 29139.95, -22570.77, -3865.40, 4418.83, -59691.11, -7165.03, 38488.03, 8598.94, -10860.62, 0.00, 0.00, 0.00, 0.00, 0.15, 0.28, 0.97
203, 963.34, 69125.16, 3787.73, 29157.87, -22556.26, -3854.85, 4434.47, -59676.94, -7165.03, 38488.03, 8598.94, -10860.62, 0.00, 0.00, 0.00, 0.00, 0.00, 0.00, 0.00
204, 963.34, 69125.16, 3787.73, 29157.87, -22556.26, -3854.85, 4434.47, -59676.94, -7177.30, 38458.90, 8579.05, -10841.22, 0.00, 0.00, 0.00, 0.00, 0.00, 0.00, 0.00
205, 953.64, 69108.28, 3776.53, 29141.62, -22567.39, -3864.88, 4416.70, -59692.57, -7177.30, 38458.90, 8579.05, -10841.22, 0.00, 0.00, 0.00, 0.00, 0.00, 0.00, 0.00
206, 953.64, 69108.28, 3776.53, 29141.62, -22567.39, -3864.88, 4416.70, -59692.57, -7161.59, 38486.46, 8601.71, -10854.59, 0.00, 0.00, 0.00, 0.00, 0.00, 0.00, 0.00
207, 969.22, 69130.12, 3792.62, 29167.95, -22550.47, -3841.75, 4438.59, -59674.77, -7161.59, 38486.46, 8601.71, -10854.59, 0.00, 0.00, 0.00, 0.00, 0.00, 0.00, 0.00
208, 969.22, 69130.12, 3792.62, 29167.95, -22550.47, -3841.75, 4438.59, -59674.77, -7177.57, 38464.73, 8579.81, -10855.30, 0.00, 0.00, 0.00, 0.00, 0.00, 0.00, 0.00
209, 949.46, 69101.02, 3767.72, 29140.50, -22573.61, -3870.52, 4406.87, -59702.36, -7177.57, 38464.73, 8579.81, -10855.30, 0.00, 0.00, 0.00, 0.00, 0.00, 0.00, 0.00
210, 949.46, 69101.02, 3767.72, 29140.50, -22573.61, -3870.52, 4406.87, -59702.36, -7172.16, 38476.22, 8582.62, -10852.51, 0.00, 0.00, 0.00, 0.00, 0.00, 0.00, 0.00
211, 964.39, 69122.30, 3787.77, 29165.94, -22557.29, -3846.74, 4434.61, -59678.57, -7172.16, 38476.22, 8582.62, -10852.51, 0.00, 0.00, 0.00, 0.00, 0.15, 0.28, 0.96
212, 964.39, 69122.30, 3787.77, 29165.94, -22557.29, -3846.74, 4434.61, -59678.57, -7185.37, 38465.63, 8576.27, -10852.82, 0.00, 0.00, 0.00, 0.00, 0.00, 0.00, 0.00
213, 942.39, 69095.90, 3764.15, 29136.37, -22578.84, -3876.28, 4402.69, -59709.75, -7185.37, 38465.63, 8576.27, -10852.82, 0.00, 0.00, 0.00, 0.00, 0.00, 0.00, 0.00
214, 942.39, 69095.90, 3764.15, 29136.37, -22578.84, -3876.28, 4402.69, -59709.75, -7181.53, 38462.41, 8574.26, -10855.35, 0.00, 0.00, 0.00, 0.00, 0.00, 0.00, 0.00
215, 968.01, 69129.25, 3792.20, 29171.42, -22553.63, -3847.96, 4438.32, -59679.69, -7181.53, 38462.41, 8574.26, -10855.35, 0.00, 0.00, 0.00, 0.00, 0.00, 0.00, 0.00
216, 968.01, 69129.25, 3792.20, 29171.42, -22553.63, -3847.96, 4438.32, -59679.69, -7177.12, 38474.84, 8580.97, -10865.00, 0.00, 0.00, 0.00, 0.00, 0.00, 0.00, 0.00
217, 946.73, 69098.98, 3768.28, 29142.09, -22575.60, -3870.41, 4406.45, -59700.59, -7177.12, 38474.84, 8580.97, -10865.00, 0.00, 0.00, 0.00, 0.00, 0.00, 0.00, 0.00
218, 946.73, 69098.98, 3768.28, 29142.09, -22575.60, -3870.41, 4406.45, -59700.59, -7177.97, 38464.96, 8571.07, -10842.05, 0.00, 0.00, 0.00, 0.00, 0.00, 0.00, 0.00
219, 960.43, 69121.83, 3784.98, 29165.49, -22563.53, -3853.02, 4427.86, -59686.13, -7177.97, 38464.96, 8571.07, -10842.05, 0.00, 0.00, 0.00, 0.00, 0.00, 0.00, 0.00
220, 960.43, 69121.83, 3784.98, 29165.49, -22563.53, -3853.02, 4427.86, -59686.13, -7176.81, 38477.34, 8585.28, -10855.91, 0.00, 0.00, 0.00, 0.00, 0.00, 0.00, 0.00
221, 954.80, 69109.36, 3776.60, 29150.88, -22565.96, -3858.56, 4412.57, -59693.01, -7176.81, 38477.34, 8585.28, -10855.91, 0.00, 0.00, 0.00, 0.00, 0.15, 0.27, 0.97
222, 954.80, 69109.36, 3776.60, 29150.88, -22565.96, -3858.56, 4412.57, -59693.01, -7174.98, 38457.83, 8568.52, -10843.46, 0.00, 0.00, 0.00, 0.00, 0.00, 0.00, 0.00
223, 964.34, 69126.66, 3789.25, 29164.02, -22559.19, -3856.68, 4428.89, -59688.34, -7174.98, 38457.83, 8568.52, -10843.46, 0.00, 0.00, 0.00, 0.00, 0.00, 0.00, 0.00
224, 964.34, 69126.66, 3789.25, 29164.02, -22559.19, -3856.68, 4428.89, -59688.34, -7169.37, 38481.70, 8589.64, -10879.89, 0.00, 0.00, 0.00, 0.00, 0.00, 0.00, 0.00
225, 952.25, 69109.80, 3773.31, 29142.43, -22573.47, -3875.99, 4404.63, -59702.76, -7169.37, 38481.70, 8589.64, -10879.89, 0.00, 0.00, 0.00, 0.00, 0.00, 0.00, 0.00
226, 952.25, 69109.80, 3773.31, 29142.43, -22573.47, -3875.99, 4404.63, -59702.76, -7183.65, 38453.00, 8564.00, -10832.50, 0.00, 0.00, 0.00, 0.00, 0.00, 0.00, 0.00
227, 968.84, 69129.90, 3791.08, 29166.52, -22561.00, -3852.68, 4427.93, -59686.46, -7183.65, 38453.00, 8564.00, -10832.50, 0.00, 0.00, 0.00, 0.00, 0.00, 0.00, 0.00
228, 968.84, 69129.90, 3791.08, 29166.52, -22561.00, -3852.68, 4427.93, -59686.46, -7176.92, 38478.15, 8589.62, -10863.75, 0.00, 0.00, 0.00, 0.00, 0.00, 0.00, 0.00
229, 956.39, 69114.32, 3777.44, 29146.88, -22569.09, -3869.69, 4409.82, -59699.74, -7176.92, 38478.15, 8589.62, -10863.75, 0.00, 0.00, 0.00, 0.00, 0.00, 0.00, 0.00
230, 956.39, 69114.32, 3777.44, 29146.88, -22569.09, -3869.69, 4409.82, -59699.74, -7185.19, 38444.71, 8560.36, -10841.69, 0.00, 0.00, 0.00, 0.00, 0.00, 0.00, 0.00
231, 966.96, 69131.13, 3788.80, 29163.68, -22560.26, -3855.45, 4425.85, -59689.08, -7185.19, 38444.71, 8560.36, -10841.69, 0.00, 0.00, 0.00, 0.00, 0.15, 0.27, 0.97
232, 966.96, 69131.13, 3788.80, 29163.68, -22560.26, -3855.45, 4425.85, -59689.08, -7167.87, 38490.11, 8596.32, -10873.03, 0.00, 0.00, 0.00, 0.00, 0.00, 0.00, 0.00
233, 957.55, 69117.34, 3777.42, 29150.07, -22568.82, -3865.64, 4407.50, -59700.25, -7167.87, 38490.11, 8596.32, -10873.03, 0.00, 0.00, 0.00, 0.00, 0.00, 0.00, 0.00
234, 957.55, 69117.34, 3777.42, 29150.07, -22568.82, -3865.64, 4407.50, -59700.25, -7188.41, 38438.47, 8549.94, -10836.64, 0.00, 0.00, 0.00, 0.00, 0.00, 0.00, 0.00
235, 954.35, 69115.10, 3774.47, 29153.51, -22572.04, -3865.91, 4412.26, -59701.51, -7188.41, 38438.47, 8549.94, -10836.64, 0.00, 0.00, 0.00, 0.00, 0.00, 0.00, 0.00
236, 954.35, 69115.10, 3774.47, 29153.51, -22572.04, -3865.91, 4412.26, -59701.51, -7178.60, 38473.09, 8583.27, -10880.07, 0.00, 0.00, 0.00, 0.00, 0.00, 0.00, 0.00
237, 954.46, 69115.91, 3774.58, 29151.19, -22571.35, -3866.18, 4404.37, -59704.52, -7178.60, 38473.09, 8583.27, -10880.07, 0.00, 0.00, 0.00, 0.00, 0.00, 0.00, 0.00
238, 954.46, 69115.91, 3774.58, 29151.19, -22571.35, -3866.18, 4404.37, -59704.52, -7188.70, 38438.27, 8548.33, -10840.64, 0.00, 0.00, 0.00, 0.00, 0.00, 0.00, 0.00
239, 953.12, 69116.17, 3773.82, 29149.80, -22568.15, -3868.13, 4413.62, -59693.89, -7188.70, 38438.27, 8548.33, -10840.64, 0.00, 0.00, 0.00, 0.00, 0.00, 0.00, 0.00
240, 953.12, 69116.17, 3773.82, 29149.80, -22568.15, -3868.13, 4413.62, -59693.89, -7177.28, 38475.20, 8587.65, -10881.07, 0.00, 0.00, 0.00, 0.00, 0.00, 0.00, 0.00
241, 963.92, 69125.49, 3782.63, 29155.95, -22565.11, -3863.79, 4412.41, -59698.29, -7177.28, 38475.20, 8587.65, -10881.07, 0.00, 0.00, 0.00, 0.00, 0.15, 0.27, 0.97
242, 963.92, 69125.49, 3782.63, 29155.95, -22565.11, -3863.79, 4412.41, -59698.29, -7182.80, 38445.16, 8554.59, -10829.64, 0.00, 0.00, 0.00, 0.00, 0.00, 0.00, 0.00
243, 958.98, 69122.79, 3779.46, 29149.94, -22568.96, -3867.77, 4408.28, -59699.07, -7182.80, 38445.16, 8554.59, -10829.64, 0.00, 0.00, 0.00, 0.00, 0.00, 0.00, 0.00
244, 958.98, 69122.79, 3779.46, 29149.94, -22568.96, -3867.77, 4408.28, -59699.07, -7165.52, 38488.45, 8593.93, -10851.62, 0.00, 0.00, 0.00, 0.00, 0.00, 0.00, 0.00
245, 967.92, 69133.88, 3790.03, 29163.75, -22559.03, -3855.99, 4419.32, -59689.68, -7165.52, 38488.45, 8593.93, -10851.62, 0.00, 0.00, 0.00, 0.00, 0.00, 0.00, 0.00
246, 967.92, 69133.88, 3790.03, 29163.75, -22559.03, -3855.99, 4419.32, -59689.68, -7180.48, 38441.13, 8566.44, -10844.37, 0.00, 0.00, 0.00, 0.00, 0.00, 0.00, 0.00
247, 962.29, 69126.41, 3782.05, 29151.01, -22567.04, -3871.99, 4403.07, -59703.50, -7180.48, 38441.13, 8566.44, -10844.37, 0.00, 0.00, 0.00, 0.00, 0.00, 0.00, 0.00
248, 962.29, 69126.41, 3782.05, 29151.01, -22567.04, -3871.99, 4403.07, -59703.50, -7162.66, 38477.95, 8601.51, -10870.30, 0.00, 0.00, 0.00, 0.00, 0.00, 0.00, 0.00
249, 978.94, 69153.28, 3804.33, 29174.19, -22546.92, -3848.32, 4428.77, -59681.30, -7162.66, 38477.95, 8601.51, -10870.30, 0.00, 0.00, 0.00, 0.00, 0.00, 0.00, 0.00
250, 978.94, 69153.28, 3804.33, 29174.19, -22546.92, -3848.32, 4428.77, -59681.30, -7175.18, 38453.54, 8582.22, -10822.18, 0.00, 0.00, 0.00, 0.00, 0.15, 0.28, 0.97
251, 957.06, 69126.37, 3781.49, 29149.15, -22568.53, -3868.73, 4399.34, -59704.35, -7175.18, 38453.54, 8582.22, -10822.18, 0.00, 0.00, 0.00, 0.00, 0.00, 0.00, 0.00
252, 957.06, 69126.37, 3781.49, 29149.15, -22568.53, -3868.73, 4399.34, -59704.35, -7170.33, 38472.45, 8593.64, -10860.47, 0.00, 0.00, 0.00, 0.00, 0.00, 0.00, 0.00
253, 973.35, 69148.52, 3802.21, 29172.63, -22547.23, -3855.45, 4428.13, -59683.63, -7170.33, 38472.45, 8593.64, -10860.47, 0.00, 0.00, 0.00, 0.00, 0.00, 0.00, 0.00
254, 973.35, 69148.52, 3802.21, 29172.63, -22547.23, -3855.45, 4428.13, -59683.63, -7175.54, 38452.80, 8581.86, -10846.03, 0.00, 0.00, 0.00, 0.00, 0.00, 0.00, 0.00
255, 952.25, 69121.07, 3778.90, 29147.70, -22568.53, -3874.59, 4396.16, -59706.78, -7175.54, 38452.80, 8581.86, -10846.03, 0.00, 0.00, 0.00, 0.00, 0.00, 0.00, 0.00
0, 952.25, 69121.07, 3778.90, 29147.70, -22568.53, -3874.59, 4396.16, -59706.78, -7173.17, 38463.84, 8585.51, -10852.67, 0.00, 0.00, 0.00, 0.00, 0.00, 0.00, 0.00
1, 967.65, 69140.00, 3794.66, 29172.13, -22554.16, -3847.92, 4419.92, -59687.49, -7173.17, 38463.84, 8585.51, -10852.67, 0.00, 0.00, 0.00, 0.00, 0.00, 0.00, 0.00
2, 967.65, 69140.00, 3794.66, 29172.13, -22554.16, -3847.92, 4419.92, -59687.49, -7176.36, 38462.79, 8573.48, -10839.57, 0.00, 0.00, 0.00, 0.00, 0.00, 0.00, 0.00
3, 951.09, 69113.02, 3774.78, 29148.53, -22572.76, -3875.14, 4395.92, -59706.18, -7176.36, 38462.79, 8573.48, -10839.57, 0.00, 0.00, 0.00, 0.00, 0.00, 0.00, 0.00
4, 951.09, 69113.02, 3774.78, 29148.53, -22572.76, -3875.14, 4395.92, -59706.18, -7177.46, 38458.03, 8574.84, -10854.59, 0.00, 0.00, 0.00, 0.00, 0.15, 0.27, 0.97
5, 966.67, 69135.71, 3791.64, 29171.26, -22558.77, -3858.58, 4420.44, -59688.88, -7177.46, 38458.03, 8574.84, -10854.59, 0.00, 0.00, 0.00, 0.00, 0.00, 0.00, 0.00
6, 966.67, 69135.71, 3791.64, 29171.26, -22558.77, -3858.58, 4420.44, -59688.88, -7174.48, 38461.45, 8581.75, -10857.07, 0.00, 0.00, 0.00, 0.00, 0.00, 0.00, 0.00
7, 955.43, 69119.26, 3778.76, 29153.54, -22566.10, -3868.75, 4399.16, -59700.84, -7174.48, 38461.45, 8581.75, -10857.07, 0.00, 0.00, 0.00, 0.00, 0.00, 0.00, 0.00
8, 955.43, 69119.26, 3778.76, 29153.54, -22566.10, -3868.75, 4399.16, -59700.84, -7162.50, 38467.91, 8579.29, -10822.54, 0.00, 0.00, 0.00, 0.00, 0.00, 0.00, 0.00
9, 976.68, 69148.65, 3803.40, 29185.05, -22546.00, -3843.76, 4429.15, -59678.35, -7162.50, 38467.91, 8579.29, -10822.54, 0.00, 0.00, 0.00, 0.00, 0.00, 0.00, 0.00
10, 976.68, 69148.65, 3803.40, 29185.05, -22546.00, -3843.76, 4429.15, -59678.35, -7167.09, 38473.03, 8591.61, -10842.21, 0.00, 0.00, 0.00, 0.00, 0.00, 0.00, 0.00
11, 960.86, 69124.22, 3785.51, 29157.18, -22563.97, -3867.41, 4399.09, -59705.71, -7167.09, 38473.03, 8591.61, -10842.21, 0.00, 0.00, 0.00, 0.00, 0.00, 0.00, 0.00
12, 960.86, 69124.22, 3785.51, 29157.18, -22563.97, -3867.41, 4399.09, -59705.71, -7178.71, 38446.50, 8571.78, -10845.11, 0.00, 0.00, 0.00, 0.00, 0.00, 0.00, 0.00
13, 976.28, 69148.72, 3803.64, 29180.00, -22549.33, -3849.44, 4422.65, -59686.11, -7178.71, 38446.50, 8571.78, -10845.11, 0.00, 0.00, 0.00, 0.00, 0.00, 0.00, 0.00
14, 976.28, 69148.72, 3803.64, 29180.00, -22549.33, -3849.44, 4422.65, -59686.11, -7167.00, 38473.68, 8596.70, -10849.09, 0.00, 0.00, 0.00, 0.00, 0.15, 0.27, 0.97
15, 962.76, 69129.16, 3787.64, 29161.83, -22558.41, -3863.97, 4401.86, -59697.20, -7167.00, 38473.68, 8596.70, -10849.09, 0.00, 0.00, 0.00, 0.00, 0.00, 0.00, 0.00
16, 962.76, 69129.16, 3787.64, 29161.83, -22558.41, -3863.97, 4401.86, -59697.20, -7164.36, 38456.46, 8579.25, -10822.63, 0.00, 0.00, 0.00, 0.00, 0.00, 0.00, 0.00
17, 970.56, 69147.60, 3800.87, 29178.93, -22547.86, -3849.17, 4420.06, -59681.35, -7164.36, 38456.46, 8579.25, -10822.63, 0.00, 0.00, 0.00, 0.00, 0.00, 0.00, 0.00
18, 970.56, 69147.60, 3800.87, 29178.93, -22547.86, -3849.17, 4420.06, -59681.35, -7164.27, 38474.88, 8595.16, -10853.89, 0.00, 0.00, 0.00, 0.00, 0.00, 0.00, 0.00
19, 961.19, 69131.30, 3787.82, 29165.38, -22557.45, -3862.22, 4406.51, -59694.18, -7164.27, 38474.88, 8595.16, -10853.89, 0.00, 0.00, 0.00, 0.00, 0.00, 0.00, 0.00
20, 961.19, 69131.30, 3787.82, 29165.38, -22557.45, -3862.22, 4406.51, -59694.18, -7174.17, 38450.41, 8567.00, -10818.36, 0.00, 0.00, 0.00, 0.00, 0.00, 0.00, 0.00
21, 964.66, 69133.59, 3790.12, 29173.34, -22557.92, -3857.33, 4412.97, -59688.36, -7174.17, 38450.41, 8567.00, -10818.36, 0.00, 0.00, 0.00, 0.00, 0.00, 0.00, 0.00
22, 964.66, 69133.59, 3790.12, 29173.34, -22557.92, -3857.33, 4412.97, -59688.36, -7170.31, 38474.08, 8588.77, -10866.14, 0.00, 0.00, 0.00, 0.00, 0.00, 0.00, 0.00
23, 958.49, 69122.19, 3780.78, 29162.90, -22562.61, -3865.22, 4400.32, -59697.51, -7170.31, 38474.08, 8588.77, -10866.14, 0.00, 0.00, 0.00, 0.00, 0.00, 0.00, 0.00
24, 958.49, 69122.19, 3780.78, 29162.90, -22562.61, -3865.22, 4400.32, -59697.51, -7178.44, 38443.95, 8558.28, -10812.14, 0.00, 0.00, 0.00, 0.00, 0.15, 0.27, 0.97
25, 963.81, 69131.41, 3787.37, 29172.83, -22559.10, -3853.46, 4410.60, -59689.17, -7178.44, 38443.95, 8558.28, -10812.14, 0.00, 0.00, 0.00, 0.00, 0.00, 0.00, 0.00
26, 963.81, 69131.41, 3787.37, 29172.83, -22559.10, -3853.46, 4410.60, -59689.17, -7168.94, 38478.30, 8592.77, -10858.41, 0.00, 0.00, 0.00, 0.00, 0.00, 0.00, 0.00
27, 964.75, 69130.75, 3786.94, 29168.49, -22561.18, -3860.37, 4400.95, -59696.95, -7168.94, 38478.30, 8592.77, -10858.41, 0.00, 0.00, 0.00, 0.00, 0.00, 0.00, 0.00
28, 964.75, 69130.75, 3786.94, 29168.49, -22561.18, -3860.37, 4400.95, -59696.95, -7181.17, 38433.46, 8559.38, -10825.44, 0.00, 0.00, 0.00, 0.00, 0.00, 0.00, 0.00
29, 965.55, 69136.67, 3790.05, 29171.86, -22559.08, -3858.67, 4409.75, -59693.21, -7181.17, 38433.46, 8559.38, -10825.44, 0.00, 0.00, 0.00, 0.00, 0.00, 0.00, 0.00
30, 965.55, 69136.67, 3790.05, 29171.86, -22559.08, -3858.67, 4409.75, -59693.21, -7163.24, 38480.05, 8598.36, -10860.44, 0.00, 0.00, 0.00, 0.00, 0.00, 0.00, 0.00
31, 973.42, 69140.60, 3796.49, 29176.20, -22554.16, -3853.37, 4406.36, -59689.28, -7163.24, 38480.05, 8598.36, -10860.44, 0.00, 0.00, 0.00, 0.00, 0.00, 0.00, 0.00
32, 973.42, 69140.60, 3796.49, 29176.20, -22554.16, -3853.37, 4406.36, -59689.28, -7176.61, 38441.63, 8562.89, -10812.90, 0.00, 0.00, 0.00, 0.00, 0.00, 0.00, 0.00
33, 967.00, 69131.09, 3788.33, 29171.10, -22568.82, -3860.48, 4396.74, -59700.01, -7176.61, 38441.63, 8562.89, -10812.90, 0.00, 0.00, 0.00, 0.00, 0.16, 0.28, 0.97
34, 967.00, 69131.09, 3788.33, 29171.10, -22568.82, -3860.48, 4396.74, -59700.01, -7171.31, 38475.35, 8593.64, -10849.94, 0.00, 0.00, 0.00, 0.00, 0.00, 0.00, 0.00
35, 982.36, 69148.05, 3804.71, 29185.07, -22552.13, -3848.61, 4415.18, -59686.46, -7171.31, 38475.35, 8593.64, -10849.94, 0.00, 0.00, 0.00, 0.00, 0.00, 0.00, 0.00
36, 982.36, 69148.05, 3804.71, 29185.07, -22552.13, -3848.61, 4415.18, -59686.46, -7182.13, 38438.85, 8565.17, -10827.56, 0.00, 0.00, 0.00, 0.00, 0.00, 0.00, 0.00
37, 969.28, 69134.55, 3793.11, 29171.86, -22561.60, -3860.59, 4401.39, -59698.78, -7182.13, 38438.85, 8565.17, -10827.56, 0.00, 0.00, 0.00, 0.00, 0.00, 0.00, 0.00
38, 969.28, 69134.55, 3793.11, 29171.86, -22561.60, -3860.59, 4401.39, -59698.78, -7164.83, 38482.21, 8598.83, -10838.11, 0.00, 0.00, 0.00, 0.00, 0.00, 0.00, 0.00
39, 981.69, 69145.97, 3806.46, 29189.83, -22546.56, -3844.99, 4416.88, -59680.77, -7164.83, 38482.21, 8598.83, -10838.11, 0.00, 0.00, 0.00, 0.00, 0.00, 0.00, 0.00
40, 981.69, 69145.97, 3806.46, 29189.83, -22546.56, -3844.99, 4416.88, -59680.77, -7184.63, 38437.04, 8564.07, -10824.17, 0.00, 0.00, 0.00, 0.00, 0.00, 0.00, 0.00
41, 960.03, 69121.25, 3782.72, 29162.48, -22570.32, -3866.23, 4389.19, -59707.14, -7184.63, 38437.04, 8564.07, -10824.17, 0.00, 0.00, 0.00, 0.00, 0.00, 0.00, 0.00
42, 960.03, 69121.25, 3782.72, 29162.48, -22570.32, -3866.23, 4389.19, -59707.14, -7170.42, 38467.60, 8585.86, -10852.84, 0.00, 0.00, 0.00, 0.00, 0.00, 0.00, 0.00
43, 973.73, 69142.26, 3799.26, 29182.21, -22551.10, -3849.24, 4414.47, -59681.08, -7170.42, 38467.60, 8585.86, -10852.84, 0.00, 0.00, 0.00, 0.00, 0.15, 0.27, 0.97
44, 973.73, 69142.26, 3799.26, 29182.21, -22551.10, -3849.24, 4414.47, -59681.08, -7179.54, 38445.11, 8567.18, -10825.58, 0.00, 0.00, 0.00, 0.00, 0.00, 0.00, 0.00
45, 962.82, 69123.93, 3782.94, 29161.96, -22566.57, -3867.88, 4391.42, -59703.12, -7179.54, 38445.11, 8567.18, -10825.58, 0.00, 0.00, 0.00, 0.00, 0.00, 0.00, 0.00
46, 962.82, 69123.93, 3782.94, 29161.96, -22566.57, -3867.88, 4391.42, -59703.12, -7168.03, 38465.56, 8581.84, -10850.39, 0.00, 0.00, 0.00, 0.00, 0.00, 0.00, 0.00
47, 976.28, 69145.81, 3798.43, 29182.71, -22553.11, -3851.99, 4416.26, -59681.50, -7168.03, 38465.56, 8581.84, -10850.39, 0.00, 0.00, 0.00, 0.00, 0.00, 0.00, 0.00
48, 976.28, 69145.81, 3798.43, 29182.71, -22553.11, -3851.99, 4416.26, -59681.50, -7176.36, 38448.40, 8568.83, -10823.18, 0.00, 0.00, 0.00, 0.00, 0.00, 0.00, 0.00
49, 951.22, 69116.93, 3773.38, 29153.80, -22573.74, -3873.42, 4384.32, -59707.23, -7176.36, 38448.40, 8568.83, -10823.18, 0.00, 0.00, 0.00, 0.00, 0.00, 0.00, 0.00
50, 951.22, 69116.93, 3773.38, 29153.80, -22573.74, -3873.42, 4384.32, -59707.23, -7167.85, 38456.84, 8577.84, -10835.43, 0.00, 0.00, 0.00, 0.00, 0.00, 0.00, 0.00
51, 972.95, 69145.56, 3796.09, 29181.65, -22552.84, -3851.09, 4416.79, -59678.69, -7167.85, 38456.84, 8577.84, -10835.43, 0.00, 0.00, 0.00, 0.00, 0.00, 0.00, 0.00
52, 972.95, 69145.56, 3796.09, 29181.65, -22552.84, -3851.09, 4416.79, -59678.69, -7176.61, 38445.29, 8565.39, -10846.32, 0.00, 0.00, 0.00, 0.00, 0.00, 0.00, 0.00
53, 952.85, 69117.58, 3771.63, 29150.67, -22575.98, -3877.45, 4379.87, -59708.93, -7176.61, 38445.29, 8565.39, -10846.32, 0.00, 0.00, 0.00, 0.00, 0.15, 0.27, 0.96
54, 952.85, 69117.58, 3771.63, 29150.67, -22575.98, -3877.45, 4379.87, -59708.93, -7166.93, 38453.05, 8576.97, -10842.96, 0.00, 0.00, 0.00, 0.00, 0.00, 0.00, 0.00
55, 976.32, 69151.51, 3799.48, 29183.76, -22551.30, -3850.29, 4419.39, -59678.06, -7166.93, 38453.05, 8576.97, -10842.96, 0.00, 0.00, 0.00, 0.00, 0.00, 0.00, 0.00
56, 976.32, 69151.51, 3799.48, 29183.76, -22551.30, -3850.29, 4419.39, -59678.06, -7168.29, 38461.00, 8579.56, -10826.98, 0.00, 0.00, 0.00, 0.00, 0.00, 0.00, 0.00
57, 961.17, 69128.49, 3781.98, 29159.48, -22566.05, -3867.08, 4396.77, -59693.95, -7168.29, 38461.00, 8579.56, -10826.98, 0.00, 0.00, 0.00, 0.00, 0.00, 0.00, 0.00
58, 961.17, 69128.49, 3781.98, 29159.48, -22566.05, -3867.08, 4396.77, -59693.95, -7164.58, 38461.74, 8576.21, -10812.72, 0.00, 0.00, 0.00, 0.00, 0.00, 0.00, 0.00
59, 979.21, 69154.35, 3805.97, 29189.21, -22546.54, -3842.96, 4426.14, -59669.68, -7164.58, 38461.74, 8576.21, -10812.72, 0.00, 0.00, 0.00, 0.00, 0.00, 0.00, 0.00
60, 979.21, 69154.35, 3805.97, 29189.21, -22546.54, -3842.96, 4426.14, -59669.68, -7164.65, 38476.54, 8589.01, -10819.90, 0.00, 0.00, 0.00, 0.00, 0.00, 0.00, 0.00
61, 961.57, 69128.94, 3787.39, 29167.17, -22562.43, -3860.41, 4398.73, -59693.77, -7164.65, 38476.54, 8589.01, -10819.90, 0.00, 0.00, 0.00, 0.00, 0.00, 0.00, 0.00
62, 961.57, 69128.94, 3787.39, 29167.17, -22562.43, -3860.41, 4398.73, -59693.77, -7176.18, 38443.73, 8563.33, -10832.55, 0.00, 0.00, 0.00, 0.00, 0.00, 0.00, 0.00
63, 977.82, 69151.47, 3805.34, 29190.06, -22548.39, -3845.42, 4426.36, -59676.00, -7176.18, 38443.73, 8563.33, -10832.55, 0.00, 0.00, 0.00, 0.00, 0.15, 0.28, 0.97
64, 977.82, 69151.47, 3805.34, 29190.06, -22548.39, -3845.42, 4426.36, -59676.00, -7173.64, 38469.07, 8586.91, -10837.98, 0.00, 0.00, 0.00, 0.00, 0.00, 0.00, 0.00
65, 958.78, 69124.24, 3782.47, 29164.71, -22567.77, -3867.75, 4400.19, -59697.37, -7173.64, 38469.07, 8586.91, -10837.98, 0.00, 0.00, 0.00, 0.00, 0.00, 0.00, 0.00
66, 958.78, 69124.24, 3782.47, 29164.71, -22567.77, -3867.75, 4400.19, -59697.37, -7182.17, 38433.46, 8553.83, -10817.10, 0.00, 0.00, 0.00, 0.00, 0.00, 0.00, 0.00
67, 971.00, 69145.03, 3798.41, 29184.81, -22552.08, -3849.55, 4424.86, -59676.61, -7182.17, 38433.46, 8553.83, -10817.10, 0.00, 0.00, 0.00, 0.00, 0.00, 0.00, 0.00
68, 971.00, 69145.03, 3798.41, 29184.81, -22552.08, -3849.55, 4424.86, -59676.61, -7162.73, 38471.60, 8587.32, -10841.09, 0.00, 0.00, 0.00, 0.00, 0.00, 0.00, 0.00
69, 954.98, 69124.76, 3782.50, 29163.37, -22561.47, -3863.70, 4407.88, -59687.20, -7162.73, 38471.60, 8587.32, -10841.09, 0.00, 0.00, 0.00, 0.00, 0.00, 0.00, 0.00
70, 954.98, 69124.76, 3782.50, 29163.37, -22561.47, -3863.70, 4407.88, -59687.20, -7172.63, 38442.21, 8554.10, -10813.71, 0.00, 0.00, 0.00, 0.00, 0.00, 0.00, 0.00
71, 960.72, 69134.57, 3788.73, 29178.26, -22553.92, -3851.94, 4423.07, -59680.23, -7172.63, 38442.21, 8554.10, -10813.71, 0.00, 0.00, 0.00, 0.00, 0.00, 0.00, 0.00
72, 960.72, 69134.57, 3788.73, 29178.26, -22553.92, -3851.94, 4423.07, -59680.23, -7161.54, 38475.51, 8587.43, -10845.85, 0.00, 0.00, 0.00, 0.00, 0.15, 0.28, 0.97
73, 955.45, 69126.03, 3782.29, 29167.33, -22555.41, -3860.50, 4418.45, -59682.51, -7161.54, 38475.51, 8587.43, -10845.85, 0.00, 0.00, 0.00, 0.00, 0.00, 0.00, 0.00
74, 955.45, 69126.03, 3782.29, 29167.33, -22555.41, -3860.50, 4418.45, -59682.51, -7175.00, 38436.17, 8551.33, -10809.97, 0.00, 0.00, 0.00, 0.00, 0.00, 0.00, 0.00
75, 950.26, 69122.08, 3776.53, 29169.99, -22563.66, -3861.89, 4419.63, -59684.41, -7175.00, 38436.17, 8551.33, -10809.97, 0.00, 0.00, 0.00, 0.00, 0.00, 0.00, 0.00
76, 950.26, 69122.08, 3776.53, 29169.99, -22563.66, -3861.89, 4419.63, -59684.41, -7165.32, 38476.45, 8580.61, -10847.23, 0.00, 0.00, 0.00, 0.00, 0.00, 0.00, 0.00
77, 951.04, 69122.41, 3779.37, 29172.47, -22557.65, -3856.30, 4421.89, -59680.86, -7165.32, 38476.45, 8580.61, -10847.23, 0.00, 0.00, 0.00, 0.00, 0.00, 0.00, 0.00
78, 951.04, 69122.41, 3779.37, 29172.47, -22557.65, -3856.30, 4421.89, -59680.86, -7176.12, 38438.47, 8550.59, -10814.22, 0.00, 0.00, 0.00, 0.00, 0.00, 0.00, 0.00
79, 950.04, 69118.07, 3777.13, 29170.01, -22562.01, -3861.53, 4421.40, -59685.32, -7176.12, 38438.47, 8550.59, -10814.22, 0.00, 0.00, 0.00, 0.00, 0.00, 0.00, 0.00
80, 950.04, 69118.07, 3777.13, 29170.01, -22562.01, -3861.53, 4421.40, -59685.32, -7166.91, 38472.52, 8582.60, -10848.06, 0.00, 0.00, 0.00, 0.00, 0.00, 0.00, 0.00
81, 954.31, 69122.34, 3779.86, 29175.35, -22559.46, -3855.61, 4425.56, -59684.21, -7166.91, 38472.52, 8582.60, -10848.06, 0.00, 0.00, 0.00, 0.00, 0.00, 0.00, 0.00
82, 954.31, 69122.34, 3779.86, 29175.35, -22559.46, -3855.61, 4425.56, -59684.21, -7182.62, 38431.63, 8542.77, -10810.06, 0.00, 0.00, 0.00, 0.00, 0.15, 0.27, 0.97
83, 945.17, 69109.80, 3768.64, 29163.79, -22573.90, -3866.25, 4413.64, -59693.98, -7182.62, 38431.63, 8542.77, -10810.06, 0.00, 0.00, 0.00, 0.00, 0.00, 0.00, 0.00
84, 945.17, 69109.80, 3768.64, 29163.79, -22573.90, -3866.25, 4413.64, -59693.98, -7167.00, 38469.32, 8577.10, -10845.94, 0.00, 0.00, 0.00, 0.00, 0.00, 0.00, 0.00
85, 961.64, 69128.06, 3787.35, 29182.75, -22559.88, -3854.78, 4432.98, -59684.95, -7167.00, 38469.32, 8577.10, -10845.94, 0.00, 0.00, 0.00, 0.00, 0.00, 0.00, 0.00
86, 961.64, 69128.06, 3787.35, 29182.75, -22559.88, -3854.78, 4432.98, -59684.95, -7184.03, 38429.58, 8542.93, -10827.34, 0.00, 0.00, 0.00, 0.00, 0.00, 0.00, 0.00
87, 955.18, 69116.76, 3779.01, 29177.45, -22567.42, -3860.50, 4423.92, -59692.57, -7184.03, 38429.58, 8542.93, -10827.34, 0.00, 0.00, 0.00, 0.00, 0.00, 0.00, 0.00
88, 955.18, 69116.76, 3779.01, 29177.45, -22567.42, -3860.50, 4423.92, -59692.57, -7165.68, 38473.88, 8594.09, -10829.24, 0.00, 0.00, 0.00, 0.00, 0.00, 0.00, 0.00
89, 978.85, 69146.35, 3805.05, 29203.80, -22544.68, -3838.91, 4452.13, -59668.58, -7165.68, 38473.88, 8594.09, -10829.24, 0.00, 0.00, 0.00, 0.00, 0.00, 0.00, 0.00
90, 978.85, 69146.35, 3805.05, 29203.80, -22544.68, -3838.91, 4452.13, -59668.58, -7179.85, 38439.88, 8555.55, -10809.19, 0.00, 0.00, 0.00, 0.00, 0.00, 0.00, 0.00
91, 955.07, 69120.13, 3775.19, 29163.88, -22571.04, -3865.47, 4426.43, -59691.52, -7179.85, 38439.88, 8555.55, -10809.19, 0.00, 0.00, 0.00, 0.00, 0.00, 0.00, 0.00
92, 955.07, 69120.13, 3775.19, 29163.88, -22571.04, -3865.47, 4426.43, -59691.52, -7165.99, 38467.53, 8574.89, -10831.05, 0.00, 0.00, 0.00, 0.00, 0.15, 0.27, 0.97
93, 967.72, 69140.72, 3792.44, 29184.54, -22554.45, -3844.50, 4451.57, -59671.24, -7165.99, 38467.53, 8574.89, -10831.05, 0.00, 0.00, 0.00, 0.00, 0.00, 0.00, 0.00
94, 967.72, 69140.72, 3792.44, 29184.54, -22554.45, -3844.50, 4451.57, -59671.24, -7173.81, 38441.45, 8569.28, -10825.15, 0.00, 0.00, 0.00, 0.00, 0.00, 0.00, 0.00
95, 958.47, 69123.51, 3781.78, 29174.61, -22565.74, -3855.05, 4433.40, -59689.13, -7173.81, 38441.45, 8569.28, -10825.15, 0.00, 0.00, 0.00, 0.00, 0.00, 0.00, 0.00
96, 958.47, 69123.51, 3781.78, 29174.61, -22565.74, -3855.05, 4433.40, -59689.13, -7169.84, 38455.62, 8583.63, -10830.94, 0.00, 0.00, 0.00, 0.00, 0.00, 0.00, 0.00
97, 970.62, 69147.53, 3802.12, 29192.47, -22546.90, -3846.33, 4465.81, -59666.08, -7169.84, 38455.62, 8583.63, -10830.94, 0.00, 0.00, 0.00, 0.00, 0.00, 0.00, 0.00
98, 970.62, 69147.53, 3802.12, 29192.47, -22546.90, -3846.33, 4465.81, -59666.08, -7168.72, 38454.32, 8582.22, -10808.57, 0.00, 0.00, 0.00, 0.00, 0.00, 0.00, 0.00
99, 952.92, 69124.76, 3780.19, 29164.98, -22563.75, -3865.33, 4443.37, -59681.10, -7168.72, 38454.32, 8582.22, -10808.57, 0.00, 0.00, 0.00, 0.00, 0.00, 0.00, 0.00
100, 952.92, 69124.76, 3780.19, 29164.98, -22563.75, -3865.33, 4443.37, -59681.10, -7157.72, 38465.79, 8588.95, -10816.90, 0.00, 0.00, 0.00, 0.00, 0.00, 0.00, 0.00
101, 969.75, 69149.48, 3800.06, 29190.33, -22545.80, -3843.38, 4473.75, -59659.29, -7157.72, 38465.79, 8588.95, -10816.90, 0.00, 0.00, 0.00, 0.00, 0.00, 0.00, 0.00
102, 969.75, 69149.48, 3800.06, 29190.33, -22545.80, -3843.38, 4473.75, -59659.29, -7167.27, 38457.11, 8588.48, -10825.26, 0.00, 0.00, 0.00, 0.00, 0.15, 0.27, 0.97
103, 954.55, 69126.66, 3781.58, 29166.01, -22562.97, -3862.38, 4451.37, -59683.25, -7167.27, 38457.11, 8588.48, -10825.26, 0.00, 0.00, 0.00, 0.00, 0.00, 0.00, 0.00
104, 954.55, 69126.66, 3781.58, 29166.01, -22562.97, -3862.38, 4451.37, -59683.25, -7163.56, 38457.14, 8581.01, -10805.03, 0.00, 0.00, 0.00, 0.00, 0.00, 0.00, 0.00
105, 972.30, 69148.13, 3801.36, 29194.39, -22545.62, -3837.84, 4485.17, -59655.91, -7163.56, 38457.14, 8581.01, -10805.03, 0.00, 0.00, 0.00, 0.00, 0.00, 0.00, 0.00
106, 972.30, 69148.13, 3801.36, 29194.39, -22545.62, -3837.84, 4485.17, -59655.91, -7158.53, 38472.29, 8592.77, -10809.28, 0.00, 0.00, 0.00, 0.00, 0.00, 0.00, 0.00
107, 959.25, 69126.16, 3783.68, 29170.79, -22561.09, -3860.26, 4458.44, -59679.89, -7158.53, 38472.29, 8592.77, -10809.28, 0.00, 0.00, 0.00, 0.00, 0.00, 0.00, 0.00
108, 959.25, 69126.16, 3783.68, 29170.79, -22561.09, -3860.26, 4458.44, -59679.89, -7167.11, 38443.79, 8573.48, -10816.10, 0.00, 0.00, 0.00, 0.00, 0.00, 0.00, 0.00
109, 981.09, 69153.19, 3807.31, 29199.56, -22545.51, -3840.83, 4488.50, -59661.83, -7167.11, 38443.79, 8573.48, -10816.10, 0.00, 0.00, 0.00, 0.00, 0.00, 0.00, 0.00
110, 981.09, 69153.19, 3807.31, 29199.56, -22545.51, -3840.83, 4488.50, -59661.83, -7157.32, 38470.64, 8596.41, -10827.92, 0.00, 0.00, 0.00, 0.00, 0.00, 0.00, 0.00
111, 968.19, 69131.17, 3791.57, 29179.58, -22558.36, -3854.25, 4468.94, -59678.95, -7157.32, 38470.64, 8596.41, -10827.92, 0.00, 0.00, 0.00, 0.00, 0.16, 0.28, 0.97
112, 968.19, 69131.17, 3791.57, 29179.58, -22558.36, -3854.25, 4468.94, -59678.95, -7169.21, 38444.30, 8566.51, -10803.04, 0.00, 0.00, 0.00, 0.00, 0.00, 0.00, 0.00
113, 977.53, 69147.47, 3803.73, 29194.86, -22547.34, -3843.32, 4494.85, -59660.54, -7169.21, 38444.30, 8566.51, -10803.04, 0.00, 0.00, 0.00, 0.00, 0.00, 0.00, 0.00
114, 977.53, 69147.47, 3803.73, 29194.86, -22547.34, -3843.32, 4494.85, -59660.54, -7159.96, 38471.80, 8599.10, -10828.53, 0.00, 0.00, 0.00, 0.00, 0.00, 0.00, 0.00
115, 974.51, 69138.44, 3799.28, 29185.95, -22548.77, -3849.53, 4488.32, -59666.95, -7159.96, 38471.80, 8599.10, -10828.53, 0.00, 0.00, 0.00, 0.00, 0.00, 0.00, 0.00
116, 974.51, 69138.44, 3799.28, 29185.95, -22548.77, -3849.53, 4488.32, -59666.95, -7162.19, 38448.46, 8577.46, -10792.99, 0.00, 0.00, 0.00, 0.00, 0.00, 0.00, 0.00
117, 979.30, 69150.59, 3807.53, 29198.64, -22544.68, -3841.77, 4503.09, -59661.30, -7162.19, 38448.46, 8577.46, -10792.99, 0.00, 0.00, 0.00, 0.00, 0.00, 0.00, 0.00
118, 979.30, 69150.59, 3807.53, 29198.64, -22544.68, -3841.77, 4503.09, -59661.30, -7157.65, 38477.12, 8604.86, -10834.02, 0.00, 0.00, 0.00, 0.00, 0.00, 0.00, 0.00
119, 966.20, 69135.44, 3794.61, 29183.26, -22551.17, -3848.72, 4493.75, -59669.23, -7157.65, 38477.12, 8604.86, -10834.02, 0.00, 0.00, 0.00, 0.00, 0.00, 0.00, 0.00
120, 966.20, 69135.44, 3794.61, 29183.26, -22551.17, -3848.72, 4493.75, -59669.23, -7164.65, 38443.79, 8570.93, -10792.34, 0.00, 0.00, 0.00, 0.00, 0.00, 0.00, 0.00
121, 972.19, 69145.16, 3802.68, 29196.70, -22543.61, -3838.84, 4511.77, -59656.56, -7164.65, 38443.79, 8570.93, -10792.34, 0.00, 0.00, 0.00, 0.00, 0.15, 0.28, 0.97
122, 972.19, 69145.16, 3802.68, 29196.70, -22543.61, -3838.84, 4511.77, -59656.56, -7153.16, 38479.46, 8601.04, -10827.88, 0.00, 0.00, 0.00, 0.00, 0.00, 0.00, 0.00
123, 964.21, 69132.18, 3793.00, 29184.69, -22547.90, -3849.66, 4507.59, -59662.79, -7153.16, 38479.46, 8601.04, -10827.88, 0.00, 0.00, 0.00, 0.00, 0.00, 0.00, 0.00
124, 964.21, 69132.18, 3793.00, 29184.69, -22547.90, -3849.66, 4507.59, -59662.79, -7168.92, 38438.94, 8562.17, -10796.72, 0.00, 0.00, 0.00, 0.00, 0.00, 0.00, 0.00
125, 960.28, 69131.89, 3791.71, 29188.05, -22551.10, -3843.36, 4513.04, -59662.46, -7168.92, 38438.94, 8562.17, -10796.72, 0.00, 0.00, 0.00, 0.00, 0.00, 0.00, 0.00
126, 960.28, 69131.89, 3791.71, 29188.05, -22551.10, -3843.36, 4513.04, -59662.46, -7147.01, 38484.99, 8604.57, -10830.78, 0.00, 0.00, 0.00, 0.00, 0.00, 0.00, 0.00
127, 967.81, 69137.74, 3796.85, 29190.62, -22544.66, -3843.63, 4520.33, -59656.27, -7147.01, 38484.99, 8604.57, -10830.78, 0.00, 0.00, 0.00, 0.00, 0.00, 0.00, 0.00
128, 967.81, 69137.74, 3796.85, 29190.62, -22544.66, -3843.63, 4520.33, -59656.27, -7163.78, 38439.14, 8565.81, -10789.34, 0.00, 0.00, 0.00, 0.00, 0.00, 0.00, 0.00
129, 963.81, 69134.46, 3792.33, 29186.08, -22551.59, -3848.37, 4517.18, -59665.63, -7163.78, 38439.14, 8565.81, -10789.34, 0.00, 0.00, 0.00, 0.00, 0.00, 0.00, 0.00
130, 963.81, 69134.46, 3792.33, 29186.08, -22551.59, -3848.37, 4517.18, -59665.63, -7161.99, 38468.58, 8592.57, -10836.55, 0.00, 0.00, 0.00, 0.00, 0.00, 0.00, 0.00
131, 963.05, 69134.86, 3790.57, 29186.26, -22552.75, -3848.95, 4522.32, -59667.38, -7161.99, 38468.58, 8592.57, -10836.55, 0.00, 0.00, 0.00, 0.00, 0.15, 0.27, 0.97
132, 963.05, 69134.86, 3790.57, 29186.26, -22552.75, -3848.95, 4522.32, -59667.38, -7174.80, 38431.81, 8559.56, -10806.64, 0.00, 0.00, 0.00, 0.00, 0.00, 0.00, 0.00
133, 954.17, 69127.53, 3783.23, 29174.84, -22559.59, -3858.36, 4516.75, -59672.29, -7174.80, 38431.81, 8559.56, -10806.64, 0.00, 0.00, 0.00, 0.00, 0.00, 0.00, 0.00
134, 954.17, 69127.53, 3783.23, 29174.84, -22559.59, -3858.36, 4516.75, -59672.29, -7158.77, 38475.75, 8590.71, -10838.32, 0.00, 0.00, 0.00, 0.00, 0.00, 0.00, 0.00
135, 970.98, 69148.61, 3804.04, 29195.13, -22539.95, -3838.13, 4547.48, -59651.53, -7158.77, 38475.75, 8590.71, -10838.32, 0.00, 0.00, 0.00, 0.00, 0.00, 0.00, 0.00
136, 970.98, 69148.61, 3804.04, 29195.13, -22539.95, -3838.13, 4547.48, -59651.53, -7160.29, 38450.01, 8573.97, -10783.91, 0.00, 0.00, 0.00, 0.00, 0.00, 0.00, 0.00
137, 960.39, 69135.35, 3791.08, 29176.58, -22552.28, -3851.65, 4530.56, -59662.50, -7160.29, 38450.01, 8573.97, -10783.91, 0.00, 0.00, 0.00, 0.00, 0.00, 0.00, 0.00
138, 960.39, 69135.35, 3791.08, 29176.58, -22552.28, -3851.65, 4530.56, -59662.50, -7156.87, 38471.62, 8596.48, -10824.66, 0.00, 0.00, 0.00, 0.00, 0.00, 0.00, 0.00
139, 974.22, 69154.62, 3805.76, 29198.42, -22541.80, -3840.25, 4557.45, -59652.16, -7156.87, 38471.62, 8596.48, -10824.66, 0.00, 0.00, 0.00, 0.00, 0.00, 0.00, 0.00
140, 974.22, 69154.62, 3805.76, 29198.42, -22541.80, -3840.25, 4557.45, -59652.16, -7164.99, 38446.05, 8577.77, -10802.40, 0.00, 0.00, 0.00, 0.00, 0.00, 0.00, 0.00
141, 964.63, 69141.92, 3795.01, 29179.26, -22549.40, -3854.47, 4541.23, -59667.89, -7164.99, 38446.05, 8577.77, -10802.40, 0.00, 0.00, 0.00, 0.00, 0.15, 0.27, 0.97
142, 964.63, 69141.92, 3795.01, 29179.26, -22549.40, -3854.47, 4541.23, -59667.89, -7150.08, 38468.42, 8601.49, -10828.66, 0.00, 0.00, 0.00, 0.00, 0.00, 0.00, 0.00
143, 986.94, 69169.82, 3820.16, 29208.86, -22525.82, -3826.82, 4575.09, -59640.73, -7150.08, 38468.42, 8601.49, -10828.66, 0.00, 0.00, 0.00, 0.00, 0.00, 0.00, 0.00
144, 986.94, 69169.82, 3820.16, 29208.86, -22525.82, -3826.82, 4575.09, -59640.73, -7161.30, 38451.77, 8585.77, -10800.23, 0.00, 0.00, 0.00, 0.00, 0.00, 0.00, 0.00
145, 961.66, 69137.14, 3793.38, 29179.24, -22552.28, -3859.92, 4548.58, -59669.10, -7161.30, 38451.77, 8585.77, -10800.23, 0.00, 0.00, 0.00, 0.00, 0.00, 0.00, 0.00
146, 961.66, 69137.14, 3793.38, 29179.24, -22552.28, -3859.92, 4548.58, -59669.10, -7156.07, 38462.43, 8593.33, -10815.47, 0.00, 0.00, 0.00, 0.00, 0.00, 0.00, 0.00
147, 981.76, 69164.30, 3817.21, 29210.46, -22529.02, -3830.24, 4587.29, -59640.46, -7156.07, 38462.43, 8593.33, -10815.47, 0.00, 0.00, 0.00, 0.00, 0.00, 0.00, 0.00
148, 981.76, 69164.30, 3817.21, 29210.46, -22529.02, -3830.24, 4587.29, -59640.46, -7151.46, 38460.49, 8594.58, -10807.25, 0.00, 0.00, 0.00, 0.00, 0.00, 0.00, 0.00
149, 961.82, 69136.40, 3793.27, 29184.74, -22546.58, -3850.27, 4562.82, -59660.78, -7151.46, 38460.49, 8594.58, -10807.25, 0.00, 0.00, 0.00, 0.00, 0.00, 0.00, 0.00
150, 961.82, 69136.40, 3793.27, 29184.74, -22546.58, -3850.27, 4562.82, -59660.78, -7152.65, 38462.39, 8584.99, -10815.70, 0.00, 0.00, 0.00, 0.00, 0.00, 0.00, 0.00
151, 979.25, 69160.41, 3812.56, 29212.52, -22530.60, -3828.14, 4594.47, -59642.70, -7152.65, 38462.39, 8584.99, -10815.70, 0.00, 0.00, 0.00, 0.00, 0.15, 0.27, 0.96
152, 979.25, 69160.41, 3812.56, 29212.52, -22530.60, -3828.14, 4594.47, -59642.70, -7156.94, 38463.64, 8589.24, -10812.97, 0.00, 0.00, 0.00, 0.00, 0.00, 0.00, 0.00
153, 955.13, 69126.81, 3784.89, 29180.45, -22555.30, -3854.47, 4564.76, -59670.89, -7156.94, 38463.64, 8589.24, -10812.97, 0.00, 0.00, 0.00, 0.00, 0.00, 0.00, 0.00
154, 955.13, 69126.81, 3784.89, 29180.45, -22555.30, -3854.47, 4564.76, -59670.89, -7168.83, 38445.74, 8569.73, -10809.28, 0.00, 0.00, 0.00, 0.00, 0.00, 0.00, 0.00
155, 972.81, 69150.04, 3805.12, 29205.82, -22538.20, -3833.95, 4599.39, -59646.03, -7168.83, 38445.74, 8569.73, -10809.28, 0.00, 0.00, 0.00, 0.00, 0.00, 0.00, 0.00
156, 972.81, 69150.04, 3805.12, 29205.82, -22538.20, -3833.95, 4599.39, -59646.03, -7156.42, 38466.61, 8589.93, -10814.71, 0.00, 0.00, 0.00, 0.00, 0.00, 0.00, 0.00
157, 962.00, 69131.64, 3792.47, 29186.77, -22547.97, -3847.61, 4582.24, -59660.00, -7156.42, 38466.61, 8589.93, -10814.71, 0.00, 0.00, 0.00, 0.00, 0.00, 0.00, 0.00
158, 962.00, 69131.64, 3792.47, 29186.77, -22547.97, -3847.61, 4582.24, -59660.00, -7162.68, 38447.43, 8566.93, -10804.43, 0.00, 0.00, 0.00, 0.00, 0.00, 0.00, 0.00
159, 974.47, 69151.67, 3807.26, 29207.45, -22535.36, -3832.77, 4611.25, -59643.62, -7162.68, 38447.43, 8566.93, -10804.43, 0.00, 0.00, 0.00, 0.00, 0.00, 0.00, 0.00
160, 974.47, 69151.67, 3807.26, 29207.45, -22535.36, -3832.77, 4611.25, -59643.62, -7151.66, 38474.75, 8595.79, -10815.72, 0.00, 0.00, 0.00, 0.00, 0.15, 0.27, 0.97
161, 968.70, 69138.10, 3797.83, 29194.48, -22543.28, -3841.44, 4597.28, -59658.19, -7151.66, 38474.75, 8595.79, -10815.72, 0.00, 0.00, 0.00, 0.00, 0.00, 0.00, 0.00
162, 968.70, 69138.10, 3797.83, 29194.48, -22543.28, -3841.44, 4597.28, -59658.19, -7164.07, 38439.66, 8568.38, -10794.71, 0.00, 0.00, 0.00, 0.00, 0.00, 0.00, 0.00
163, 978.65, 69154.28, 3808.96, 29209.62, -22538.18, -3832.94, 4618.88, -59647.02, -7164.07, 38439.66, 8568.38, -10794.71, 0.00, 0.00, 0.00, 0.00, 0.00, 0.00, 0.00
164, 978.65, 69154.28, 3808.96, 29209.62, -22538.18, -3832.94, 4618.88, -59647.02, -7157.30, 38467.26, 8597.17, -10829.24, 0.00, 0.00, 0.00, 0.00, 0.00, 0.00, 0.00
165, 972.21, 69141.16, 3798.95, 29195.29, -22543.05, -3842.40, 4609.22, -59658.48, -7157.30, 38467.26, 8597.17, -10829.24, 0.00, 0.00, 0.00, 0.00, 0.00, 0.00, 0.00
166, 972.21, 69141.16, 3798.95, 29195.29, -22543.05, -3842.40, 4609.22, -59658.48, -7160.72, 38438.56, 8566.44, -10793.99, 0.00, 0.00, 0.00, 0.00, 0.00, 0.00, 0.00
167, 977.53, 69153.79, 3809.09, 29207.83, -22532.99, -3829.79, 4634.72, -59641.67, -7160.72, 38438.56, 8566.44, -10793.99, 0.00, 0.00, 0.00, 0.00, 0.00, 0.00, 0.00
168, 977.53, 69153.79, 3809.09, 29207.83, -22532.99, -3829.79, 4634.72, -59641.67, -7149.92, 38474.26, 8595.43, -10822.07, 0.00, 0.00, 0.00, 0.00, 0.00, 0.00, 0.00
169, 958.24, 69129.70, 3789.69, 29187.22, -22545.31, -3846.74, 4620.15, -59655.20, -7149.92, 38474.26, 8595.43, -10822.07, 0.00, 0.00, 0.00, 0.00, 0.00, 0.00, 0.00
170, 958.24, 69129.70, 3789.69, 29187.22, -22545.31, -3846.74, 4620.15, -59655.20, -7169.01, 38432.23, 8548.85, -10796.34, 0.00, 0.00, 0.00, 0.00, 0.15, 0.27, 0.97
171, 953.82, 69128.71, 3787.08, 29192.00, -22547.39, -3840.43, 4628.89, -59651.33, -7169.01, 38432.23, 8548.85, -10796.34, 0.00, 0.00, 0.00, 0.00, 0.00, 0.00, 0.00
172, 953.82, 69128.71, 3787.08, 29192.00, -22547.39, -3840.43, 4628.89, -59651.33, -7156.51, 38472.18, 8581.37, -10828.15, 0.00, 0.00, 0.00, 0.00, 0.00, 0.00, 0.00
173, 953.06, 69126.52, 3785.63, 29190.82, -22544.86, -3840.66, 4633.14, -59648.76, -7156.51, 38472.18, 8581.37, -10828.15, 0.00, 0.00, 0.00, 0.00, 0.00, 0.00, 0.00
174, 953.06, 69126.52, 3785.63, 29190.82, -22544.86, -3840.66, 4633.14, -59648.76, -7164.38, 38434.14, 8547.53, -10794.48, 0.00, 0.00, 0.00, 0.00, 0.00, 0.00, 0.00
175, 944.56, 69118.07, 3778.85, 29187.40, -22551.81, -3846.87, 4635.60, -59658.46, -7164.38, 38434.14, 8547.53, -10794.48, 0.00, 0.00, 0.00, 0.00, 0.00, 0.00, 0.00
176, 944.56, 69118.07, 3778.85, 29187.40, -22551.81, -3846.87, 4635.60, -59658.46, -7154.95, 38470.32, 8576.83, -10828.50, 0.00, 0.00, 0.00, 0.00, 0.00, 0.00, 0.00
177, 947.29, 69121.45, 3781.56, 29192.63, -22545.64, -3839.56, 4646.55, -59650.30, -7154.95, 38470.32, 8576.83, -10828.50, 0.00, 0.00, 0.00, 0.00, 0.00, 0.00, 0.00
178, 947.29, 69121.45, 3781.56, 29192.63, -22545.64, -3839.56, 4646.55, -59650.30, -7169.10, 38436.08, 8541.16, -10789.39, 0.00, 0.00, 0.00, 0.00, 0.00, 0.00, 0.00
179, 944.16, 69115.28, 3775.25, 29185.41, -22558.21, -3842.62, 4640.11, -59659.13, -7169.10, 38436.08, 8541.16, -10789.39, 0.00, 0.00, 0.00, 0.00, 0.00, 0.00, 0.00
180, 944.16, 69115.28, 3775.25, 29185.41, -22558.21, -3842.62, 4640.11, -59659.13, -7153.59, 38473.23, 8577.08, -10825.67, 0.00, 0.00, 0.00, 0.00, 0.15, 0.27, 0.97
181, 962.98, 69135.95, 3794.45, 29204.14, -22540.19, -3828.07, 4664.70, -59642.70, -7153.59, 38473.23, 8577.08, -10825.67, 0.00, 0.00, 0.00, 0.00, 0.00, 0.00, 0.00
182, 962.98, 69135.95, 3794.45, 29204.14, -22540.19, -3828.07, 4664.70, -59642.70, -7161.01, 38438.81, 8553.57, -10784.83, 0.00, 0.00, 0.00, 0.00, 0.00, 0.00, 0.00
183, 956.61, 69126.92, 3787.10, 29189.39, -22547.41, -3845.08, 4661.21, -59651.46, -7161.01, 38438.81, 8553.57, -10784.83, 0.00, 0.00, 0.00, 0.00, 0.00, 0.00, 0.00
184, 956.61, 69126.92, 3787.10, 29189.39, -22547.41, -3845.08, 4661.21, -59651.46, -7146.28, 38476.36, 8583.81, -10809.04, 0.00, 0.00, 0.00, 0.00, 0.00, 0.00, 0.00
185, 969.02, 69144.45, 3801.52, 29205.88, -22534.76, -3827.24, 4681.46, -59633.20, -7146.28, 38476.36, 8583.81, -10809.04, 0.00, 0.00, 0.00, 0.00, 0.00, 0.00, 0.00
186, 969.02, 69144.45, 3801.52, 29205.88, -22534.76, -3827.24, 4681.46, -59633.20, -7158.28, 38443.79, 8559.42, -10791.44, 0.00, 0.00, 0.00, 0.00, 0.00, 0.00, 0.00
187, 955.38, 69128.35, 3787.15, 29186.08, -22549.60, -3843.38, 4666.19, -59652.27, -7158.28, 38443.79, 8559.42, -10791.44, 0.00, 0.00, 0.00, 0.00, 0.00, 0.00, 0.00
188, 955.38, 69128.35, 3787.15, 29186.08, -22549.60, -3843.38, 4666.19, -59652.27, -7147.66, 38472.58, 8584.75, -10816.97, 0.00, 0.00, 0.00, 0.00, 0.00, 0.00, 0.00
189, 973.66, 69153.21, 3807.57, 29214.06, -22528.97, -3819.44, 4696.53, -59631.48, -7147.66, 38472.58, 8584.75, -10816.97, 0.00, 0.00, 0.00, 0.00, 0.00, 0.00, 0.00
190, 973.66, 69153.21, 3807.57, 29214.06, -22528.97, -3819.44, 4696.53, -59631.48, -7153.30, 38452.80, 8570.17, -10781.18, 0.00, 0.00, 0.00, 0.00, 0.15, 0.28, 0.96
191, 954.84, 69127.98, 3787.03, 29186.35, -22543.48, -3843.05, 4680.03, -59645.70, -7153.30, 38452.80, 8570.17, -10781.18, 0.00, 0.00, 0.00, 0.00, 0.00, 0.00, 0.00
192, 954.84, 69127.98, 3787.03, 29186.35, -22543.48, -3843.05, 4680.03, -59645.70, -7146.17, 38469.83, 8580.52, -10799.83, 0.00, 0.00, 0.00, 0.00, 0.00, 0.00, 0.00
193, 968.88, 69147.31, 3803.04, 29210.35, -22529.82, -3825.57, 4706.00, -59629.04, -7146.17, 38469.83, 8580.52, -10799.83, 0.00, 0.00, 0.00, 0.00, 0.00, 0.00, 0.00
194, 968.88, 69147.31, 3803.04, 29210.35, -22529.82, -3825.57, 4706.00, -59629.04, -7157.27, 38452.15, 8570.71, -10795.40, 0.00, 0.00, 0.00, 0.00, 0.00, 0.00, 0.00
195, 950.62, 69121.83, 3781.47, 29181.77, -22548.33, -3848.08, 4683.96, -59650.86, -7157.27, 38452.15, 8570.71, -10795.40, 0.00, 0.00, 0.00, 0.00, 0.00, 0.00, 0.00
196, 950.62, 69121.83, 3781.47, 29181.77, -22548.33, -3848.08, 4683.96, -59650.86, -7150.93, 38466.59, 8575.56, -10796.81, 0.00, 0.00, 0.00, 0.00, 0.00, 0.00, 0.00
197, 976.30, 69152.02, 3808.58, 29214.67, -22528.30, -3819.02, 4720.98, -59622.05, -7150.93, 38466.59, 8575.56, -10796.81, 0.00, 0.00, 0.00, 0.00, 0.00, 0.00, 0.00
198, 976.30, 69152.02, 3808.58, 29214.67, -22528.30, -3819.02, 4720.98, -59622.05, -7153.90, 38462.46, 8579.27, -10786.95, 0.00, 0.00, 0.00, 0.00, 0.00, 0.00, 0.00
199, 965.01, 69132.94, 3792.89, 29192.83, -22541.55, -3836.43, 4696.73, -59648.94, -7153.90, 38462.46, 8579.27, -10786.95, 0.00, 0.00, 0.00, 0.00, 0.15, 0.28, 0.97
200, 965.01, 69132.94, 3792.89, 29192.83, -22541.55, -3836.43, 4696.73, -59648.94, -7150.77, 38456.00, 8574.53, -10792.85, 0.00, 0.00, 0.00, 0.00, 0.00, 0.00, 0.00
201, 979.81, 69157.63, 3813.39, 29216.50, -22524.70, -3820.85, 4729.96, -59624.84, -7150.77, 38456.00, 8574.53, -10792.85, 0.00, 0.00, 0.00, 0.00, 0.00, 0.00, 0.00
202, 979.81, 69157.63, 3813.39, 29216.50, -22524.70, -3820.85, 4729.96, -59624.84, -7150.57, 38465.59, 8585.44, -10807.60, 0.00, 0.00, 0.00, 0.00, 0.00, 0.00, 0.00
203, 965.28, 69133.97, 3792.96, 29189.81, -22540.95, -3842.73, 4708.82, -59642.83, -7150.57, 38465.59, 8585.44, -10807.60, 0.00, 0.00, 0.00, 0.00, 0.00, 0.00, 0.00
204, 965.28, 69133.97, 3792.96, 29189.81, -22540.95, -3842.73, 4708.82, -59642.83, -7153.90, 38450.77, 8562.48, -10784.98, 0.00, 0.00, 0.00, 0.00, 0.00, 0.00, 0.00
205, 973.93, 69150.26, 3804.22, 29210.64, -22530.18, -3823.98, 4735.66, -59625.96, -7153.90, 38450.77, 8562.48, -10784.98, 0.00, 0.00, 0.00, 0.00, 0.00, 0.00, 0.00
206, 973.93, 69150.26, 3804.22, 29210.64, -22530.18, -3823.98, 4735.66, -59625.96, -7149.47, 38466.61, 8576.10, -10806.08, 0.00, 0.00, 0.00, 0.00, 0.00, 0.00, 0.00
207, 955.96, 69124.84, 3782.41, 29185.83, -22546.45, -3842.13, 4713.13, -59644.60, -7149.47, 38466.61, 8576.10, -10806.08, 0.00, 0.00, 0.00, 0.00, 0.00, 0.00, 0.00
208, 955.96, 69124.84, 3782.41, 29185.83, -22546.45, -3842.13, 4713.13, -59644.60, -7159.69, 38441.04, 8554.24, -10783.71, 0.00, 0.00, 0.00, 0.00, 0.00, 0.00, 0.00
209, 967.72, 69143.94, 3795.88, 29201.39, -22538.04, -3827.38, 4739.13, -59630.70, -7159.69, 38441.04, 8554.24, -10783.71, 0.00, 0.00, 0.00, 0.00, 0.15, 0.27, 0.97
210, 967.72, 69143.94, 3795.88, 29201.39, -22538.04, -3827.38, 4739.13, -59630.70, -7148.56, 38472.25, 8580.14, -10812.68, 0.00, 0.00, 0.00, 0.00, 0.00, 0.00, 0.00
211, 958.31, 69130.30, 3783.79, 29183.96, -22544.88, -3840.83, 4725.43, -59640.06, -7148.56, 38472.25, 8580.14, -10812.68, 0.00, 0.00, 0.00, 0.00, 0.00, 0.00, 0.00
212, 958.31, 69130.30, 3783.79, 29183.96, -22544.88, -3840.83, 4725.43, -59640.06, -7155.42, 38441.31, 8556.11, -10770.75, 0.00, 0.00, 0.00, 0.00, 0.00, 0.00, 0.00
213, 963.54, 69142.95, 3792.67, 29197.61, -22539.90, -3831.16, 4742.88, -59630.81, -7155.42, 38441.31, 8556.11, -10770.75, 0.00, 0.00, 0.00, 0.00, 0.00, 0.00, 0.00
214, 963.54, 69142.95, 3792.67, 29197.61, -22539.90, -3831.16, 4742.88, -59630.81, -7142.61, 38476.94, 8587.54, -10804.10, 0.00, 0.00, 0.00, 0.00, 0.00, 0.00, 0.00
215, 959.67, 69136.94, 3788.84, 29185.61, -22538.34, -3838.53, 4741.12, -59630.56, -7142.61, 38476.94, 8587.54, -10804.10, 0.00, 0.00, 0.00, 0.00, 0.00, 0.00, 0.00
216, 959.67, 69136.94, 3788.84, 29185.61, -22538.34, -3838.53, 4741.12, -59630.56, -7152.36, 38447.77, 8557.03, -10771.69, 0.00, 0.00, 0.00, 0.00, 0.00, 0.00, 0.00
217, 965.98, 69146.80, 3797.02, 29198.91, -22535.81, -3830.89, 4754.95, -59626.36, -7152.36, 38447.77, 8557.03, -10771.69, 0.00, 0.00, 0.00, 0.00, 0.00, 0.00, 0.00
218, 965.98, 69146.80, 3797.02, 29198.91, -22535.81, -3830.89, 4754.95, -59626.36, -7139.37, 38486.84, 8590.92, -10790.04, 0.00, 0.00, 0.00, 0.00, 0.00, 0.00, 0.00
219, 964.41, 69142.23, 3796.78, 29197.75, -22531.21, -3827.89, 4759.31, -59621.42, -7139.37, 38486.84, 8590.92, -10790.04, 0.00, 0.00, 0.00, 0.00, 0.15, 0.28, 0.97
220, 964.41, 69142.23, 3796.78, 29197.75, -22531.21, -3827.89, 4759.31, -59621.42, -7151.42, 38456.33, 8554.77, -10753.92, 0.00, 0.00, 0.00, 0.00, 0.00, 0.00, 0.00
221, 960.70, 69140.13, 3795.66, 29200.63, -22532.81, -3826.10, 4767.45, -59622.27, -7151.42, 38456.33, 8554.77, -10753.92, 0.00, 0.00, 0.00, 0.00, 0.00, 0.00, 0.00
222, 960.70, 69140.13, 3795.66, 29200.63, -22532.81, -3826.10, 4767.45, -59622.27, -7142.79, 38485.77, 8581.46, -10803.38, 0.00, 0.00, 0.00, 0.00, 0.00, 0.00, 0.00
223, 960.07, 69135.06, 3790.70, 29196.70, -22539.63, -3831.87, 4756.94, -59632.20, -7142.79, 38485.77, 8581.46, -10803.38, 0.00, 0.00, 0.00, 0.00, 0.00, 0.00, 0.00
224, 960.07, 69135.06, 3790.70, 29196.70, -22539.63, -3831.87, 4756.94, -59632.20, -7167.00, 38432.26, 8544.56, -10781.21, 0.00, 0.00, 0.00, 0.00, 0.00, 0.00, 0.00
225, 952.30, 69126.08, 3780.71, 29188.14, -22549.74, -3837.30, 4756.76, -59639.70, -7167.00, 38432.26, 8544.56, -10781.21, 0.00, 0.00, 0.00, 0.00, 0.00, 0.00, 0.00
226, 952.30, 69126.08, 3780.71, 29188.14, -22549.74, -3837.30, 4756.76, -59639.70, -7151.55, 38472.69, 8578.33, -10805.55, 0.00, 0.00, 0.00, 0.00, 0.00, 0.00, 0.00
227, 961.33, 69134.75, 3792.00, 29198.06, -22536.93, -3830.15, 4773.35, -59623.43, -7151.55, 38472.69, 8578.33, -10805.55, 0.00, 0.00, 0.00, 0.00, 0.00, 0.00, 0.00
228, 961.33, 69134.75, 3792.00, 29198.06, -22536.93, -3830.15, 4773.35, -59623.43, -7162.50, 38439.90, 8547.73, -10767.37, 0.00, 0.00, 0.00, 0.00, 0.00, 0.00, 0.00
229, 952.34, 69124.04, 3782.38, 29189.92, -22545.33, -3838.40, 4766.15, -59634.81, -7162.50, 38439.90, 8547.73, -10767.37, 0.00, 0.00, 0.00, 0.00, 0.15, 0.27, 0.98
230, 952.34, 69124.04, 3782.38, 29189.92, -22545.33, -3838.40, 4766.15, -59634.81, -7147.51, 38468.27, 8577.82, -10807.34, 0.00, 0.00, 0.00, 0.00, 0.00, 0.00, 0.00
231, 964.84, 69141.16, 3795.13, 29200.85, -22532.97, -3825.48, 4785.11, -59622.94, -7147.51, 38468.27, 8577.82, -10807.34, 0.00, 0.00, 0.00, 0.00, 0.00, 0.00, 0.00
232, 964.84, 69141.16, 3795.13, 29200.85, -22532.97, -3825.48, 4785.11, -59622.94, -7159.13, 38443.03, 8553.21, -10781.70, 0.00, 0.00, 0.00, 0.00, 0.00, 0.00, 0.00
233, 954.20, 69128.63, 3784.42, 29187.33, -22543.03, -3838.93, 4775.18, -59630.70, -7159.13, 38443.03, 8553.21, -10781.70, 0.00, 0.00, 0.00, 0.00, 0.00, 0.00, 0.00
234, 954.20, 69128.63, 3784.42, 29187.33, -22543.03, -3838.93, 4775.18, -59630.70, -7144.89, 38480.02, 8580.19, -10780.00, 0.00, 0.00, 0.00, 0.00, 0.00, 0.00, 0.00
235, 966.36, 69146.13, 3798.99, 29202.93, -22528.97, -3824.81, 4797.38, -59614.31, -7144.89, 38480.02, 8580.19, -10780.00, 0.00, 0.00, 0.00, 0.00, 0.00, 0.00, 0.00
236, 966.36, 69146.13, 3798.99, 29202.93, -22528.97, -3824.81, 4797.38, -59614.31, -7157.14, 38445.36, 8554.08, -10774.81, 0.00, 0.00, 0.00, 0.00, 0.00, 0.00, 0.00
237, 950.71, 69124.66, 3780.91, 29182.06, -22546.65, -3845.68, 4775.14, -59636.11, -7157.14, 38445.36, 8554.08, -10774.81, 0.00, 0.00, 0.00, 0.00, 0.00, 0.00, 0.00
238, 950.71, 69124.66, 3780.91, 29182.06, -22546.65, -3845.68, 4775.14, -59636.11, -7150.57, 38461.74, 8570.60, -10800.94, 0.00, 0.00, 0.00, 0.00, 0.15, 0.27, 0.98
239, 966.76, 69147.11, 3798.48, 29205.06, -22529.28, -3820.70, 4804.08, -59615.68, -7150.57, 38461.74, 8570.60, -10800.94, 0.00, 0.00, 0.00, 0.00, 0.00, 0.00, 0.00
240, 966.76, 69147.11, 3798.48, 29205.06, -22529.28, -3820.70, 4804.08, -59615.68, -7155.69, 38445.98, 8557.30, -10787.67, 0.00, 0.00, 0.00, 0.00, 0.00, 0.00, 0.00
241, 945.72, 69119.23, 3775.03, 29179.33, -22548.89, -3843.43, 4780.73, -59634.92, -7155.69, 38445.98, 8557.30, -10787.67, 0.00, 0.00, 0.00, 0.00, 0.00, 0.00, 0.00
242, 945.72, 69119.23, 3775.03, 29179.33, -22548.89, -3843.43, 4780.73, -59634.92, -7146.52, 38461.43, 8567.24, -10783.84, 0.00, 0.00, 0.00, 0.00, 0.00, 0.00, 0.00
243, 967.79, 69148.80, 3802.50, 29210.35, -22524.75, -3818.82, 4816.58, -59611.86, -7146.52, 38461.43, 8567.24, -10783.84, 0.00, 0.00, 0.00, 0.00, 0.00, 0.00, 0.00
244, 967.79, 69148.80, 3802.50, 29210.35, -22524.75, -3818.82, 4816.58, -59611.86, -7151.35, 38457.70, 8565.08, -10779.46, 0.00, 0.00, 0.00, 0.00, 0.00, 0.00, 0.00
245, 950.28, 69120.15, 3778.25, 29181.41, -22545.71, -3841.30, 4788.30, -59634.03, -7151.35, 38457.70, 8565.08, -10779.46, 0.00, 0.00, 0.00, 0.00, 0.00, 0.00, 0.00
246, 950.28, 69120.15, 3778.25, 29181.41, -22545.71, -3841.30, 4788.30, -59634.03, -7145.32, 38462.70, 8562.60, -10779.98, 0.00, 0.00, 0.00, 0.00, 0.00, 0.00, 0.00
247, 966.65, 69145.14, 3798.54, 29208.23, -22527.21, -3819.82, 4821.67, -59608.90, -7145.32, 38462.70, 8562.60, -10779.98, 0.00, 0.00, 0.00, 0.00, 0.00, 0.00, 0.00
248, 966.65, 69145.14, 3798.54, 29208.23, -22527.21, -3819.82, 4821.67, -59608.90, -7148.07, 38461.88, 8569.10, -10791.15, 0.00, 0.00, 0.00, 0.00, 0.15, 0.27, 0.98
249, 944.94, 69115.62, 3774.20, 29179.42, -22546.83, -3845.04, 4795.52, -59634.27, -7148.07, 38461.88, 8569.10, -10791.15, 0.00, 0.00, 0.00, 0.00, 0.00, 0.00, 0.00
250, 944.94, 69115.62, 3774.20, 29179.42, -22546.83, -3845.04, 4795.52, -59634.27, -7151.48, 38449.89, 8557.99, -10776.45, 0.00, 0.00, 0.00, 0.00, 0.00, 0.00, 0.00
251, 960.36, 69139.55, 3794.45, 29204.23, -22528.86, -3823.65, 4827.24, -59609.91, -7151.48, 38449.89, 8557.99, -10776.45, 0.00, 0.00, 0.00, 0.00, 0.00, 0.00, 0.00
252, 960.36, 69139.55, 3794.45, 29204.23, -22528.86, -3823.65, 4827.24, -59609.91, -7141.05, 38470.03, 8574.55, -10782.88, 0.00, 0.00, 0.00, 0.00, 0.00, 0.00, 0.00
253, 945.81, 69116.69, 3776.26, 29180.09, -22542.09, -3841.39, 4803.14, -59626.23, -7141.05, 38470.03, 8574.55, -10782.88, 0.00, 0.00, 0.00, 0.00, 0.00, 0.00, 0.00
254, 945.81, 69116.69, 3776.26, 29180.09, -22542.09, -3841.39, 4803.14, -59626.23, -7142.28, 38456.06, 8557.52, -10773.23, 0.00, 0.00, 0.00, 0.00, 0.00, 0.00, 0.00
255, 955.81, 69134.73, 3790.43, 29200.25, -22529.66, -3823.13, 4830.12, -59608.61, -7142.28, 38456.06, 8557.52, -10773.23, 0.00, 0.00, 0.00, 0.00, 0.00, 0.00, 0.00
0, 955.81, 69134.73, 3790.43, 29200.25, -22529.66, -3823.13, 4830.12, -59608.61, -7137.16, 38476.74, 8581.80, -10778.91, 0.00, 0.00, 0.00, 0.00, 0.00, 0.00, 0.00
1, 947.67, 69117.58, 3777.47, 29181.63, -22541.22, -3837.10, 4813.38, -59624.50, -7137.16, 38476.74, 8581.80, -10778.91, 0.00, 0.00, 0.00, 0.00, 0.00, 0.00, 0.00
2, 947.67, 69117.58, 3777.47, 29181.63, -22541.22, -3837.10, 4813.38, -59624.50, -7147.08, 38449.00, 8555.31, -10758.83, 0.00, 0.00, 0.00, 0.00, 0.15, 0.27, 0.98
3, 955.92, 69132.18, 3791.15, 29201.41, -22531.09, -3823.98, 4833.03, -59607.79, -7147.08, 38449.00, 8555.31, -10758.83, 0.00, 0.00, 0.00, 0.00, 0.00, 0.00, 0.00
4, 955.92, 69132.18, 3791.15, 29201.41, -22531.09, -3823.98, 4833.03, -59607.79, -7143.59, 38476.92, 8573.39, -10787.80, 0.00, 0.00, 0.00, 0.00, 0.00, 0.00, 0.00
5, 945.99, 69113.73, 3777.67, 29185.07, -22542.36, -3837.88, 4818.12, -59624.19, -7143.59, 38476.92, 8573.39, -10787.80, 0.00, 0.00, 0.00, 0.00, 0.00, 0.00, 0.00
6, 945.99, 69113.73, 3777.67, 29185.07, -22542.36, -3837.88, 4818.12, -59624.19, -7150.93, 38445.69, 8545.27, -10763.28, 0.00, 0.00, 0.00, 0.00, 0.00, 0.00, 0.00
7, 957.12, 69129.88, 3791.46, 29201.50, -22529.24, -3823.56, 4841.39, -59605.04, -7150.93, 38445.69, 8545.27, -10763.28, 0.00, 0.00, 0.00, 0.00, 0.00, 0.00, 0.00
8, 957.12, 69129.88, 3791.46, 29201.50, -22529.24, -3823.56, 4841.39, -59605.04, -7134.65, 38488.52, 8580.07, -10785.34, 0.00, 0.00, 0.00, 0.00, 0.00, 0.00, 0.00
9, 949.79, 69119.73, 3784.44, 29191.27, -22536.15, -3829.57, 4827.82, -59616.64, -7134.65, 38488.52, 8580.07, -10785.34, 0.00, 0.00, 0.00, 0.00, 0.00, 0.00, 0.00
10, 949.79, 69119.73, 3784.44, 29191.27, -22536.15, -3829.57, 4827.82, -59616.64, -7146.43, 38445.47, 8553.79, -10752.28, 0.00, 0.00, 0.00, 0.00, 0.00, 0.00, 0.00
11, 959.40, 69130.59, 3792.02, 29198.98, -22531.54, -3823.87, 4839.91, -59607.18, -7146.43, 38445.47, 8553.79, -10752.28, 0.00, 0.00, 0.00, 0.00, 0.00, 0.00, 0.00
12, 959.40, 69130.59, 3792.02, 29198.98, -22531.54, -3823.87, 4839.91, -59607.18, -7133.87, 38489.43, 8587.72, -10786.71, 0.00, 0.00, 0.00, 0.00, 0.16, 0.28, 0.97
13, 959.18, 69129.31, 3790.63, 29195.38, -22530.07, -3825.43, 4842.46, -59605.66, -7133.87, 38489.43, 8587.72, -10786.71, 0.00, 0.00, 0.00, 0.00, 0.00, 0.00, 0.00
14, 959.18, 69129.31, 3790.63, 29195.38, -22530.07, -3825.43, 4842.46, -59605.66, -7147.26, 38450.54, 8550.70, -10749.31, 0.00, 0.00, 0.00, 0.00, 0.00, 0.00, 0.00
15, 947.98, 69121.16, 3781.20, 29186.53, -22539.01, -3835.02, 4835.78, -59610.16, -7147.26, 38450.54, 8550.70, -10749.31, 0.00, 0.00, 0.00, 0.00, 0.00, 0.00, 0.00
16, 947.98, 69121.16, 3781.20, 29186.53, -22539.01, -3835.02, 4835.78, -59610.16, -7133.42, 38482.77, 8582.49, -10789.16, 0.00, 0.00, 0.00, 0.00, 0.00, 0.00, 0.00
17, 955.85, 69129.52, 3788.78, 29193.48, -22531.36, -3829.21, 4841.77, -59604.50, -7133.42, 38482.77, 8582.49, -10789.16, 0.00, 0.00, 0.00, 0.00, 0.00, 0.00, 0.00
18, 955.85, 69129.52, 3788.78, 29193.48, -22531.36, -3829.21, 4841.77, -59604.50, -7147.46, 38445.87, 8554.97, -10752.04, 0.00, 0.00, 0.00, 0.00, 0.00, 0.00, 0.00
19, 950.06, 69122.03, 3781.02, 29185.43, -22541.40, -3833.44, 4835.15, -59613.57, -7147.46, 38445.87, 8554.97, -10752.04, 0.00, 0.00, 0.00, 0.00, 0.00, 0.00, 0.00
20, 950.06, 69122.03, 3781.02, 29185.43, -22541.40, -3833.44, 4835.15, -59613.57, -7137.02, 38483.73, 8584.63, -10791.20, 0.00, 0.00, 0.00, 0.00, 0.00, 0.00, 0.00
21, 963.74, 69136.85, 3795.44, 29201.08, -22528.88, -3822.35, 4849.79, -59601.33, -7137.02, 38483.73, 8584.63, -10791.20, 0.00, 0.00, 0.00, 0.00, 0.16, 0.27, 0.97
22, 963.74, 69136.85, 3795.44, 29201.08, -22528.88, -3822.35, 4849.79, -59601.33, -7148.15, 38451.17, 8557.83, -10750.18, 0.00, 0.00, 0.00, 0.00, 0.00, 0.00, 0.00
23, 950.42, 69120.66, 3780.84, 29185.57, -22542.09, -3836.32, 4834.62, -59616.93, -7148.15, 38451.17, 8557.83, -10750.18, 0.00, 0.00, 0.00, 0.00, 0.00, 0.00, 0.00
24, 950.42, 69120.66, 3780.84, 29185.57, -22542.09, -3836.32, 4834.62, -59616.93, -7136.33, 38479.64, 8579.52, -10781.54, 0.00, 0.00, 0.00, 0.00, 0.00, 0.00, 0.00
25, 961.66, 69134.08, 3793.05, 29202.53, -22527.76, -3819.18, 4853.97, -59598.49, -7136.33, 38479.64, 8579.52, -10781.54, 0.00, 0.00, 0.00, 0.00, 0.00, 0.00, 0.00
26, 961.66, 69134.08, 3793.05, 29202.53, -22527.76, -3819.18, 4853.97, -59598.49, -7150.03, 38448.35, 8554.10, -10760.22, 0.00, 0.00, 0.00, 0.00, 0.00, 0.00, 0.00
27, 943.80, 69111.14, 3772.68, 29177.50, -22548.71, -3840.28, 4830.66, -59618.58, -7150.03, 38448.35, 8554.10, -10760.22, 0.00, 0.00, 0.00, 0.00, 0.00, 0.00, 0.00
28, 943.80, 69111.14, 3772.68, 29177.50, -22548.71, -3840.28, 4830.66, -59618.58, -7144.06, 38476.61, 8572.14, -10783.17, 0.00, 0.00, 0.00, 0.00, 0.00, 0.00, 0.00
29, 963.07, 69134.48, 3793.27, 29202.78, -22531.00, -3820.02, 4855.11, -59602.55, -7144.06, 38476.61, 8572.14, -10783.17, 0.00, 0.00, 0.00, 0.00, 0.00, 0.00, 0.00
30, 963.07, 69134.48, 3793.27, 29202.78, -22531.00, -3820.02, 4855.11, -59602.55, -7147.42, 38454.68, 8564.21, -10755.14, 0.00, 0.00, 0.00, 0.00, 0.00, 0.00, 0.00
31, 950.35, 69118.05, 3778.50, 29179.42, -22542.96, -3843.90, 4831.82, -59615.86, -7147.42, 38454.68, 8564.21, -10755.14, 0.00, 0.00, 0.00, 0.00, 0.15, 0.27, 0.97
32, 950.35, 69118.05, 3778.50, 29179.42, -22542.96, -3843.90, 4831.82, -59615.86, -7141.18, 38468.71, 8575.09, -10778.12, 0.00, 0.00, 0.00, 0.00, 0.00, 0.00, 0.00
33, 970.87, 69148.20, 3802.50, 29206.40, -22523.00, -3818.97, 4861.68, -59593.23, -7141.18, 38468.71, 8575.09, -10778.12, 0.00, 0.00, 0.00, 0.00, 0.00, 0.00, 0.00
34, 970.87, 69148.20, 3802.50, 29206.40, -22523.00, -3818.97, 4861.68, -59593.23, -7146.48, 38457.43, 8567.27, -10766.95, 0.00, 0.00, 0.00, 0.00, 0.00, 0.00, 0.00
35, 953.39, 69123.35, 3781.38, 29180.47, -22541.73, -3837.24, 4833.54, -59617.11, -7146.48, 38457.43, 8567.27, -10766.95, 0.00, 0.00, 0.00, 0.00, 0.00, 0.00, 0.00
36, 953.39, 69123.35, 3781.38, 29180.47, -22541.73, -3837.24, 4833.54, -59617.11, -7143.33, 38466.97, 8571.87, -10775.08, 0.00, 0.00, 0.00, 0.00, 0.00, 0.00, 0.00
37, 968.88, 69143.24, 3798.59, 29207.31, -22527.54, -3815.49, 4860.41, -59595.05, -7143.33, 38466.97, 8571.87, -10775.08, 0.00, 0.00, 0.00, 0.00, 0.00, 0.00, 0.00
38, 968.88, 69143.24, 3798.59, 29207.31, -22527.54, -3815.49, 4860.41, -59595.05, -7144.73, 38463.66, 8570.84, -10764.04, 0.00, 0.00, 0.00, 0.00, 0.00, 0.00, 0.00
39, 949.73, 69118.09, 3778.81, 29179.91, -22542.09, -3840.52, 4831.31, -59615.07, -7144.73, 38463.66, 8570.84, -10764.04, 0.00, 0.00, 0.00, 0.00, 0.00, 0.00, 0.00
40, 949.73, 69118.09, 3778.81, 29179.91, -22542.09, -3840.52, 4831.31, -59615.07, -7140.56, 38460.24, 8569.90, -10764.87, 0.00, 0.00, 0.00, 0.00, 0.00, 0.00, 0.00
41, 969.51, 69146.35, 3803.89, 29209.55, -22520.34, -3814.28, 4863.72, -59589.23, -7140.56, 38460.24, 8569.90, -10764.87, 0.00, 0.00, 0.00, 0.00, 0.15, 0.27, 0.97
42, 969.51, 69146.35, 3803.89, 29209.55, -22520.34, -3814.28, 4863.72, -59589.23, -7139.33, 38471.78, 8577.35, -10777.07, 0.00, 0.00, 0.00, 0.00, 0.00, 0.00, 0.00
43, 951.33, 69119.75, 3782.00, 29182.62, -22537.71, -3836.77, 4834.12, -59612.97, -7139.33, 38471.78, 8577.35, -10777.07, 0.00, 0.00, 0.00, 0.00, 0.00, 0.00, 0.00
44, 951.33, 69119.75, 3782.00, 29182.62, -22537.71, -3836.77, 4834.12, -59612.97, -7143.01, 38457.23, 8564.63, -10753.13, 0.00, 0.00, 0.00, 0.00, 0.00, 0.00, 0.00
45, 965.22, 69141.52, 3797.63, 29204.79, -22524.34, -3819.18, 4858.17, -59592.18, -7143.01, 38457.23, 8564.63, -10753.13, 0.00, 0.00, 0.00, 0.00, 0.00, 0.00, 0.00
46, 965.22, 69141.52, 3797.63, 29204.79, -22524.34, -3819.18, 4858.17, -59592.18, -7140.15, 38476.00, 8580.19, -10771.10, 0.00, 0.00, 0.00, 0.00, 0.00, 0.00, 0.00
47, 948.63, 69117.41, 3777.87, 29181.41, -22539.54, -3835.76, 4831.37, -59611.50, -7140.15, 38476.00, 8580.19, -10771.10, 0.00, 0.00, 0.00, 0.00, 0.00, 0.00, 0.00
48, 948.63, 69117.41, 3777.87, 29181.41, -22539.54, -3835.76, 4831.37, -59611.50, -7151.42, 38448.93, 8551.73, -10762.86, 0.00, 0.00, 0.00, 0.00, 0.00, 0.00, 0.00
49, 955.60, 69130.95, 3786.01, 29196.38, -22532.26, -3825.99, 4848.72, -59599.25, -7151.42, 38448.93, 8551.73, -10762.86, 0.00, 0.00, 0.00, 0.00, 0.00, 0.00, 0.00
50, 955.60, 69130.95, 3786.01, 29196.38, -22532.26, -3825.99, 4848.72, -59599.25, -7141.69, 38471.73, 8576.52, -10784.07, 0.00, 0.00, 0.00, 0.00, 0.00, 0.00, 0.00
51, 953.68, 69123.70, 3782.41, 29184.56, -22534.54, -3831.58, 4831.46, -59605.73, -7141.69, 38471.73, 8576.52, -10784.07, 0.00, 0.00, 0.00, 0.00, 0.15, 0.28, 0.97
52, 953.68, 69123.70, 3782.41, 29184.56, -22534.54, -3831.58, 4831.46, -59605.73, -7148.02, 38446.23, 8552.20, -10753.09, 0.00, 0.00, 0.00, 0.00, 0.00, 0.00, 0.00
53, 955.92, 69133.02, 3787.21, 29194.69, -22532.05, -3827.18, 4842.24, -59594.18, -7148.02, 38446.23, 8552.20, -10753.09, 0.00, 0.00, 0.00, 0.00, 0.00, 0.00, 0.00
54, 955.92, 69133.02, 3787.21, 29194.69, -22532.05, -3827.18, 4842.24, -59594.18, -7138.54, 38484.56, 8580.16, -10778.46, 0.00, 0.00, 0.00, 0.00, 0.00, 0.00, 0.00
55, 945.57, 69121.65, 3777.76, 29183.98, -22534.56, -3829.57, 4830.59, -59599.34, -7138.54, 38484.56, 8580.16, -10778.46, 0.00, 0.00, 0.00, 0.00, 0.00, 0.00, 0.00
56, 945.57, 69121.65, 3777.76, 29183.98, -22534.56, -3829.57, 4830.59, -59599.34, -7143.93, 38452.42, 8553.59, -10746.32, 0.00, 0.00, 0.00, 0.00, 0.00, 0.00, 0.00
57, 954.46, 69134.52, 3789.07, 29198.06, -22526.47, -3818.46, 4841.70, -59590.29, -7143.93, 38452.42, 8553.59, -10746.32, 0.00, 0.00, 0.00, 0.00, 0.00, 0.00, 0.00
58, 954.46, 69134.52, 3789.07, 29198.06, -22526.47, -3818.46, 4841.70, -59590.29, -7129.56, 38486.46, 8584.99, -10782.95, 0.00, 0.00, 0.00, 0.00, 0.00, 0.00, 0.00
59, 948.23, 69124.13, 3781.38, 29187.06, -22528.79, -3828.47, 4833.72, -59593.50, -7129.56, 38486.46, 8584.99, -10782.95, 0.00, 0.00, 0.00, 0.00, 0.00, 0.00, 0.00
60, 948.23, 69124.13, 3781.38, 29187.06, -22528.79, -3828.47, 4833.72, -59593.50, -7142.68, 38449.45, 8552.04, -10742.11, 0.00, 0.00, 0.00, 0.00, 0.15, 0.27, 0.96
61, 948.99, 69123.82, 3779.55, 29187.26, -22532.93, -3829.37, 4825.56, -59594.24, -7142.68, 38449.45, 8552.04, -10742.11, 0.00, 0.00, 0.00, 0.00, 0.00, 0.00, 0.00
62, 948.99, 69123.82, 3779.55, 29187.26, -22532.93, -3829.37, 4825.56, -59594.24, -7130.54, 38486.95, 8580.57, -10777.94, 0.00, 0.00, 0.00, 0.00, 0.00, 0.00, 0.00
63, 956.03, 69130.23, 3784.95, 29194.19, -22525.60, -3821.05, 4829.74, -59593.01, -7130.54, 38486.95, 8580.57, -10777.94, 0.00, 0.00, 0.00, 0.00, 0.00, 0.00, 0.00
64, 956.03, 69130.23, 3784.95, 29194.19, -22525.60, -3821.05, 4829.74, -59593.01, -7140.22, 38454.86, 8555.51, -10748.10, 0.00, 0.00, 0.00, 0.00, 0.00, 0.00, 0.00
65, 949.55, 69123.39, 3779.26, 29188.67, -22531.16, -3826.08, 4825.88, -59595.29, -7140.22, 38454.86, 8555.51, -10748.10, 0.00, 0.00, 0.00, 0.00, 0.00, 0.00, 0.00
66, 949.55, 69123.39, 3779.26, 29188.67, -22531.16, -3826.08, 4825.88, -59595.29, -7131.61, 38487.87, 8580.45, -10771.77, 0.00, 0.00, 0.00, 0.00, 0.00, 0.00, 0.00
67, 954.13, 69127.73, 3783.12, 29191.56, -22528.50, -3826.04, 4826.93, -59593.23, -7131.61, 38487.87, 8580.45, -10771.77, 0.00, 0.00, 0.00, 0.00, 0.00, 0.00, 0.00
68, 954.13, 69127.73, 3783.12, 29191.56, -22528.50, -3826.04, 4826.93, -59593.23, -7142.16, 38451.64, 8553.48, -10737.17, 0.00, 0.00, 0.00, 0.00, 0.00, 0.00, 0.00
69, 946.26, 69118.63, 3774.76, 29183.24, -22536.48, -3832.36, 4814.68, -59600.34, -7142.16, 38451.64, 8553.48, -10737.17, 0.00, 0.00, 0.00, 0.00, 0.00, 0.00, 0.00
70, 946.26, 69118.63, 3774.76, 29183.24, -22536.48, -3832.36, 4814.68, -59600.34, -7132.13, 38487.85, 8577.82, -10775.35, 0.00, 0.00, 0.00, 0.00, 0.15, 0.27, 0.96
71, 955.87, 69130.19, 3786.23, 29197.57, -22523.90, -3819.11, 4826.61, -59584.94, -7132.13, 38487.85, 8577.82, -10775.35, 0.00, 0.00, 0.00, 0.00, 0.00, 0.00, 0.00
72, 955.87, 69130.19, 3786.23, 29197.57, -22523.90, -3819.11, 4826.61, -59584.94, -7143.06, 38457.63, 8553.92, -10748.35, 0.00, 0.00, 0.00, 0.00, 0.00, 0.00, 0.00
73, 938.24, 69110.43, 3768.01, 29178.48, -22540.71, -3833.97, 4805.11, -59603.18, -7143.06, 38457.63, 8553.92, -10748.35, 0.00, 0.00, 0.00, 0.00, 0.00, 0.00, 0.00
74, 938.24, 69110.43, 3768.01, 29178.48, -22540.71, -3833.97, 4805.11, -59603.18, -7137.85, 38479.78, 8568.65, -10767.71, 0.00, 0.00, 0.00, 0.00, 0.00, 0.00, 0.00
75, 950.46, 69127.59, 3782.09, 29199.45, -22528.79, -3818.30, 4822.63, -59589.26, -7137.85, 38479.78, 8568.65, -10767.71, 0.00, 0.00, 0.00, 0.00, 0.00, 0.00, 0.00
76, 950.46, 69127.59, 3782.09, 29199.45, -22528.79, -3818.30, 4822.63, -59589.26, -7148.22, 38455.57, 8553.61, -10750.61, 0.00, 0.00, 0.00, 0.00, 0.00, 0.00, 0.00
77, 935.40, 69105.67, 3764.39, 29173.45, -22547.61, -3839.52, 4796.68, -59606.85, -7148.22, 38455.57, 8553.61, -10750.61, 0.00, 0.00, 0.00, 0.00, 0.00, 0.00, 0.00
78, 935.40, 69105.67, 3764.39, 29173.45, -22547.61, -3839.52, 4796.68, -59606.85, -7135.77, 38479.13, 8571.20, -10768.31, 0.00, 0.00, 0.00, 0.00, 0.00, 0.00, 0.00
79, 959.23, 69136.45, 3790.74, 29201.30, -22523.79, -3816.43, 4826.19, -59581.97, -7135.77, 38479.13, 8571.20, -10768.31, 0.00, 0.00, 0.00, 0.00, 0.00, 0.00, 0.00
80, 959.23, 69136.45, 3790.74, 29201.30, -22523.79, -3816.43, 4826.19, -59581.97, -7145.20, 38462.30, 8563.62, -10757.72, 0.00, 0.00, 0.00, 0.00, 0.15, 0.27, 0.97
81, 938.80, 69112.04, 3769.31, 29173.47, -22543.43, -3840.23, 4798.49, -59606.45, -7145.20, 38462.30, 8563.62, -10757.72, 0.00, 0.00, 0.00, 0.00, 0.00, 0.00, 0.00
82, 938.80, 69112.04, 3769.31, 29173.47, -22543.43, -3840.23, 4798.49, -59606.45, -7138.72, 38474.61, 8569.90, -10753.45, 0.00, 0.00, 0.00, 0.00, 0.00, 0.00, 0.00
83, 959.16, 69137.77, 3791.68, 29206.89, -22520.28, -3811.53, 4829.12, -59575.46, -7138.72, 38474.61, 8569.90, -10753.45, 0.00, 0.00, 0.00, 0.00, 0.00, 0.00, 0.00
84, 959.16, 69137.77, 3791.68, 29206.89, -22520.28, -3811.53, 4829.12, -59575.46, -7139.01, 38474.08, 8565.68, -10747.23, 0.00, 0.00, 0.00, 0.00, 0.00, 0.00, 0.00
85, 936.90, 69108.35, 3766.27, 29171.73, -22542.11, -3837.15, 4795.54, -59604.57, -7139.01, 38474.08, 8565.68, -10747.23, 0.00, 0.00, 0.00, 0.00, 0.00, 0.00, 0.00
86, 936.90, 69108.35, 3766.27, 29171.73, -22542.11, -3837.15, 4795.54, -59604.57, -7141.20, 38467.60, 8563.00, -10765.36, 0.00, 0.00, 0.00, 0.00, 0.00, 0.00, 0.00
87, 951.89, 69131.24, 3786.30, 29200.47, -22525.84, -3816.85, 4822.52, -59580.27, -7141.20, 38467.60, 8563.00, -10765.36, 0.00, 0.00, 0.00, 0.00, 0.00, 0.00, 0.00
88, 951.89, 69131.24, 3786.30, 29200.47, -22525.84, -3816.85, 4822.52, -59580.27, -7138.30, 38478.17, 8569.59, -10748.93, 0.00, 0.00, 0.00, 0.00, 0.00, 0.00, 0.00
89, 934.21, 69107.77, 3767.74, 29174.19, -22540.64, -3835.13, 4795.66, -59599.16, -7138.30, 38478.17, 8569.59, -10748.93, 0.00, 0.00, 0.00, 0.00, 0.00, 0.00, 0.00
90, 934.21, 69107.77, 3767.74, 29174.19, -22540.64, -3835.13, 4795.66, -59599.16, -7138.86, 38466.46, 8565.01, -10744.42, 0.00, 0.00, 0.00, 0.00, 0.15, 0.28, 0.97
91, 953.84, 69135.30, 3792.24, 29204.52, -22519.61, -3812.05, 4823.46, -59577.10, -7138.86, 38466.46, 8565.01, -10744.42, 0.00, 0.00, 0.00, 0.00, 0.00, 0.00, 0.00
92, 953.84, 69135.30, 3792.24, 29204.52, -22519.61, -3812.05, 4823.46, -59577.10, -7130.27, 38484.85, 8581.33, -10754.65, 0.00, 0.00, 0.00, 0.00, 0.00, 0.00, 0.00
93, 937.30, 69111.44, 3773.02, 29180.85, -22532.55, -3828.47, 4801.56, -59589.59, -7130.27, 38484.85, 8581.33, -10754.65, 0.00, 0.00, 0.00, 0.00, 0.00, 0.00, 0.00
94, 937.30, 69111.44, 3773.02, 29180.85, -22532.55, -3828.47, 4801.56, -59589.59, -7134.59, 38469.32, 8562.73, -10745.40, 0.00, 0.00, 0.00, 0.00, 0.00, 0.00, 0.00
95, 950.31, 69128.55, 3785.09, 29200.61, -22524.41, -3816.02, 4819.84, -59578.75, -7134.59, 38469.32, 8562.73, -10745.40, 0.00, 0.00, 0.00, 0.00, 0.00, 0.00, 0.00
96, 950.31, 69128.55, 3785.09, 29200.61, -22524.41, -3816.02, 4819.84, -59578.75, -7134.61, 38480.14, 8579.45, -10756.11, 0.00, 0.00, 0.00, 0.00, 0.00, 0.00, 0.00
97, 939.58, 69111.95, 3771.99, 29180.60, -22536.86, -3831.74, 4795.92, -59595.85, -7134.61, 38480.14, 8579.45, -10756.11, 0.00, 0.00, 0.00, 0.00, 0.00, 0.00, 0.00
98, 939.58, 69111.95, 3771.99, 29180.60, -22536.86, -3831.74, 4795.92, -59595.85, -7142.75, 38457.14, 8554.19, -10734.94, 0.00, 0.00, 0.00, 0.00, 0.00, 0.00, 0.00
99, 949.59, 69125.67, 3782.50, 29198.71, -22528.46, -3817.61, 4813.22, -59583.25, -7142.75, 38457.14, 8554.19, -10734.94, 0.00, 0.00, 0.00, 0.00, 0.16, 0.27, 0.97
100, 949.59, 69125.67, 3782.50, 29198.71, -22528.46, -3817.61, 4813.22, -59583.25, -7135.64, 38486.84, 8579.99, -10762.61, 0.00, 0.00, 0.00, 0.00, 0.00, 0.00, 0.00
101, 944.27, 69111.79, 3771.79, 29183.96, -22536.19, -3828.74, 4794.67, -59595.40, -7135.64, 38486.84, 8579.99, -10762.61, 0.00, 0.00, 0.00, 0.00, 0.00, 0.00, 0.00
102, 944.27, 69111.79, 3771.79, 29183.96, -22536.19, -3828.74, 4794.67, -59595.40, -7147.73, 38449.52, 8550.37, -10746.00, 0.00, 0.00, 0.00, 0.00, 0.00, 0.00, 0.00
103, 948.72, 69122.25, 3778.03, 29190.88, -22532.70, -3825.84, 4803.26, -59589.26, -7147.73, 38449.52, 8550.37, -10746.00, 0.00, 0.00, 0.00, 0.00, 0.00, 0.00, 0.00
104, 948.72, 69122.25, 3778.03, 29190.88, -22532.70, -3825.84, 4803.26, -59589.26, -7136.64, 38480.98, 8579.34, -10767.30, 0.00, 0.00, 0.00, 0.00, 0.00, 0.00, 0.00
105, 949.75, 69119.21, 3776.71, 29188.07, -22530.69, -3828.38, 4799.19, -59588.05, -7136.64, 38480.98, 8579.34, -10767.30, 0.00, 0.00, 0.00, 0.00, 0.00, 0.00, 0.00
106, 949.75, 69119.21, 3776.71, 29188.07, -22530.69, -3828.38, 4799.19, -59588.05, -7142.14, 38457.96, 8549.83, -10737.35, 0.00, 0.00, 0.00, 0.00, 0.00, 0.00, 0.00
107, 947.71, 69119.05, 3774.47, 29190.66, -22534.36, -3825.34, 4800.19, -59586.13, -7142.14, 38457.96, 8549.83, -10737.35, 0.00, 0.00, 0.00, 0.00, 0.00, 0.00, 0.00
108, 947.71, 69119.05, 3774.47, 29190.66, -22534.36, -3825.34, 4800.19, -59586.13, -7134.92, 38487.60, 8580.99, -10763.24, 0.00, 0.00, 0.00, 0.00, 0.00, 0.00, 0.00
109, 951.25, 69121.70, 3778.67, 29191.56, -22529.06, -3822.95, 4797.51, -59587.91, -7134.92, 38487.60, 8580.99, -10763.24, 0.00, 0.00, 0.00, 0.00, 0.15, 0.27, 0.97
110, 951.25, 69121.70, 3778.67, 29191.56, -22529.06, -3822.95, 4797.51, -59587.91, -7145.27, 38452.22, 8549.39, -10729.73, 0.00, 0.00, 0.00, 0.00, 0.00, 0.00, 0.00
111, 945.28, 69119.05, 3775.41, 29190.75, -22532.44, -3825.10, 4793.62, -59589.48, -7145.27, 38452.22, 8549.39, -10729.73, 0.00, 0.00, 0.00, 0.00, 0.00, 0.00, 0.00
112, 945.28, 69119.05, 3775.41, 29190.75, -22532.44, -3825.10, 4793.62, -59589.48, -7130.47, 38489.59, 8582.87, -10768.06, 0.00, 0.00, 0.00, 0.00, 0.00, 0.00, 0.00
113, 951.67, 69125.92, 3780.62, 29193.90, -22528.28, -3821.61, 4795.14, -59585.57, -7130.47, 38489.59, 8582.87, -10768.06, 0.00, 0.00, 0.00, 0.00, 0.00, 0.00, 0.00
114, 951.67, 69125.92, 3780.62, 29193.90, -22528.28, -3821.61, 4795.14, -59585.57, -7145.36, 38447.59, 8553.61, -10744.46, 0.00, 0.00, 0.00, 0.00, 0.00, 0.00, 0.00
115, 944.65, 69116.55, 3772.50, 29183.89, -22535.90, -3830.73, 4785.24, -59593.41, -7145.36, 38447.59, 8553.61, -10744.46, 0.00, 0.00, 0.00, 0.00, 0.00, 0.00, 0.00
116, 944.65, 69116.55, 3772.50, 29183.89, -22535.90, -3830.73, 4785.24, -59593.41, -7127.97, 38490.57, 8580.79, -10757.25, 0.00, 0.00, 0.00, 0.00, 0.00, 0.00, 0.00
117, 956.23, 69131.82, 3784.91, 29199.96, -22521.62, -3814.73, 4799.75, -59576.41, -7127.97, 38490.57, 8580.79, -10757.25, 0.00, 0.00, 0.00, 0.00, 0.00, 0.00, 0.00
118, 956.23, 69131.82, 3784.91, 29199.96, -22521.62, -3814.73, 4799.75, -59576.41, -7134.72, 38463.55, 8556.69, -10724.77, 0.00, 0.00, 0.00, 0.00, 0.00, 0.00, 0.00
119, 942.60, 69112.22, 3768.55, 29182.39, -22536.75, -3829.75, 4781.66, -59589.75, -7134.72, 38463.55, 8556.69, -10724.77, 0.00, 0.00, 0.00, 0.00, 0.16, 0.27, 0.96
120, 942.60, 69112.22, 3768.55, 29182.39, -22536.75, -3829.75, 4781.66, -59589.75, -7126.47, 38486.53, 8576.03, -10751.26, 0.00, 0.00, 0.00, 0.00, 0.00, 0.00, 0.00
121, 953.59, 69126.55, 3783.17, 29199.89, -22523.65, -3814.77, 4792.15, -59574.24, -7126.47, 38486.53, 8576.03, -10751.26, 0.00, 0.00, 0.00, 0.00, 0.00, 0.00, 0.00
122, 953.59, 69126.55, 3783.17, 29199.89, -22523.65, -3814.77, 4792.15, -59574.24, -7133.13, 38472.07, 8560.94, -10722.94, 0.00, 0.00, 0.00, 0.00, 0.00, 0.00, 0.00
123, 948.21, 69117.70, 3775.34, 29190.86, -22531.59, -3819.33, 4781.15, -59585.99, -7133.13, 38472.07, 8560.94, -10722.94, 0.00, 0.00, 0.00, 0.00, 0.00, 0.00, 0.00
124, 948.21, 69117.70, 3775.34, 29190.86, -22531.59, -3819.33, 4781.15, -59585.99, -7130.12, 38482.98, 8577.66, -10744.21, 0.00, 0.00, 0.00, 0.00, 0.00, 0.00, 0.00
125, 960.03, 69133.61, 3788.78, 29205.68, -22520.03, -3813.39, 4791.30, -59572.25, -7130.12, 38482.98, 8577.66, -10744.21, 0.00, 0.00, 0.00, 0.00, 0.00, 0.00, 0.00
126, 960.03, 69133.61, 3788.78, 29205.68, -22520.03, -3813.39, 4791.30, -59572.25, -7138.54, 38469.25, 8563.24, -10736.33, 0.00, 0.00, 0.00, 0.00, 0.00, 0.00, 0.00
127, 944.16, 69114.97, 3772.17, 29185.07, -22534.40, -3828.72, 4771.29, -59588.54, -7138.54, 38469.25, 8563.24, -10736.33, 0.00, 0.00, 0.00, 0.00, 0.00, 0.00, 0.00
128, 944.16, 69114.97, 3772.17, 29185.07, -22534.40, -3828.72, 4771.29, -59588.54, -7132.31, 38478.39, 8573.41, -10741.47, 0.00, 0.00, 0.00, 0.00, 0.00, 0.00, 0.00
129, 956.12, 69133.45, 3786.27, 29201.97, -22523.16, -3814.64, 4783.03, -59575.51, -7132.31, 38478.39, 8573.41, -10741.47, 0.00, 0.00, 0.00, 0.00, 0.15, 0.27, 0.96
130, 956.12, 69133.45, 3786.27, 29201.97, -22523.16, -3814.64, 4783.03, -59575.51, -7132.31, 38470.55, 8571.71, -10733.49, 0.00, 0.00, 0.00, 0.00, 0.00, 0.00, 0.00
131, 945.81, 69117.45, 3773.62, 29185.86, -22532.37, -3829.50, 4765.19, -59589.17, -7132.31, 38470.55, 8571.71, -10733.49, 0.00, 0.00, 0.00, 0.00, 0.00, 0.00, 0.00
132, 945.81, 69117.45, 3773.62, 29185.86, -22532.37, -3829.50, 4765.19, -59589.17, -7135.21, 38471.51, 8569.32, -10745.38, 0.00, 0.00, 0.00, 0.00, 0.00, 0.00, 0.00
133, 955.85, 69131.87, 3783.77, 29202.69, -22525.71, -3814.21, 4776.68, -59575.38, -7135.21, 38471.51, 8569.32, -10745.38, 0.00, 0.00, 0.00, 0.00, 0.00, 0.00, 0.00
134, 955.85, 69131.87, 3783.77, 29202.69, -22525.71, -3814.21, 4776.68, -59575.38, -7137.65, 38471.66, 8572.09, -10746.05, 0.00, 0.00, 0.00, 0.00, 0.00, 0.00, 0.00
135, 947.33, 69118.63, 3772.75, 29184.98, -22533.96, -3831.87, 4759.00, -59589.82, -7137.65, 38471.66, 8572.09, -10746.05, 0.00, 0.00, 0.00, 0.00, 0.00, 0.00, 0.00
136, 947.33, 69118.63, 3772.75, 29184.98, -22533.96, -3831.87, 4759.00, -59589.82, -7133.11, 38469.03, 8565.57, -10730.74, 0.00, 0.00, 0.00, 0.00, 0.00, 0.00, 0.00
137, 960.54, 69136.34, 3785.63, 29202.84, -22521.84, -3816.22, 4774.82, -59570.55, -7133.11, 38469.03, 8565.57, -10730.74, 0.00, 0.00, 0.00, 0.00, 0.00, 0.00, 0.00
138, 960.54, 69136.34, 3785.63, 29202.84, -22521.84, -3816.22, 4774.82, -59570.55, -7132.46, 38474.95, 8574.33, -10741.47, 0.00, 0.00, 0.00, 0.00, 0.15, 0.27, 0.97
139, 948.54, 69115.93, 3769.53, 29184.78, -22539.92, -3829.08, 4748.20, -59593.21, -7132.46, 38474.95, 8574.33, -10741.47, 0.00, 0.00, 0.00, 0.00, 0.00, 0.00, 0.00
140, 948.54, 69115.93, 3769.53, 29184.78, -22539.92, -3829.08, 4748.20, -59593.21, -7140.64, 38464.80, 8557.57, -10739.59, 0.00, 0.00, 0.00, 0.00, 0.00, 0.00, 0.00
141, 957.64, 69133.77, 3781.67, 29199.65, -22529.04, -3815.40, 4764.48, -59576.81, -7140.64, 38464.80, 8557.57, -10739.59, 0.00, 0.00, 0.00, 0.00, 0.00, 0.00, 0.00
142, 957.64, 69133.77, 3781.67, 29199.65, -22529.04, -3815.40, 4764.48, -59576.81, -7131.08, 38481.54, 8577.37, -10743.75, 0.00, 0.00, 0.00, 0.00, 0.00, 0.00, 0.00
143, 953.37, 69123.70, 3776.22, 29185.88, -22532.30, -3826.77, 4753.57, -59585.39, -7131.08, 38481.54, 8577.37, -10743.75, 0.00, 0.00, 0.00, 0.00, 0.00, 0.00, 0.00
144, 953.37, 69123.70, 3776.22, 29185.88, -22532.30, -3826.77, 4753.57, -59585.39, -7130.18, 38468.60, 8564.41, -10721.01, 0.00, 0.00, 0.00, 0.00, 0.00, 0.00, 0.00
145, 963.47, 69139.35, 3787.59, 29200.41, -22524.41, -3815.44, 4765.24, -59572.31, -7130.18, 38468.60, 8564.41, -10721.01, 0.00, 0.00, 0.00, 0.00, 0.00, 0.00, 0.00
146, 963.47, 69139.35, 3787.59, 29200.41, -22524.41, -3815.44, 4765.24, -59572.31, -7127.90, 38484.29, 8583.43, -10750.54, 0.00, 0.00, 0.00, 0.00, 0.00, 0.00, 0.00
147, 957.12, 69127.46, 3778.14, 29185.68, -22533.55, -3829.99, 4746.17, -59585.50, -7127.90, 38484.29, 8583.43, -10750.54, 0.00, 0.00, 0.00, 0.00, 0.00, 0.00, 0.00
148, 957.12, 69127.46, 3778.14, 29185.68, -22533.55, -3829.99, 4746.17, -59585.50, -7135.06, 38466.46, 8563.67, -10719.72, 0.00, 0.00, 0.00, 0.00, 0.15, 0.27, 0.97
149, 965.73, 69140.20, 3787.32, 29196.96, -22529.15, -3816.29, 4758.55, -59574.62, -7135.06, 38466.46, 8563.67, -10719.72, 0.00, 0.00, 0.00, 0.00, 0.00, 0.00, 0.00
150, 965.73, 69140.20, 3787.32, 29196.96, -22529.15, -3816.29, 4758.55, -59574.62, -7126.90, 38487.24, 8591.05, -10739.10, 0.00, 0.00, 0.00, 0.00, 0.00, 0.00, 0.00
151, 962.71, 69135.10, 3782.88, 29189.66, -22527.29, -3823.96, 4747.31, -59577.12, -7126.90, 38487.24, 8591.05, -10739.10, 0.00, 0.00, 0.00, 0.00, 0.00, 0.00, 0.00
152, 962.71, 69135.10, 3782.88, 29189.66, -22527.29, -3823.96, 4747.31, -59577.12, -7131.35, 38464.00, 8570.93, -10723.05, 0.00, 0.00, 0.00, 0.00, 0.00, 0.00, 0.00
153, 967.67, 69142.66, 3788.62, 29197.52, -22524.34, -3818.91, 4753.59, -59575.49, -7131.35, 38464.00, 8570.93, -10723.05, 0.00, 0.00, 0.00, 0.00, 0.00, 0.00, 0.00
154, 967.67, 69142.66, 3788.62, 29197.52, -22524.34, -3818.91, 4753.59, -59575.49, -7128.71, 38490.33, 8589.13, -10751.68, 0.00, 0.00, 0.00, 0.00, 0.00, 0.00, 0.00
155, 963.92, 69138.41, 3786.23, 29190.86, -22527.05, -3822.86, 4748.90, -59577.54, -7128.71, 38490.33, 8589.13, -10751.68, 0.00, 0.00, 0.00, 0.00, 0.00, 0.00, 0.00
156, 963.92, 69138.41, 3786.23, 29190.86, -22527.05, -3822.86, 4748.90, -59577.54, -7136.04, 38461.11, 8565.21, -10719.29, 0.00, 0.00, 0.00, 0.00, 0.00, 0.00, 0.00
157, 961.21, 69135.04, 3780.91, 29189.01, -22531.27, -3826.17, 4745.63, -59577.19, -7136.04, 38461.11, 8565.21, -10719.29, 0.00, 0.00, 0.00, 0.00, 0.00, 0.00, 0.00
158, 961.21, 69135.04, 3780.91, 29189.01, -22531.27, -3826.17, 4745.63, -59577.19, -7130.79, 38485.12, 8579.45, -10741.13, 0.00, 0.00, 0.00, 0.00, 0.15, 0.27, 0.97
159, 959.65, 69129.85, 3778.12, 29190.77, -22533.22, -3823.33, 4740.29, -59581.03, -7130.79, 38485.12, 8579.45, -10741.13, 0.00, 0.00, 0.00, 0.00, 0.00, 0.00, 0.00
160, 959.65, 69129.85, 3778.12, 29190.77, -22533.22, -3823.33, 4740.29, -59581.03, -7138.70, 38460.38, 8553.72, -10719.74, 0.00, 0.00, 0.00, 0.00, 0.00, 0.00, 0.00
161, 962.13, 69131.24, 3779.59, 29190.44, -22532.10, -3823.18, 4742.03, -59577.88, -7138.70, 38460.38, 8553.72, -10719.74, 0.00, 0.00, 0.00, 0.00, 0.00, 0.00, 0.00
162, 962.13, 69131.24, 3779.59, 29190.44, -22532.10, -3823.18, 4742.03, -59577.88, -7126.65, 38490.86, 8576.77, -10746.32, 0.00, 0.00, 0.00, 0.00, 0.00, 0.00, 0.00
163, 960.90, 69130.63, 3778.12, 29192.61, -22531.79, -3822.55, 4743.40, -59576.98, -7126.65, 38490.86, 8576.77, -10746.32, 0.00, 0.00, 0.00, 0.00, 0.00, 0.00, 0.00
164, 960.90, 69130.63, 3778.12, 29192.61, -22531.79, -3822.55, 4743.40, -59576.98, -7145.63, 38455.06, 8547.64, -10714.08, 0.00, 0.00, 0.00, 0.00, 0.00, 0.00, 0.00
165, 949.23, 69115.62, 3766.05, 29179.93, -22541.69, -3832.70, 4731.31, -59591.05, -7145.63, 38455.06, 8547.64, -10714.08, 0.00, 0.00, 0.00, 0.00, 0.00, 0.00, 0.00
166, 949.23, 69115.62, 3766.05, 29179.93, -22541.69, -3832.70, 4731.31, -59591.05, -7133.40, 38480.92, 8570.24, -10745.76, 0.00, 0.00, 0.00, 0.00, 0.00, 0.00, 0.00
167, 961.75, 69133.45, 3780.84, 29195.78, -22526.67, -3817.50, 4743.84, -59573.16, -7133.40, 38480.92, 8570.24, -10745.76, 0.00, 0.00, 0.00, 0.00, 0.00, 0.00, 0.00
168, 961.75, 69133.45, 3780.84, 29195.78, -22526.67, -3817.50, 4743.84, -59573.16, -7140.69, 38463.57, 8553.97, -10720.21, 0.00, 0.00, 0.00, 0.00, 0.15, 0.28, 0.97
169, 948.16, 69115.10, 3765.51, 29176.02, -22539.77, -3836.16, 4727.10, -59585.03, -7140.69, 38463.57, 8553.97, -10720.21, 0.00, 0.00, 0.00, 0.00, 0.00, 0.00, 0.00
170, 948.16, 69115.10, 3765.51, 29176.02, -22539.77, -3836.16, 4727.10, -59585.03, -7129.33, 38487.56, 8572.81, -10732.50, 0.00, 0.00, 0.00, 0.00, 0.00, 0.00, 0.00
171, 964.23, 69138.15, 3785.18, 29198.53, -22520.23, -3815.98, 4751.29, -59565.00, -7129.33, 38487.56, 8572.81, -10732.50, 0.00, 0.00, 0.00, 0.00, 0.00, 0.00, 0.00
172, 964.23, 69138.15, 3785.18, 29198.53, -22520.23, -3815.98, 4751.29, -59565.00, -7138.52, 38466.12, 8552.76, -10713.12, 0.00, 0.00, 0.00, 0.00, 0.00, 0.00, 0.00
173, 942.98, 69110.43, 3760.84, 29174.35, -22541.69, -3837.75, 4723.57, -59588.90, -7138.52, 38466.12, 8552.76, -10713.12, 0.00, 0.00, 0.00, 0.00, 0.00, 0.00, 0.00
174, 942.98, 69110.43, 3760.84, 29174.35, -22541.69, -3837.75, 4723.57, -59588.90, -7133.25, 38481.10, 8564.88, -10734.67, 0.00, 0.00, 0.00, 0.00, 0.00, 0.00, 0.00
175, 960.28, 69134.16, 3779.75, 29195.69, -22523.79, -3820.78, 4746.46, -59569.39, -7133.25, 38481.10, 8564.88, -10734.67, 0.00, 0.00, 0.00, 0.00, 0.00, 0.00, 0.00
176, 960.28, 69134.16, 3779.75, 29195.69, -22523.79, -3820.78, 4746.46, -59569.39, -7136.67, 38468.56, 8559.35, -10727.03, 0.00, 0.00, 0.00, 0.00, 0.00, 0.00, 0.00
177, 949.26, 69116.95, 3766.87, 29175.66, -22535.74, -3835.25, 4724.89, -59587.47, -7136.67, 38468.56, 8559.35, -10727.03, 0.00, 0.00, 0.00, 0.00, 0.16, 0.28, 0.97
178, 949.26, 69116.95, 3766.87, 29175.66, -22535.74, -3835.25, 4724.89, -59587.47, -7128.69, 38480.49, 8569.55, -10720.92, 0.00, 0.00, 0.00, 0.00, 0.00, 0.00, 0.00
179, 968.30, 69143.40, 3787.32, 29200.72, -22517.86, -3813.92, 4752.05, -59562.84, -7128.69, 38480.49, 8569.55, -10720.92, 0.00, 0.00, 0.00, 0.00, 0.00, 0.00, 0.00
180, 968.30, 69143.40, 3787.32, 29200.72, -22517.86, -3813.92, 4752.05, -59562.84, -7129.22, 38479.02, 8569.61, -10713.88, 0.00, 0.00, 0.00, 0.00, 0.00, 0.00, 0.00
181, 950.87, 69118.52, 3766.31, 29174.32, -22535.41, -3838.22, 4723.84, -59585.55, -7129.22, 38479.02, 8569.61, -10713.88, 0.00, 0.00, 0.00, 0.00, 0.00, 0.00, 0.00
182, 950.87, 69118.52, 3766.31, 29174.32, -22535.41, -3838.22, 4723.84, -59585.55, -7123.50, 38481.88, 8567.94, -10722.04, 0.00, 0.00, 0.00, 0.00, 0.00, 0.00, 0.00
183, 972.90, 69148.88, 3790.54, 29206.15, -22514.29, -3812.74, 4753.10, -59559.02, -7123.50, 38481.88, 8567.94, -10722.04, 0.00, 0.00, 0.00, 0.00, 0.00, 0.00, 0.00
184, 972.90, 69148.88, 3790.54, 29206.15, -22514.29, -3812.74, 4753.10, -59559.02, -7124.93, 38484.47, 8578.46, -10719.18, 0.00, 0.00, 0.00, 0.00, 0.00, 0.00, 0.00
185, 951.56, 69120.69, 3766.65, 29174.64, -22536.06, -3837.77, 4719.75, -59588.63, -7124.93, 38484.47, 8578.46, -10719.18, 0.00, 0.00, 0.00, 0.00, 0.00, 0.00, 0.00
186, 951.56, 69120.69, 3766.65, 29174.64, -22536.06, -3837.77, 4719.75, -59588.63, -7132.17, 38467.30, 8565.68, -10713.19, 0.00, 0.00, 0.00, 0.00, 0.00, 0.00, 0.00
187, 973.60, 69148.31, 3790.41, 29202.42, -22516.70, -3815.58, 4750.04, -59564.29, -7132.17, 38467.30, 8565.68, -10713.19, 0.00, 0.00, 0.00, 0.00, 0.15, 0.27, 0.97
188, 973.60, 69148.31, 3790.41, 29202.42, -22516.70, -3815.58, 4750.04, -59564.29, -7122.63, 38492.63, 8585.21, -10725.17, 0.00, 0.00, 0.00, 0.00, 0.00, 0.00, 0.00
189, 957.08, 69124.98, 3772.59, 29177.88, -22529.82, -3835.63, 4725.96, -59581.52, -7122.63, 38492.63, 8585.21, -10725.17, 0.00, 0.00, 0.00, 0.00, 0.00, 0.00, 0.00
190, 957.08, 69124.98, 3772.59, 29177.88, -22529.82, -3835.63, 4725.96, -59581.52, -7129.58, 38468.80, 8564.29, -10699.44, 0.00, 0.00, 0.00, 0.00, 0.00, 0.00, 0.00
191, 968.59, 69140.02, 3784.55, 29200.01, -22519.96, -3819.87, 4747.06, -59563.89, -7129.58, 38468.80, 8564.29, -10699.44, 0.00, 0.00, 0.00, 0.00, 0.00, 0.00, 0.00
192, 968.59, 69140.02, 3784.55, 29200.01, -22519.96, -3819.87, 4747.06, -59563.89, -7132.96, 38482.46, 8575.04, -10732.66, 0.00, 0.00, 0.00, 0.00, 0.00, 0.00, 0.00
193, 951.49, 69112.27, 3762.36, 29172.36, -22541.35, -3840.30, 4717.74, -59593.75, -7132.96, 38482.46, 8575.04, -10732.66, 0.00, 0.00, 0.00, 0.00, 0.00, 0.00, 0.00
194, 951.49, 69112.27, 3762.36, 29172.36, -22541.35, -3840.30, 4717.74, -59593.75, -7139.93, 38458.45, 8546.26, -10710.75, 0.00, 0.00, 0.00, 0.00, 0.00, 0.00, 0.00
195, 963.87, 69133.72, 3780.57, 29194.06, -22526.31, -3823.76, 4739.64, -59572.71, -7139.93, 38458.45, 8546.26, -10710.75, 0.00, 0.00, 0.00, 0.00, 0.00, 0.00, 0.00
196, 963.87, 69133.72, 3780.57, 29194.06, -22526.31, -3823.76, 4739.64, -59572.71, -7131.52, 38484.29, 8575.13, -10746.03, 0.00, 0.00, 0.00, 0.00, 0.00, 0.00, 0.00
197, 953.70, 69116.20, 3765.46, 29176.98, -22538.54, -3836.88, 4719.53, -59591.29, -7131.52, 38484.29, 8575.13, -10746.03, 0.00, 0.00, 0.00, 0.00, 0.15, 0.27, 0.97
198, 953.70, 69116.20, 3765.46, 29176.98, -22538.54, -3836.88, 4719.53, -59591.29, -7140.22, 38451.88, 8543.22, -10707.89, 0.00, 0.00, 0.00, 0.00, 0.00, 0.00, 0.00
199, 959.69, 69129.52, 3773.78, 29188.99, -22529.48, -3828.21, 4734.90, -59577.72, -7140.22, 38451.88, 8543.22, -10707.89, 0.00, 0.00, 0.00, 0.00, 0.00, 0.00, 0.00
200, 959.69, 69129.52, 3773.78, 29188.99, -22529.48, -3828.21, 4734.90, -59577.72, -7129.63, 38484.27, 8575.22, -10737.96, 0.00, 0.00, 0.00, 0.00, 0.00, 0.00, 0.00
201, 948.27, 69114.77, 3761.49, 29172.65, -22539.19, -3840.52, 4720.49, -59587.74, -7129.63, 38484.27, 8575.22, -10737.96, 0.00, 0.00, 0.00, 0.00, 0.00, 0.00, 0.00
202, 948.27, 69114.77, 3761.49, 29172.65, -22539.19, -3840.52, 4720.49, -59587.74, -7142.86, 38453.00, 8543.46, -10709.82, 0.00, 0.00, 0.00, 0.00, 0.00, 0.00, 0.00
203, 957.24, 69124.38, 3775.28, 29194.08, -22524.05, -3825.43, 4739.89, -59574.35, -7142.86, 38453.00, 8543.46, -10709.82, 0.00, 0.00, 0.00, 0.00, 0.00, 0.00, 0.00
204, 957.24, 69124.38, 3775.28, 29194.08, -22524.05, -3825.43, 4739.89, -59574.35, -7131.26, 38490.35, 8602.67, -10728.12, 0.00, 0.00, 0.00, 0.00, 0.00, 0.00, 0.00
205, 967.56, 69138.70, 3794.54, 29198.13, -22507.20, -3819.76, 4744.85, -59571.35, -7131.26, 38490.35, 8602.67, -10728.12, 0.00, 0.00, 0.00, 0.00, 0.00, 0.00, 0.00
206, 967.56, 69138.70, 3794.54, 29198.13, -22507.20, -3819.76, 4744.85, -59571.35, -7126.50, 38465.50, 8584.99, -10691.08, 0.00, 0.00, 0.00, 0.00, 0.00, 0.00, 0.00
207, 957.28, 69137.19, 3781.45, 29158.36, -22520.03, -3834.80, 4740.60, -59570.86, -7126.50, 38465.50, 8584.99, -10691.08, 0.00, 0.00, 0.00, 0.00, 0.15, 0.27, 0.96
208, 957.28, 69137.19, 3781.45, 29158.36, -22520.03, -3834.80, 4740.60, -59570.86, -7114.52, 38500.23, 8613.29, -10732.06, 0.00, 0.00, 0.00, 0.00, 0.00, 0.00, 0.00
209, 963.14, 69143.35, 3782.41, 29141.00, -22531.99, -3845.86, 4733.94, -59573.61, -7114.52, 38500.23, 8613.29, -10732.06, 0.00, 0.00, 0.00, 0.00, 0.00, 0.00, 0.00
210, 963.14, 69143.35, 3782.41, 29141.00, -22531.99, -3845.86, 4733.94, -59573.61, -7130.90, 38456.24, 8603.83, -10708.61, 0.00, 0.00, 0.00, 0.00, 0.00, 0.00, 0.00
211, 968.34, 69150.15, 3791.17, 29136.08, -22535.77, -3849.37, 4729.14, -59580.72, -7130.90, 38456.24, 8603.83, -10708.61, 0.00, 0.00, 0.00, 0.00, 0.00, 0.00, 0.00
212, 968.34, 69150.15, 3791.17, 29136.08, -22535.77, -3849.37, 4729.14, -59580.72, -7116.12, 38497.64, 8651.38, -10722.35, 0.00, 0.00, 0.00, 0.00, 0.00, 0.00, 0.00
213, 971.79, 69154.35, 3796.80, 29127.38, -22528.72, -3837.97, 4740.49, -59571.24, -7116.12, 38497.64, 8651.38, -10722.35, 0.00, 0.00, 0.00, 0.00, 0.00, 0.00, 0.00
214, 971.79, 69154.35, 3796.80, 29127.38, -22528.72, -3837.97, 4740.49, -59571.24, -7129.65, 38465.07, 8622.99, -10695.02, 0.00, 0.00, 0.00, 0.00, 0.00, 0.00, 0.00
215, 961.62, 69140.38, 3786.05, 29119.14, -22537.96, -3852.55, 4729.25, -59582.17, -7129.65, 38465.07, 8622.99, -10695.02, 0.00, 0.00, 0.00, 0.00, 0.00, 0.00, 0.00
216, 961.62, 69140.38, 3786.05, 29119.14, -22537.96, -3852.55, 4729.25, -59582.17, -7121.80, 38493.26, 8652.00, -10734.20, 0.00, 0.00, 0.00, 0.00, 0.15, 0.27, 0.97
217, 972.03, 69151.65, 3795.86, 29140.73, -22529.46, -3841.80, 4744.60, -59569.92, -7121.80, 38493.26, 8652.00, -10734.20, 0.00, 0.00, 0.00, 0.00, 0.00, 0.00, 0.00
218, 972.03, 69151.65, 3795.86, 29140.73, -22529.46, -3841.80, 4744.60, -59569.92, -7131.50, 38459.08, 8631.75, -10693.70, 0.00, 0.00, 0.00, 0.00, 0.00, 0.00, 0.00
219, 959.85, 69134.13, 3781.94, 29125.51, -22542.85, -3856.73, 4725.23, -59589.39, -7131.50, 38459.08, 8631.75, -10693.70, 0.00, 0.00, 0.00, 0.00, 0.00, 0.00, 0.00
