%OpenBCI Raw EEG Data
%
%Sample Rate = 250.0 Hz
%First Column = SampleIndex
%Other Columns = EEG data in microvolts followed by Accel Data (in G) interleaved with Aux Data
0, 0.00, 0.00, 0.00, 0.00, 0.00, 0.00, 0.00, 0.00, -5168.19, 19614.84, 5553.72, -4032.88, 0.00, 0.00, 0.00, 0.00, 0.00, 0.25, 0.44
1, 4357.27, 73875.59, 5898.51, 31237.54, -22877.30, -2286.85, 7775.14, -58363.22, -5168.19, 19614.84, 5553.72, -4032.88, 0.00, 0.00, 0.00, 0.00, 0.00, 0.00, 0.00
2, 4357.27, 73875.59, 5898.51, 31237.54, -22877.30, -2286.85, 7775.14, -58363.22, -10327.42, 39257.95, 11149.92, -8126.27, 0.00, 0.00, 0.00, 0.00, 0.00, 0.00, 0.00
3, 4374.62, 73883.42, 5908.08, 31236.83, -22869.68, -2293.56, 7771.03, -58364.27, -10327.42, 39257.95, 11149.92, -8126.27, 0.00, 0.00, 0.00, 0.00, 0.00, 0.00, 0.00
4, 4374.62, 73883.42, 5908.08, 31236.83, -22869.68, -2293.56, 7771.03, -58364.27, -10327.11, 39217.65, 11126.54, -8074.21, 0.00, 0.00, 0.00, 0.00, 0.00, 0.00, 0.00
5, 4368.20, 73881.05, 5903.25, 31231.04, -22875.27, -2300.71, 7773.13, -58372.27, -10327.11, 39217.65, 11126.54, -8074.21, 0.00, 0.00, 0.00, 0.00, 0.00, 0.00, 0.00
6, 4368.20, 73881.05, 5903.25, 31231.04, -22875.27, -2300.71, 7773.13, -58372.27, -10335.22, 39240.39, 11145.85, -8144.15, 0.00, 0.00, 0.00, 0.00, 0.00, 0.48, 0.87
7, 4366.39, 73880.41, 5902.31, 31227.87, -22874.66, -2299.41, 7753.98, -58375.31, -10335.22, 39240.39, 11145.85, -8144.15, 0.00, 0.00, 0.00, 0.00, 0.00, 0.00, 0.00
8, 4366.39, 73880.41, 5902.31, 31227.87, -22874.66, -2299.41, 7753.98, -58375.31, -10340.18, 39201.89, 11120.84, -8098.31, 0.00, 0.00, 0.00, 0.00, 0.00, 0.00, 0.00
9, 4358.12, 73867.17, 5892.08, 31220.22, -22884.70, -2311.08, 7747.78, -58390.40, -10340.18, 39201.89, 11120.84, -8098.31, 0.00, 0.00, 0.00, 0.00, 0.00, 0.00, 0.00
10, 4358.12, 73867.17, 5892.08, 31220.22, -22884.70, -2311.08, 7747.78, -58390.40, -10340.23, 39225.61, 11142.41, -8164.35, 0.00, 0.00, 0.00, 0.00, 0.00, 0.00, 0.00
11, 4371.31, 73880.70, 5905.04, 31230.48, -22870.97, -2305.36, 7763.72, -58379.36, -10340.23, 39225.61, 11142.41, -8164.35, 0.00, 0.00, 0.00, 0.00, 0.00, 0.00, 0.00
12, 4371.31, 73880.70, 5905.04, 31230.48, -22870.97, -2305.36, 7763.72, -58379.36, -10330.75, 39196.35, 11133.22, -8108.70, 0.00, 0.00, 0.00, 0.00, 0.00, 0.00, 0.00
13, 4373.39, 73885.86, 5907.03, 31226.84, -22869.81, -2303.70, 7757.60, -58384.34, -10330.75, 39196.35, 11133.22, -8108.70, 0.00, 0.00, 0.00, 0.00, 0.00, 0.00, 0.00
14, 4373.39, 73885.86, 5907.03, 31226.84, -22869.81, -2303.70, 7757.60, -58384.34, -10330.89, 39221.14, 11150.06, -8161.54, 0.00, 0.00, 0.00, 0.00, 0.00, 0.00, 0.00
15, 4368.49, 73880.58, 5902.04, 31226.71, -22872.45, -2301.96, 7751.70, -58390.80, -10330.89, 39221.14, 11150.06, -8161.54, 0.00, 0.00, 0.00, 0.00, 0.00, 0.00, 0.00
16, 4368.49, 73880.58, 5902.04, 31226.71, -22872.45, -2301.96, 7751.70, -58390.80, -10332.14, 39194.23, 11130.48, -8126.04, 0.00, 0.00, 0.00, 0.00, 0.00, 0.50, 0.87
17, 4363.04, 73871.33, 5897.22, 31219.84, -22871.13, -2308.64, 7750.69, -58388.21, -10332.14, 39194.23, 11130.48, -8126.04, 0.00, 0.00, 0.00, 0.00, 0.00, 0.00, 0.00
18, 4363.04, 73871.33, 5897.22, 31219.84, -22871.13, -2308.64, 7750.69, -58388.21, -10327.96, 39221.61, 11147.91, -8156.17, 0.00, 0.00, 0.00, 0.00, 0.00, 0.00, 0.00
19, 4374.68, 73888.78, 5911.70, 31236.00, -22855.17, -2297.33, 7772.17, -58369.54, -10327.96, 39221.61, 11147.91, -8156.17, 0.00, 0.00, 0.00, 0.00, 0.00, 0.00, 0.00
20, 4374.68, 73888.78, 5911.70, 31236.00, -22855.17, -2297.33, 7772.17, -58369.54, -10333.61, 39201.81, 11141.29, -8123.74, 0.00, 0.00, 0.00, 0.00, 0.00, 0.00, 0.00
21, 4355.86, 73867.75, 5894.78, 31218.01, -22870.66, -2310.25, 7750.80, -58392.77, -10333.61, 39201.81, 11141.29, -8123.74, 0.00, 0.00, 0.00, 0.00, 0.00, 0.00, 0.00
22, 4355.86, 73867.75, 5894.78, 31218.01, -22870.66, -2310.25, 7750.80, -58392.77, -10337.28, 39210.79, 11141.72, -8148.98, 0.00, 0.00, 0.00, 0.00, 0.00, 0.00, 0.00
23, 4378.35, 73889.19, 5915.12, 31235.58, -22853.90, -2295.41, 7768.42, -58374.77, -10337.28, 39210.79, 11141.72, -8148.98, 0.00, 0.00, 0.00, 0.00, 0.00, 0.00, 0.00
24, 4378.35, 73889.19, 5915.12, 31235.58, -22853.90, -2295.41, 7768.42, -58374.77, -10331.47, 39202.63, 11146.32, -8133.20, 0.00, 0.00, 0.00, 0.00, 0.00, 0.00, 0.00
25, 4363.80, 73876.16, 5901.42, 31217.50, -22864.38, -2313.25, 7747.18, -58391.09, -10331.47, 39202.63, 11146.32, -8133.20, 0.00, 0.00, 0.00, 0.00, 0.00, 0.00, 0.00
26, 4363.80, 73876.16, 5901.42, 31217.50, -22864.38, -2313.25, 7747.18, -58391.09, -10320.81, 39211.89, 11152.33, -8147.08, 0.00, 0.00, 0.00, 0.00, 0.01, 0.50, 0.87
27, 4383.15, 73897.10, 5921.20, 31235.69, -22846.48, -2294.45, 7766.76, -58374.24, -10320.81, 39211.89, 11152.33, -8147.08, 0.00, 0.00, 0.00, 0.00, 0.00, 0.00, 0.00
28, 4383.15, 73897.10, 5921.20, 31235.69, -22846.48, -2294.45, 7766.76, -58374.24, -10323.98, 39203.86, 11154.12, -8148.73, 0.00, 0.00, 0.00, 0.00, 0.00, 0.00, 0.00
29, 4372.96, 73880.90, 5907.19, 31217.25, -22857.74, -2308.60, 7750.87, -58391.02, -10323.98, 39203.86, 11154.12, -8148.73, 0.00, 0.00, 0.00, 0.00, 0.00, 0.00, 0.00
30, 4372.96, 73880.90, 5907.19, 31217.25, -22857.74, -2308.60, 7750.87, -58391.02, -10328.65, 39193.96, 11147.22, -8144.86, 0.00, 0.00, 0.00, 0.00, 0.00, 0.00, 0.00
31, 4377.14, 73891.47, 5916.42, 31232.94, -22848.42, -2299.75, 7763.07, -58383.20, -10328.65, 39193.96, 11147.22, -8144.86, 0.00, 0.00, 0.00, 0.00, 0.00, 0.00, 0.00
32, 4377.14, 73891.47, 5916.42, 31232.94, -22848.42, -2299.75, 7763.07, -58383.20, -10330.13, 39204.69, 11149.83, -8161.49, 0.00, 0.00, 0.00, 0.00, 0.00, 0.00, 0.00
33, 4375.71, 73888.00, 5910.45, 31220.71, -22855.28, -2309.49, 7748.70, -58394.64, -10330.13, 39204.69, 11149.83, -8161.49, 0.00, 0.00, 0.00, 0.00, 0.00, 0.00, 0.00
34, 4375.71, 73888.00, 5910.45, 31220.71, -22855.28, -2309.49, 7748.70, -58394.64, -10324.99, 39195.04, 11145.79, -8138.31, 0.00, 0.00, 0.00, 0.00, 0.00, 0.00, 0.00
35, 4380.74, 73891.98, 5918.90, 31230.62, -22846.43, -2301.67, 7761.93, -58382.57, -10324.99, 39195.04, 11145.79, -8138.31, 0.00, 0.00, 0.00, 0.00, 0.00, 0.00, 0.00
36, 4380.74, 73891.98, 5918.90, 31230.62, -22846.43, -2301.67, 7761.93, -58382.57, -10319.22, 39210.84, 11159.98, -8166.03, 0.00, 0.00, 0.00, 0.00, 0.01, 0.51, 0.87
37, 4379.42, 73886.75, 5914.32, 31222.62, -22852.56, -2304.84, 7745.24, -58397.68, -10319.22, 39210.84, 11159.98, -8166.03, 0.00, 0.00, 0.00, 0.00, 0.00, 0.00, 0.00
38, 4379.42, 73886.75, 5914.32, 31222.62, -22852.56, -2304.84, 7745.24, -58397.68, -10329.30, 39179.79, 11143.24, -8146.81, 0.00, 0.00, 0.00, 0.00, 0.00, 0.00, 0.00
39, 4381.88, 73893.01, 5918.34, 31226.23, -22848.96, -2311.08, 7756.28, -58387.67, -10329.30, 39179.79, 11143.24, -8146.81, 0.00, 0.00, 0.00, 0.00, 0.00, 0.00, 0.00
40, 4381.88, 73893.01, 5918.34, 31226.23, -22848.96, -2311.08, 7756.28, -58387.67, -10330.89, 39201.23, 11152.11, -8182.28, 0.00, 0.00, 0.00, 0.00, 0.00, 0.00, 0.00
41, 4374.79, 73884.00, 5908.28, 31214.84, -22854.35, -2313.27, 7746.13, -58397.28, -10330.89, 39201.23, 11152.11, -8182.28, 0.00, 0.00, 0.00, 0.00, 0.00, 0.00, 0.00
42, 4374.79, 73884.00, 5908.28, 31214.84, -22854.35, -2313.27, 7746.13, -58397.28, -10322.93, 39179.66, 11137.25, -8139.90, 0.00, 0.00, 0.00, 0.00, 0.00, 0.00, 0.00
43, 4381.86, 73887.60, 5915.14, 31225.61, -22848.73, -2304.78, 7752.75, -58388.99, -10322.93, 39179.66, 11137.25, -8139.90, 0.00, 0.00, 0.00, 0.00, 0.00, 0.00, 0.00
44, 4381.86, 73887.60, 5915.14, 31225.61, -22848.73, -2304.78, 7752.75, -58388.99, -10323.96, 39211.73, 11156.29, -8184.87, 0.00, 0.00, 0.00, 0.00, 0.00, 0.00, 0.00
45, 4377.14, 73885.41, 5912.28, 31219.24, -22847.01, -2310.14, 7751.54, -58388.54, -10323.96, 39211.73, 11156.29, -8184.87, 0.00, 0.00, 0.00, 0.00, 0.01, 0.51, 0.88
46, 4377.14, 73885.41, 5912.28, 31219.24, -22847.01, -2310.14, 7751.54, -58388.54, -10319.91, 39184.20, 11129.09, -8132.53, 0.00, 0.00, 0.00, 0.00, 0.00, 0.00, 0.00
47, 4374.75, 73881.09, 5909.53, 31218.61, -22850.97, -2314.32, 7747.96, -58391.67, -10319.91, 39184.20, 11129.09, -8132.53, 0.00, 0.00, 0.00, 0.00, 0.00, 0.00, 0.00
48, 4374.75, 73881.09, 5909.53, 31218.61, -22850.97, -2314.32, 7747.96, -58391.67, -10323.26, 39202.88, 11160.85, -8195.94, 0.00, 0.00, 0.00, 0.00, 0.00, 0.00, 0.00
49, 4381.68, 73885.01, 5913.96, 31222.88, -22843.82, -2307.91, 7749.46, -58392.79, -10323.26, 39202.88, 11160.85, -8195.94, 0.00, 0.00, 0.00, 0.00, 0.00, 0.00, 0.00
50, 4381.68, 73885.01, 5913.96, 31222.88, -22843.82, -2307.91, 7749.46, -58392.79, -10325.23, 39177.00, 11130.21, -8141.27, 0.00, 0.00, 0.00, 0.00, 0.00, 0.00, 0.00
51, 4375.35, 73880.05, 5909.29, 31218.97, -22850.70, -2309.70, 7744.77, -58396.97, -10325.23, 39177.00, 11130.21, -8141.27, 0.00, 0.00, 0.00, 0.00, 0.00, 0.00, 0.00
52, 4375.35, 73880.05, 5909.29, 31218.97, -22850.70, -2309.70, 7744.77, -58396.97, -10328.25, 39200.55, 11152.63, -8201.46, 0.00, 0.00, 0.00, 0.00, 0.00, 0.00, 0.00
53, 4381.37, 73890.39, 5912.24, 31216.04, -22843.30, -2318.79, 7751.25, -58391.02, -10328.25, 39200.55, 11152.63, -8201.46, 0.00, 0.00, 0.00, 0.00, 0.00, 0.00, 0.00
54, 4381.37, 73890.39, 5912.24, 31216.04, -22843.30, -2318.79, 7751.25, -58391.02, -10320.85, 39176.97, 11127.97, -8142.83, 0.00, 0.00, 0.00, 0.00, 0.00, 0.00, 0.00
55, 4372.87, 73875.51, 5901.67, 31211.93, -22852.87, -2319.87, 7745.35, -58399.21, -10320.85, 39176.97, 11127.97, -8142.83, 0.00, 0.00, 0.00, 0.00, 0.00, 0.50, 0.88
56, 4372.87, 73875.51, 5901.67, 31211.93, -22852.87, -2319.87, 7745.35, -58399.21, -10327.96, 39200.38, 11151.37, -8193.50, 0.00, 0.00, 0.00, 0.00, 0.00, 0.00, 0.00
57, 4380.65, 73882.86, 5911.68, 31222.39, -22843.28, -2306.63, 7755.25, -58390.31, -10327.96, 39200.38, 11151.37, -8193.50, 0.00, 0.00, 0.00, 0.00, 0.00, 0.00, 0.00
58, 4380.65, 73882.86, 5911.68, 31222.39, -22843.28, -2306.63, 7755.25, -58390.31, -10324.23, 39176.71, 11127.08, -8137.85, 0.00, 0.00, 0.00, 0.00, 0.00, 0.00, 0.00
59, 4378.89, 73878.41, 5908.55, 31217.21, -22846.83, -2318.90, 7748.46, -58397.15, -10324.23, 39176.71, 11127.08, -8137.85, 0.00, 0.00, 0.00, 0.00, 0.00, 0.00, 0.00
60, 4378.89, 73878.41, 5908.55, 31217.21, -22846.83, -2318.90, 7748.46, -58397.15, -10323.69, 39200.73, 11151.73, -8195.13, 0.00, 0.00, 0.00, 0.00, 0.00, 0.00, 0.00
61, 4384.00, 73889.95, 5915.95, 31224.56, -22837.87, -2310.52, 7757.06, -58390.06, -10323.69, 39200.73, 11151.73, -8195.13, 0.00, 0.00, 0.00, 0.00, 0.00, 0.00, 0.00
62, 4384.00, 73889.95, 5915.95, 31224.56, -22837.87, -2310.52, 7757.06, -58390.06, -10322.37, 39180.62, 11135.68, -8142.76, 0.00, 0.00, 0.00, 0.00, 0.00, 0.00, 0.00
63, 4377.46, 73883.15, 5907.10, 31211.97, -22846.05, -2320.18, 7745.50, -58401.78, -10322.37, 39180.62, 11135.68, -8142.76, 0.00, 0.00, 0.00, 0.00, 0.00, 0.00, 0.00
64, 4377.46, 73883.15, 5907.10, 31211.97, -22846.05, -2320.18, 7745.50, -58401.78, -10322.21, 39194.86, 11147.11, -8187.06, 0.00, 0.00, 0.00, 0.00, 0.00, 0.00, 0.00
65, 4381.70, 73889.48, 5915.61, 31222.79, -22838.14, -2311.68, 7760.10, -58391.41, -10322.21, 39194.86, 11147.11, -8187.06, 0.00, 0.00, 0.00, 0.00, -0.00, 0.49, 0.89
66, 4381.70, 73889.48, 5915.61, 31222.79, -22838.14, -2311.68, 7760.10, -58391.41, -10322.04, 39180.13, 11139.13, -8152.75, 0.00, 0.00, 0.00, 0.00, 0.00, 0.00, 0.00
67, 4375.49, 73877.01, 5909.13, 31218.79, -22837.92, -2309.38, 7752.28, -58395.36, -10322.04, 39180.13, 11139.13, -8152.75, 0.00, 0.00, 0.00, 0.00, 0.00, 0.00, 0.00
68, 4375.49, 73877.01, 5909.13, 31218.79, -22837.92, -2309.38, 7752.28, -58395.36, -10317.48, 39205.05, 11140.56, -8178.03, 0.00, 0.00, 0.00, 0.00, 0.00, 0.00, 0.00
69, 4375.51, 73884.52, 5909.78, 31223.38, -22836.44, -2306.41, 7762.98, -58386.49, -10317.48, 39205.05, 11140.56, -8178.03, 0.00, 0.00, 0.00, 0.00, 0.00, 0.00, 0.00
70, 4375.51, 73884.52, 5909.78, 31223.38, -22836.44, -2306.41, 7762.98, -58386.49, -10322.84, 39186.14, 11132.64, -8142.81, 0.00, 0.00, 0.00, 0.00, 0.00, 0.00, 0.00
71, 4368.02, 73875.55, 5900.50, 31208.42, -22843.84, -2317.88, 7753.82, -58398.42, -10322.84, 39186.14, 11132.64, -8142.81, 0.00, 0.00, 0.00, 0.00, 0.00, 0.00, 0.00
72, 4368.02, 73875.55, 5900.50, 31208.42, -22843.84, -2317.88, 7753.82, -58398.42, -10318.21, 39194.43, 11132.00, -8165.94, 0.00, 0.00, 0.00, 0.00, 0.00, 0.00, 0.00
73, 4378.84, 73884.34, 5912.62, 31222.17, -22828.93, -2316.24, 7772.89, -58383.00, -10318.21, 39194.43, 11132.00, -8165.94, 0.00, 0.00, 0.00, 0.00, 0.00, 0.00, 0.00
74, 4378.84, 73884.34, 5912.62, 31222.17, -22828.93, -2316.24, 7772.89, -58383.00, -10317.45, 39190.07, 11138.39, -8155.12, 0.00, 0.00, 0.00, 0.00, 0.00, 0.00, 0.00
75, 4368.11, 73867.93, 5899.94, 31211.15, -22838.83, -2321.30, 7759.50, -58393.50, -10317.45, 39190.07, 11138.39, -8155.12, 0.00, 0.00, 0.00, 0.00, -0.00, 0.49, 0.89
76, 4368.11, 73867.93, 5899.94, 31211.15, -22838.83, -2321.30, 7759.50, -58393.50, -10317.61, 39194.48, 11129.94, -8157.00, 0.00, 0.00, 0.00, 0.00, 0.00, 0.00, 0.00
77, 4372.65, 73877.25, 5905.29, 31223.42, -22832.96, -2306.52, 7771.61, -58384.50, -10317.61, 39194.48, 11129.94, -8157.00, 0.00, 0.00, 0.00, 0.00, 0.00, 0.00, 0.00
78, 4372.65, 73877.25, 5905.29, 31223.42, -22832.96, -2306.52, 7771.61, -58384.50, -10317.77, 39194.99, 11134.81, -8156.35, 0.00, 0.00, 0.00, 0.00, 0.00, 0.00, 0.00
79, 4367.55, 73868.63, 5895.76, 31210.61, -22839.37, -2322.01, 7762.27, -58398.60, -10317.77, 39194.99, 11134.81, -8156.35, 0.00, 0.00, 0.00, 0.00, 0.00, 0.00, 0.00
80, 4367.55, 73868.63, 5895.76, 31210.61, -22839.37, -2322.01, 7762.27, -58398.60, -10324.00, 39179.86, 11116.95, -8155.17, 0.00, 0.00, 0.00, 0.00, 0.00, 0.00, 0.00
81, 4373.97, 73881.19, 5903.23, 31223.24, -22832.80, -2312.98, 7776.57, -58389.59, -10324.00, 39179.86, 11116.95, -8155.17, 0.00, 0.00, 0.00, 0.00, 0.00, 0.00, 0.00
82, 4373.97, 73881.19, 5903.23, 31223.24, -22832.80, -2312.98, 7776.57, -58389.59, -10316.87, 39196.71, 11131.93, -8172.54, 0.00, 0.00, 0.00, 0.00, 0.00, 0.00, 0.00
83, 4364.38, 73862.95, 5891.67, 31209.00, -22839.23, -2325.03, 7764.88, -58399.45, -10316.87, 39196.71, 11131.93, -8172.54, 0.00, 0.00, 0.00, 0.00, 0.00, 0.00, 0.00
84, 4364.38, 73862.95, 5891.67, 31209.00, -22839.23, -2325.03, 7764.88, -58399.45, -10321.90, 39177.09, 11109.02, -8147.79, 0.00, 0.00, 0.00, 0.00, 0.00, 0.48, 0.88
85, 4371.69, 73872.18, 5899.72, 31220.13, -22832.91, -2311.08, 7774.41, -58393.17, -10321.90, 39177.09, 11109.02, -8147.79, 0.00, 0.00, 0.00, 0.00, 0.00, 0.00, 0.00
86, 4371.69, 73872.18, 5899.72, 31220.13, -22832.91, -2311.08, 7774.41, -58393.17, -10320.74, 39197.92, 11125.63, -8166.68, 0.00, 0.00, 0.00, 0.00, 0.00, 0.00, 0.00
87, 4367.37, 73868.58, 5896.30, 31215.80, -22834.12, -2318.59, 7773.09, -58398.91, -10320.74, 39197.92, 11125.63, -8166.68, 0.00, 0.00, 0.00, 0.00, 0.00, 0.00, 0.00
88, 4367.37, 73868.58, 5896.30, 31215.80, -22834.12, -2318.59, 7773.09, -58398.91, -10325.97, 39174.80, 11109.78, -8141.33, 0.00, 0.00, 0.00, 0.00, 0.00, 0.00, 0.00
89, 4370.03, 73869.14, 5900.37, 31224.36, -22829.98, -2319.51, 7781.02, -58396.28, -10325.97, 39174.80, 11109.78, -8141.33, 0.00, 0.00, 0.00, 0.00, 0.00, 0.00, 0.00
90, 4370.03, 73869.14, 5900.37, 31224.36, -22829.98, -2319.51, 7781.02, -58396.28, -10324.11, 39192.02, 11127.21, -8193.30, 0.00, 0.00, 0.00, 0.00, 0.00, 0.00, 0.00
91, 4367.33, 73869.07, 5895.76, 31216.56, -22831.97, -2319.98, 7774.25, -58400.95, -10324.11, 39192.02, 11127.21, -8193.30, 0.00, 0.00, 0.00, 0.00, 0.00, 0.00, 0.00
92, 4367.33, 73869.07, 5895.76, 31216.56, -22831.97, -2319.98, 7774.25, -58400.95, -10315.98, 39177.67, 11108.06, -8128.44, 0.00, 0.00, 0.00, 0.00, 0.00, 0.00, 0.00
93, 4373.01, 73877.70, 5902.96, 31229.10, -22820.77, -2308.35, 7793.07, -58386.75, -10315.98, 39177.67, 11108.06, -8128.44, 0.00, 0.00, 0.00, 0.00, 0.00, 0.00, 0.00
94, 4373.01, 73877.70, 5902.96, 31229.10, -22820.77, -2308.35, 7793.07, -58386.75, -10313.79, 39203.80, 11131.46, -8169.90, 0.00, 0.00, 0.00, 0.00, 0.01, 0.48, 0.89
95, 4372.98, 73872.91, 5900.35, 31223.40, -22823.92, -2315.64, 7788.98, -58392.68, -10313.79, 39203.80, 11131.46, -8169.90, 0.00, 0.00, 0.00, 0.00, 0.00, 0.00, 0.00
96, 4372.98, 73872.91, 5900.35, 31223.40, -22823.92, -2315.64, 7788.98, -58392.68, -10322.86, 39167.96, 11106.56, -8138.16, 0.00, 0.00, 0.00, 0.00, 0.00, 0.00, 0.00
97, 4374.66, 73873.14, 5900.59, 31225.65, -22821.69, -2315.48, 7794.43, -58392.50, -10322.86, 39167.96, 11106.56, -8138.16, 0.00, 0.00, 0.00, 0.00, 0.00, 0.00, 0.00
98, 4374.66, 73873.14, 5900.59, 31225.65, -22821.69, -2315.48, 7794.43, -58392.50, -10317.05, 39195.84, 11127.44, -8178.73, 0.00, 0.00, 0.00, 0.00, 0.00, 0.00, 0.00
99, 4376.56, 73879.60, 5904.26, 31227.93, -22816.35, -2316.53, 7802.01, -58386.91, -10317.05, 39195.84, 11127.44, -8178.73, 0.00, 0.00, 0.00, 0.00, 0.00, 0.00, 0.00
100, 4376.56, 73879.60, 5904.26, 31227.93, -22816.35, -2316.53, 7802.01, -58386.91, -10313.34, 39174.20, 11114.54, -8130.42, 0.00, 0.00, 0.00, 0.00, 0.00, 0.00, 0.00
101, 4375.20, 73883.76, 5907.90, 31228.40, -22813.40, -2314.48, 7805.99, -58385.82, -10313.34, 39174.20, 11114.54, -8130.42, 0.00, 0.00, 0.00, 0.00, 0.00, 0.00, 0.00
102, 4375.20, 73883.76, 5907.90, 31228.40, -22813.40, -2314.48, 7805.99, -58385.82, -10305.99, 39206.37, 11135.10, -8174.39, 0.00, 0.00, 0.00, 0.00, 0.00, 0.00, 0.00
103, 4375.35, 73880.27, 5903.65, 31228.72, -22814.00, -2305.45, 7804.94, -58388.39, -10305.99, 39206.37, 11135.10, -8174.39, 0.00, 0.00, 0.00, 0.00, 0.00, 0.00, 0.00
104, 4375.35, 73880.27, 5903.65, 31228.72, -22814.00, -2305.45, 7804.94, -58388.39, -10309.50, 39182.11, 11116.44, -8136.37, 0.00, 0.00, 0.00, 0.00, 0.01, 0.48, 0.89
105, 4369.10, 73873.23, 5898.98, 31219.62, -22815.68, -2317.90, 7805.25, -58388.99, -10309.50, 39182.11, 11116.44, -8136.37, 0.00, 0.00, 0.00, 0.00, 0.00, 0.00, 0.00
106, 4369.10, 73873.23, 5898.98, 31219.62, -22815.68, -2317.90, 7805.25, -58388.99, -10305.67, 39213.05, 11129.45, -8161.02, 0.00, 0.00, 0.00, 0.00, 0.00, 0.00, 0.00
107, 4380.45, 73889.16, 5910.81, 31232.72, -22805.33, -2299.84, 7814.42, -58382.73, -10305.67, 39213.05, 11129.45, -8161.02, 0.00, 0.00, 0.00, 0.00, 0.00, 0.00, 0.00
108, 4380.45, 73889.16, 5910.81, 31232.72, -22805.33, -2299.84, 7814.42, -58382.73, -10309.67, 39180.33, 11121.87, -8126.89, 0.00, 0.00, 0.00, 0.00, 0.00, 0.00, 0.00
109, 4376.81, 73879.42, 5903.39, 31223.31, -22811.70, -2317.59, 7813.59, -58390.51, -10309.67, 39180.33, 11121.87, -8126.89, 0.00, 0.00, 0.00, 0.00, 0.00, 0.00, 0.00
110, 4376.81, 73879.42, 5903.39, 31223.31, -22811.70, -2317.59, 7813.59, -58390.51, -10312.80, 39198.97, 11130.59, -8169.50, 0.00, 0.00, 0.00, 0.00, 0.00, 0.00, 0.00
111, 4387.89, 73892.98, 5911.97, 31234.37, -22806.31, -2311.95, 7826.60, -58384.48, -10312.80, 39198.97, 11130.59, -8169.50, 0.00, 0.00, 0.00, 0.00, 0.00, 0.00, 0.00
112, 4387.89, 73892.98, 5911.97, 31234.37, -22806.31, -2311.95, 7826.60, -58384.48, -10313.30, 39185.16, 11112.86, -8131.74, 0.00, 0.00, 0.00, 0.00, 0.00, 0.00, 0.00
113, 4379.47, 73880.91, 5905.82, 31226.84, -22806.58, -2312.82, 7820.58, -58388.23, -10313.30, 39185.16, 11112.86, -8131.74, 0.00, 0.00, 0.00, 0.00, 0.00, 0.00, 0.00
114, 4379.47, 73880.91, 5905.82, 31226.84, -22806.58, -2312.82, 7820.58, -58388.23, -10298.70, 39209.74, 11150.99, -8158.25, 0.00, 0.00, 0.00, 0.00, 0.01, 0.48, 0.89
115, 4405.77, 73912.81, 5941.18, 31270.98, -22777.05, -2289.82, 7849.78, -58370.84, -10298.70, 39209.74, 11150.99, -8158.25, 0.00, 0.00, 0.00, 0.00, 0.00, 0.00, 0.00
116, 4405.77, 73912.81, 5941.18, 31270.98, -22777.05, -2289.82, 7849.78, -58370.84, -10308.00, 39190.34, 11131.66, -8132.39, 0.00, 0.00, 0.00, 0.00, 0.00, 0.00, 0.00
117, 4371.64, 73864.96, 5888.54, 31219.24, -22823.50, -2321.32, 7811.64, -58403.25, -10308.00, 39190.34, 11131.66, -8132.39, 0.00, 0.00, 0.00, 0.00, 0.00, 0.00, 0.00
118, 4371.64, 73864.96, 5888.54, 31219.24, -22823.50, -2321.32, 7811.64, -58403.25, -10320.83, 39189.09, 11099.38, -8167.15, 0.00, 0.00, 0.00, 0.00, 0.00, 0.00, 0.00
119, 4383.20, 73883.29, 5908.77, 31243.65, -22798.11, -2300.49, 7838.89, -58382.31, -10320.83, 39189.09, 11099.38, -8167.15, 0.00, 0.00, 0.00, 0.00, 0.00, 0.00, 0.00
120, 4383.20, 73883.29, 5908.77, 31243.65, -22798.11, -2300.49, 7838.89, -58382.31, -10321.25, 39185.45, 11096.25, -8144.28, 0.00, 0.00, 0.00, 0.00, 0.00, 0.00, 0.00
121, 4366.70, 73862.59, 5887.74, 31217.38, -22814.36, -2319.08, 7822.24, -58399.25, -10321.25, 39185.45, 11096.25, -8144.28, 0.00, 0.00, 0.00, 0.00, 0.00, 0.00, 0.00
122, 4366.70, 73862.59, 5887.74, 31217.38, -22814.36, -2319.08, 7822.24, -58399.25, -10314.08, 39193.20, 11100.48, -8152.51, 0.00, 0.00, 0.00, 0.00, 0.00, 0.00, 0.00
123, 4381.21, 73881.90, 5903.56, 31237.84, -22798.58, -2312.98, 7844.21, -58382.55, -10314.08, 39193.20, 11100.48, -8152.51, 0.00, 0.00, 0.00, 0.00, 0.01, 0.48, 0.90
124, 4381.21, 73881.90, 5903.56, 31237.84, -22798.58, -2312.98, 7844.21, -58382.55, -10311.28, 39192.00, 11107.34, -8157.38, 0.00, 0.00, 0.00, 0.00, 0.00, 0.00, 0.00
125, 4370.73, 73869.79, 5891.47, 31216.91, -22808.39, -2324.36, 7829.48, -58398.16, -10311.28, 39192.00, 11107.34, -8157.38, 0.00, 0.00, 0.00, 0.00, 0.00, 0.00, 0.00
126, 4370.73, 73869.79, 5891.47, 31216.91, -22808.39, -2324.36, 7829.48, -58398.16, -10307.71, 39190.56, 11107.95, -8142.20, 0.00, 0.00, 0.00, 0.00, 0.00, 0.00, 0.00
127, 4383.11, 73886.41, 5904.57, 31231.31, -22797.91, -2309.96, 7847.41, -58383.43, -10307.71, 39190.56, 11107.95, -8142.20, 0.00, 0.00, 0.00, 0.00, 0.00, 0.00, 0.00
128, 4383.11, 73886.41, 5904.57, 31231.31, -22797.91, -2309.96, 7847.41, -58383.43, -10307.62, 39196.84, 11115.39, -8147.37, 0.00, 0.00, 0.00, 0.00, 0.00, 0.00, 0.00
129, 4381.01, 73880.20, 5900.97, 31223.49, -22801.62, -2312.58, 7841.48, -58394.38, -10307.62, 39196.84, 11115.39, -8147.37, 0.00, 0.00, 0.00, 0.00, 0.00, 0.00, 0.00
130, 4381.01, 73880.20, 5900.97, 31223.49, -22801.62, -2312.58, 7841.48, -58394.38, -10308.00, 39189.54, 11108.35, -8136.88, 0.00, 0.00, 0.00, 0.00, 0.00, 0.00, 0.00
131, 4393.77, 73896.32, 5913.98, 31238.91, -22790.89, -2311.95, 7860.73, -58380.50, -10308.00, 39189.54, 11108.35, -8136.88, 0.00, 0.00, 0.00, 0.00, 0.00, 0.00, 0.00
132, 4393.77, 73896.32, 5913.98, 31238.91, -22790.89, -2311.95, 7860.73, -58380.50, -10303.95, 39207.11, 11127.99, -8154.88, 0.00, 0.00, 0.00, 0.00, 0.00, 0.00, 0.00
133, 4389.95, 73887.69, 5909.85, 31229.57, -22794.58, -2314.99, 7853.24, -58390.85, -10303.95, 39207.11, 11127.99, -8154.88, 0.00, 0.00, 0.00, 0.00, 0.00, 0.48, 0.89
134, 4389.95, 73887.69, 5909.85, 31229.57, -22794.58, -2314.99, 7853.24, -58390.85, -10305.43, 39185.36, 11117.02, -8132.12, 0.00, 0.00, 0.00, 0.00, 0.00, 0.00, 0.00
135, 4401.95, 73906.84, 5924.62, 31245.66, -22779.49, -2301.83, 7873.56, -58375.89, -10305.43, 39185.36, 11117.02, -8132.12, 0.00, 0.00, 0.00, 0.00, 0.00, 0.00, 0.00
136, 4401.95, 73906.84, 5924.62, 31245.66, -22779.49, -2301.83, 7873.56, -58375.89, -10295.75, 39207.55, 11140.74, -8153.20, 0.00, 0.00, 0.00, 0.00, 0.00, 0.00, 0.00
137, 4394.40, 73891.20, 5915.86, 31236.36, -22787.54, -2312.24, 7861.24, -58391.32, -10295.75, 39207.55, 11140.74, -8153.20, 0.00, 0.00, 0.00, 0.00, 0.00, 0.00, 0.00
138, 4394.40, 73891.20, 5915.86, 31236.36, -22787.54, -2312.24, 7861.24, -58391.32, -10304.27, 39181.02, 11119.39, -8134.43, 0.00, 0.00, 0.00, 0.00, 0.00, 0.00, 0.00
139, 4397.59, 73896.20, 5920.10, 31243.38, -22785.97, -2306.79, 7873.40, -58385.14, -10304.27, 39181.02, 11119.39, -8134.43, 0.00, 0.00, 0.00, 0.00, 0.00, 0.00, 0.00
140, 4397.59, 73896.20, 5920.10, 31243.38, -22785.97, -2306.79, 7873.40, -58385.14, -10308.04, 39200.98, 11136.96, -8165.34, 0.00, 0.00, 0.00, 0.00, 0.00, 0.00, 0.00
141, 4391.69, 73885.05, 5911.59, 31235.51, -22787.38, -2315.77, 7871.05, -58390.67, -10308.04, 39200.98, 11136.96, -8165.34, 0.00, 0.00, 0.00, 0.00, 0.00, 0.00, 0.00
142, 4391.69, 73885.05, 5911.59, 31235.51, -22787.38, -2315.77, 7871.05, -58390.67, -10310.73, 39178.41, 11110.29, -8129.33, 0.00, 0.00, 0.00, 0.00, 0.00, 0.00, 0.00
143, 4390.13, 73891.27, 5913.47, 31239.42, -22782.46, -2310.41, 7880.73, -58384.32, -10310.73, 39178.41, 11110.29, -8129.33, 0.00, 0.00, 0.00, 0.00, 0.00, 0.47, 0.90
144, 4390.13, 73891.27, 5913.47, 31239.42, -22782.46, -2310.41, 7880.73, -58384.32, -10303.86, 39207.24, 11130.01, -8169.43, 0.00, 0.00, 0.00, 0.00, 0.00, 0.00, 0.00
145, 4385.26, 73882.48, 5906.49, 31234.82, -22785.99, -2311.51, 7878.59, -58390.73, -10303.86, 39207.24, 11130.01, -8169.43, 0.00, 0.00, 0.00, 0.00, 0.00, 0.00, 0.00
146, 4385.26, 73882.48, 5906.49, 31234.82, -22785.99, -2311.51, 7878.59, -58390.73, -10313.47, 39171.21, 11101.06, -8126.31, 0.00, 0.00, 0.00, 0.00, 0.00, 0.00, 0.00
147, 4383.11, 73883.02, 5905.44, 31232.47, -22786.17, -2316.40, 7882.92, -58389.64, -10313.47, 39171.21, 11101.06, -8126.31, 0.00, 0.00, 0.00, 0.00, 0.00, 0.00, 0.00
148, 4383.11, 73883.02, 5905.44, 31232.47, -22786.17, -2316.40, 7882.92, -58389.64, -10303.64, 39205.41, 11124.55, -8164.42, 0.00, 0.00, 0.00, 0.00, 0.00, 0.00, 0.00
149, 4384.88, 73879.42, 5905.96, 31233.19, -22779.20, -2311.59, 7891.13, -58384.21, -10303.64, 39205.41, 11124.55, -8164.42, 0.00, 0.00, 0.00, 0.00, 0.00, 0.00, 0.00
150, 4384.88, 73879.42, 5905.96, 31233.19, -22779.20, -2311.59, 7891.13, -58384.21, -10306.79, 39177.55, 11104.48, -8129.89, 0.00, 0.00, 0.00, 0.00, 0.00, 0.00, 0.00
151, 4387.74, 73884.94, 5907.34, 31229.92, -22779.49, -2315.84, 7893.27, -58386.71, -10306.79, 39177.55, 11104.48, -8129.89, 0.00, 0.00, 0.00, 0.00, 0.00, 0.00, 0.00
152, 4387.74, 73884.94, 5907.34, 31229.92, -22779.49, -2315.84, 7893.27, -58386.71, -10299.17, 39206.93, 11130.45, -8173.70, 0.00, 0.00, 0.00, 0.00, 0.00, 0.00, 0.00
153, 4395.90, 73896.36, 5913.82, 31236.27, -22773.97, -2308.96, 7900.69, -58383.80, -10299.17, 39206.93, 11130.45, -8173.70, 0.00, 0.00, 0.00, 0.00, 0.00, 0.47, 0.89
154, 4395.90, 73896.36, 5913.82, 31236.27, -22773.97, -2308.96, 7900.69, -58383.80, -10301.70, 39180.42, 11112.24, -8128.55, 0.00, 0.00, 0.00, 0.00, 0.00, 0.00, 0.00
155, 4390.51, 73890.39, 5908.12, 31229.61, -22777.52, -2313.38, 7900.18, -58386.55, -10301.70, 39180.42, 11112.24, -8128.55, 0.00, 0.00, 0.00, 0.00, 0.00, 0.00, 0.00
156, 4390.51, 73890.39, 5908.12, 31229.61, -22777.52, -2313.38, 7900.18, -58386.55, -10298.01, 39206.23, 11130.65, -8158.63, 0.00, 0.00, 0.00, 0.00, 0.00, 0.00, 0.00
157, 4399.16, 73904.16, 5919.99, 31241.14, -22765.99, -2305.83, 7913.41, -58381.05, -10298.01, 39206.23, 11130.65, -8158.63, 0.00, 0.00, 0.00, 0.00, 0.00, 0.00, 0.00
158, 4399.16, 73904.16, 5919.99, 31241.14, -22765.99, -2305.83, 7913.41, -58381.05, -10300.67, 39179.25, 11120.17, -8135.65, 0.00, 0.00, 0.00, 0.00, 0.00, 0.00, 0.00
159, 4392.41, 73891.78, 5910.47, 31231.18, -22771.76, -2316.58, 7910.98, -58387.23, -10300.67, 39179.25, 11120.17, -8135.65, 0.00, 0.00, 0.00, 0.00, 0.00, 0.00, 0.00
160, 4392.41, 73891.78, 5910.47, 31231.18, -22771.76, -2316.58, 7910.98, -58387.23, -10293.13, 39205.81, 11136.38, -8163.13, 0.00, 0.00, 0.00, 0.00, 0.00, 0.00, 0.00
161, 4396.95, 73900.70, 5920.73, 31242.84, -22758.03, -2301.76, 7929.46, -58373.46, -10293.13, 39205.81, 11136.38, -8163.13, 0.00, 0.00, 0.00, 0.00, 0.00, 0.00, 0.00
162, 4396.95, 73900.70, 5920.73, 31242.84, -22758.03, -2301.76, 7929.46, -58373.46, -10294.88, 39189.22, 11119.70, -8129.40, 0.00, 0.00, 0.00, 0.00, 0.00, 0.48, 0.89
163, 4386.57, 73886.13, 5907.23, 31228.92, -22769.54, -2313.90, 7916.97, -58386.51, -10294.88, 39189.22, 11119.70, -8129.40, 0.00, 0.00, 0.00, 0.00, 0.00, 0.00, 0.00
164, 4386.57, 73886.13, 5907.23, 31228.92, -22769.54, -2313.90, 7916.97, -58386.51, -10290.41, 39208.38, 11129.00, -8147.10, 0.00, 0.00, 0.00, 0.00, 0.00, 0.00, 0.00
165, 4403.25, 73908.14, 5922.74, 31245.84, -22751.73, -2300.78, 7940.43, -58370.13, -10290.41, 39208.38, 11129.00, -8147.10, 0.00, 0.00, 0.00, 0.00, 0.00, 0.00, 0.00
166, 4403.25, 73908.14, 5922.74, 31245.84, -22751.73, -2300.78, 7940.43, -58370.13, -10291.61, 39195.48, 11123.81, -8132.84, 0.00, 0.00, 0.00, 0.00, 0.00, 0.00, 0.00
167, 4385.95, 73880.38, 5902.36, 31227.04, -22769.14, -2317.94, 7923.85, -58390.42, -10291.61, 39195.48, 11123.81, -8132.84, 0.00, 0.00, 0.00, 0.00, 0.00, 0.00, 0.00
168, 4385.95, 73880.38, 5902.36, 31227.04, -22769.14, -2317.94, 7923.85, -58390.42, -10296.62, 39194.74, 11119.75, -8156.91, 0.00, 0.00, 0.00, 0.00, 0.00, 0.00, 0.00
169, 4392.77, 73897.19, 5911.59, 31238.48, -22760.63, -2308.09, 7939.56, -58384.39, -10296.62, 39194.74, 11119.75, -8156.91, 0.00, 0.00, 0.00, 0.00, 0.00, 0.00, 0.00
170, 4392.77, 73897.19, 5911.59, 31238.48, -22760.63, -2308.09, 7939.56, -58384.39, -10299.42, 39188.98, 11120.06, -8152.02, 0.00, 0.00, 0.00, 0.00, 0.00, 0.00, 0.00
171, 4387.80, 73889.77, 5908.35, 31230.33, -22760.67, -2318.79, 7936.55, -58388.75, -10299.42, 39188.98, 11120.06, -8152.02, 0.00, 0.00, 0.00, 0.00, 0.00, 0.00, 0.00
172, 4387.80, 73889.77, 5908.35, 31230.33, -22760.67, -2318.79, 7936.55, -58388.75, -10284.48, 39198.72, 11138.39, -8146.67, 0.00, 0.00, 0.00, 0.00, 0.01, 0.48, 0.90
173, 4395.05, 73894.69, 5913.56, 31244.07, -22754.43, -2308.87, 7952.39, -58375.38, -10284.48, 39198.72, 11138.39, -8146.67, 0.00, 0.00, 0.00, 0.00, 0.00, 0.00, 0.00
174, 4395.05, 73894.69, 5913.56, 31244.07, -22754.43, -2308.87, 7952.39, -58375.38, -10303.48, 39187.23, 11087.60, -8154.59, 0.00, 0.00, 0.00, 0.00, 0.00, 0.00, 0.00
175, 4373.23, 73862.45, 5883.49, 31214.59, -22779.91, -2328.36, 7926.46, -58403.77, -10303.48, 39187.23, 11087.60, -8154.59, 0.00, 0.00, 0.00, 0.00, 0.00, 0.00, 0.00
176, 4373.23, 73862.45, 5883.49, 31214.59, -22779.91, -2328.36, 7926.46, -58403.77, -10299.77, 39182.20, 11106.74, -8156.31, 0.00, 0.00, 0.00, 0.00, 0.00, 0.00, 0.00
177, 4393.24, 73889.73, 5910.36, 31238.93, -22756.04, -2311.33, 7956.68, -58382.42, -10299.77, 39182.20, 11106.74, -8156.31, 0.00, 0.00, 0.00, 0.00, 0.00, 0.00, 0.00
178, 4393.24, 73889.73, 5910.36, 31238.93, -22756.04, -2311.33, 7956.68, -58382.42, -10293.09, 39192.62, 11121.33, -8158.16, 0.00, 0.00, 0.00, 0.00, 0.00, 0.00, 0.00
179, 4390.82, 73888.74, 5905.78, 31223.96, -22760.51, -2320.42, 7946.34, -58394.63, -10293.09, 39192.62, 11121.33, -8158.16, 0.00, 0.00, 0.00, 0.00, 0.00, 0.00, 0.00
180, 4390.82, 73888.74, 5905.78, 31223.96, -22760.51, -2320.42, 7946.34, -58394.63, -10293.67, 39181.40, 11112.55, -8142.96, 0.00, 0.00, 0.00, 0.00, 0.00, 0.00, 0.00
181, 4396.21, 73898.87, 5914.27, 31233.81, -22750.72, -2310.19, 7965.11, -58378.60, -10293.67, 39181.40, 11112.55, -8142.96, 0.00, 0.00, 0.00, 0.00, 0.00, 0.00, 0.00
182, 4396.21, 73898.87, 5914.27, 31233.81, -22750.72, -2310.19, 7965.11, -58378.60, -10290.72, 39200.24, 11130.01, -8162.21, 0.00, 0.00, 0.00, 0.00, 0.01, 0.47, 0.90
183, 4391.27, 73887.94, 5906.07, 31226.95, -22756.11, -2316.09, 7958.00, -58390.78, -10290.72, 39200.24, 11130.01, -8162.21, 0.00, 0.00, 0.00, 0.00, 0.00, 0.00, 0.00
184, 4391.27, 73887.94, 5906.07, 31226.95, -22756.11, -2316.09, 7958.00, -58390.78, -10296.91, 39175.03, 11112.48, -8150.45, 0.00, 0.00, 0.00, 0.00, 0.00, 0.00, 0.00
185, 4398.78, 73896.14, 5912.84, 31234.26, -22749.52, -2311.30, 7970.10, -58381.57, -10296.91, 39175.03, 11112.48, -8150.45, 0.00, 0.00, 0.00, 0.00, 0.00, 0.00, 0.00
186, 4398.78, 73896.14, 5912.84, 31234.26, -22749.52, -2311.30, 7970.10, -58381.57, -10294.99, 39195.14, 11132.49, -8169.88, 0.00, 0.00, 0.00, 0.00, 0.00, 0.00, 0.00
187, 4394.91, 73886.33, 5904.26, 31225.56, -22756.96, -2321.23, 7963.43, -58391.54, -10294.99, 39195.14, 11132.49, -8169.88, 0.00, 0.00, 0.00, 0.00, 0.00, 0.00, 0.00
188, 4394.91, 73886.33, 5904.26, 31225.56, -22756.96, -2321.23, 7963.43, -58391.54, -10294.01, 39172.84, 11112.08, -8134.54, 0.00, 0.00, 0.00, 0.00, 0.00, 0.00, 0.00
189, 4400.37, 73900.72, 5916.22, 31236.92, -22744.93, -2309.02, 7978.95, -58379.96, -10294.01, 39172.84, 11112.08, -8134.54, 0.00, 0.00, 0.00, 0.00, 0.00, 0.00, 0.00
190, 4400.37, 73900.72, 5916.22, 31236.92, -22744.93, -2309.02, 7978.95, -58379.96, -10283.95, 39203.77, 11137.85, -8166.90, 0.00, 0.00, 0.00, 0.00, 0.00, 0.00, 0.00
191, 4396.43, 73893.79, 5910.76, 31230.82, -22746.25, -2312.71, 7976.69, -58384.66, -10283.95, 39203.77, 11137.85, -8166.90, 0.00, 0.00, 0.00, 0.00, 0.00, 0.00, 0.00
192, 4396.43, 73893.79, 5910.76, 31230.82, -22746.25, -2312.71, 7976.69, -58384.66, -10291.01, 39173.60, 11115.37, -8140.57, 0.00, 0.00, 0.00, 0.00, 0.01, 0.47, 0.90
193, 4396.43, 73890.57, 5913.67, 31235.49, -22741.87, -2312.87, 7986.70, -58382.62, -10291.01, 39173.60, 11115.37, -8140.57, 0.00, 0.00, 0.00, 0.00, 0.00, 0.00, 0.00
194, 4396.43, 73890.57, 5913.67, 31235.49, -22741.87, -2312.87, 7986.70, -58382.62, -10288.49, 39202.48, 11137.23, -8162.59, 0.00, 0.00, 0.00, 0.00, 0.00, 0.00, 0.00
195, 4395.94, 73892.27, 5912.39, 31233.90, -22741.63, -2311.53, 7987.73, -58382.78, -10288.49, 39202.48, 11137.23, -8162.59, 0.00, 0.00, 0.00, 0.00, 0.00, 0.00, 0.00
196, 4395.94, 73892.27, 5912.39, 31233.90, -22741.63, -2311.53, 7987.73, -58382.78, -10285.27, 39179.05, 11116.64, -8132.19, 0.00, 0.00, 0.00, 0.00, 0.00, 0.00, 0.00
197, 4393.10, 73892.30, 5910.99, 31234.60, -22739.44, -2309.63, 7991.62, -58381.55, -10285.27, 39179.05, 11116.64, -8132.19, 0.00, 0.00, 0.00, 0.00, 0.00, 0.00, 0.00
198, 4393.10, 73892.30, 5910.99, 31234.60, -22739.44, -2309.63, 7991.62, -58381.55, -10280.26, 39203.55, 11138.19, -8173.52, 0.00, 0.00, 0.00, 0.00, 0.00, 0.00, 0.00
199, 4393.86, 73893.26, 5912.84, 31239.02, -22731.68, -2308.56, 8000.11, -58377.82, -10280.26, 39203.55, 11138.19, -8173.52, 0.00, 0.00, 0.00, 0.00, 0.00, 0.00, 0.00
200, 4393.86, 73893.26, 5912.84, 31239.02, -22731.68, -2308.56, 8000.11, -58377.82, -10287.35, 39175.68, 11112.39, -8139.54, 0.00, 0.00, 0.00, 0.00, 0.00, 0.00, 0.00
201, 4383.60, 73883.22, 5902.76, 31226.41, -22741.20, -2316.36, 7995.62, -58384.77, -10287.35, 39175.68, 11112.39, -8139.54, 0.00, 0.00, 0.00, 0.00, 0.01, 0.47, 0.90
202, 4383.60, 73883.22, 5902.76, 31226.41, -22741.20, -2316.36, 7995.62, -58384.77, -10284.84, 39201.54, 11126.52, -8169.27, 0.00, 0.00, 0.00, 0.00, 0.00, 0.00, 0.00
203, 4392.25, 73890.23, 5909.64, 31232.99, -22732.44, -2309.87, 8007.40, -58375.27, -10284.84, 39201.54, 11126.52, -8169.27, 0.00, 0.00, 0.00, 0.00, 0.00, 0.00, 0.00
204, 4392.25, 73890.23, 5909.64, 31232.99, -22732.44, -2309.87, 8007.40, -58375.27, -10286.58, 39180.91, 11109.31, -8135.30, 0.00, 0.00, 0.00, 0.00, 0.00, 0.00, 0.00
205, 4386.93, 73887.49, 5902.04, 31222.57, -22741.51, -2318.50, 7999.02, -58386.24, -10286.58, 39180.91, 11109.31, -8135.30, 0.00, 0.00, 0.00, 0.00, 0.00, 0.00, 0.00
206, 4386.93, 73887.49, 5902.04, 31222.57, -22741.51, -2318.50, 7999.02, -58386.24, -10279.54, 39204.29, 11124.93, -8161.85, 0.00, 0.00, 0.00, 0.00, 0.00, 0.00, 0.00
207, 4394.46, 73899.20, 5907.99, 31230.64, -22732.19, -2310.54, 8011.80, -58375.22, -10279.54, 39204.29, 11124.93, -8161.85, 0.00, 0.00, 0.00, 0.00, 0.00, 0.00, 0.00
208, 4394.46, 73899.20, 5907.99, 31230.64, -22732.19, -2310.54, 8011.80, -58375.22, -10283.79, 39185.51, 11110.27, -8133.06, 0.00, 0.00, 0.00, 0.00, 0.00, 0.00, 0.00
209, 4386.51, 73887.80, 5898.78, 31217.76, -22742.63, -2320.83, 8000.34, -58387.18, -10283.79, 39185.51, 11110.27, -8133.06, 0.00, 0.00, 0.00, 0.00, 0.00, 0.00, 0.00
210, 4386.51, 73887.80, 5898.78, 31217.76, -22742.63, -2320.83, 8000.34, -58387.18, -10279.25, 39201.18, 11125.18, -8158.65, 0.00, 0.00, 0.00, 0.00, 0.00, 0.00, 0.00
211, 4395.25, 73900.63, 5908.37, 31228.67, -22729.94, -2309.74, 8015.11, -58375.65, -10279.25, 39201.18, 11125.18, -8158.65, 0.00, 0.00, 0.00, 0.00, 0.01, 0.47, 0.90
212, 4395.25, 73900.63, 5908.37, 31228.67, -22729.94, -2309.74, 8015.11, -58375.65, -10280.57, 39186.52, 11122.99, -8137.51, 0.00, 0.00, 0.00, 0.00, 0.00, 0.00, 0.00
213, 4392.77, 73893.59, 5904.32, 31218.97, -22734.88, -2318.08, 8005.55, -58387.63, -10280.57, 39186.52, 11122.99, -8137.51, 0.00, 0.00, 0.00, 0.00, 0.00, 0.00, 0.00
214, 4392.77, 73893.59, 5904.32, 31218.97, -22734.88, -2318.08, 8005.55, -58387.63, -10276.55, 39195.57, 11132.20, -8164.96, 0.00, 0.00, 0.00, 0.00, 0.00, 0.00, 0.00
215, 4404.28, 73910.78, 5921.09, 31236.65, -22718.13, -2305.36, 8027.45, -58370.73, -10276.55, 39195.57, 11132.20, -8164.96, 0.00, 0.00, 0.00, 0.00, 0.00, 0.00, 0.00
216, 4404.28, 73910.78, 5921.09, 31236.65, -22718.13, -2305.36, 8027.45, -58370.73, -10273.82, 39192.48, 11132.31, -8142.74, 0.00, 0.00, 0.00, 0.00, 0.00, 0.00, 0.00
217, 4397.62, 73895.80, 5912.01, 31223.02, -22724.10, -2316.13, 8017.59, -58379.63, -10273.82, 39192.48, 11132.31, -8142.74, 0.00, 0.00, 0.00, 0.00, 0.00, 0.00, 0.00
218, 4397.62, 73895.80, 5912.01, 31223.02, -22724.10, -2316.13, 8017.59, -58379.63, -10269.08, 39201.29, 11136.71, -8142.81, 0.00, 0.00, 0.00, 0.00, 0.00, 0.00, 0.00
219, 4408.90, 73911.23, 5925.18, 31243.67, -22707.92, -2297.13, 8037.87, -58360.80, -10269.08, 39201.29, 11136.71, -8142.81, 0.00, 0.00, 0.00, 0.00, 0.00, 0.00, 0.00
220, 4408.90, 73911.23, 5925.18, 31243.67, -22707.92, -2297.13, 8037.87, -58360.80, -10268.08, 39200.64, 11131.91, -8144.28, 0.00, 0.00, 0.00, 0.00, 0.00, 0.00, 0.00
221, 4392.97, 73887.71, 5906.52, 31224.49, -22721.66, -2314.75, 8021.95, -58379.71, -10268.08, 39200.64, 11131.91, -8144.28, 0.00, 0.00, 0.00, 0.00, 0.00, 0.47, 0.90
222, 4392.97, 73887.71, 5906.52, 31224.49, -22721.66, -2314.75, 8021.95, -58379.71, -10268.39, 39199.37, 11121.89, -8148.86, 0.00, 0.00, 0.00, 0.00, 0.00, 0.00, 0.00
223, 4398.94, 73898.22, 5917.65, 31244.16, -22707.72, -2302.86, 8042.83, -58360.02, -10268.39, 39199.37, 11121.89, -8148.86, 0.00, 0.00, 0.00, 0.00, 0.00, 0.00, 0.00
224, 4398.94, 73898.22, 5917.65, 31244.16, -22707.72, -2302.86, 8042.83, -58360.02, -10264.12, 39209.94, 11141.27, -8142.43, 0.00, 0.00, 0.00, 0.00, 0.00, 0.00, 0.00
225, 4383.27, 73875.91, 5897.55, 31227.80, -22725.04, -2315.17, 8021.10, -58380.43, -10264.12, 39209.94, 11141.27, -8142.43, 0.00, 0.00, 0.00, 0.00, 0.00, 0.00, 0.00
226, 4383.27, 73875.91, 5897.55, 31227.80, -22725.04, -2315.17, 8021.10, -58380.43, -10280.51, 39184.86, 11083.63, -8149.13, 0.00, 0.00, 0.00, 0.00, 0.00, 0.00, 0.00
227, 4381.28, 73876.98, 5891.27, 31223.40, -22728.95, -2314.50, 8023.99, -58378.82, -10280.51, 39184.86, 11083.63, -8149.13, 0.00, 0.00, 0.00, 0.00, 0.00, 0.00, 0.00
228, 4381.28, 73876.98, 5891.27, 31223.40, -22728.95, -2314.50, 8023.99, -58378.82, -10275.90, 39195.10, 11120.33, -8168.53, 0.00, 0.00, 0.00, 0.00, 0.00, 0.00, 0.00
229, 4382.26, 73877.63, 5890.35, 31214.72, -22732.55, -2323.33, 8012.72, -58390.13, -10275.90, 39195.10, 11120.33, -8168.53, 0.00, 0.00, 0.00, 0.00, 0.00, 0.00, 0.00
230, 4382.26, 73877.63, 5890.35, 31214.72, -22732.55, -2323.33, 8012.72, -58390.13, -10283.79, 39175.86, 11099.07, -8148.10, 0.00, 0.00, 0.00, 0.00, 0.00, 0.00, 0.00
231, 4391.74, 73895.89, 5901.84, 31224.34, -22723.12, -2316.24, 8029.33, -58378.38, -10283.79, 39175.86, 11099.07, -8148.10, 0.00, 0.00, 0.00, 0.00, 0.01, 0.47, 0.90
232, 4391.74, 73895.89, 5901.84, 31224.34, -22723.12, -2316.24, 8029.33, -58378.38, -10275.97, 39196.22, 11121.22, -8172.49, 0.00, 0.00, 0.00, 0.00, 0.00, 0.00, 0.00
233, 4386.13, 73882.98, 5891.90, 31207.19, -22731.75, -2329.86, 8015.58, -58388.88, -10275.97, 39196.22, 11121.22, -8172.49, 0.00, 0.00, 0.00, 0.00, 0.00, 0.00, 0.00
234, 4386.13, 73882.98, 5891.90, 31207.19, -22731.75, -2329.86, 8015.58, -58388.88, -10280.93, 39175.90, 11108.26, -8146.88, 0.00, 0.00, 0.00, 0.00, 0.00, 0.00, 0.00
235, 4399.83, 73898.35, 5907.83, 31224.36, -22720.17, -2314.46, 8029.93, -58377.97, -10280.93, 39175.90, 11108.26, -8146.88, 0.00, 0.00, 0.00, 0.00, 0.00, 0.00, 0.00
236, 4399.83, 73898.35, 5907.83, 31224.36, -22720.17, -2314.46, 8029.93, -58377.97, -10272.01, 39201.74, 11134.50, -8169.45, 0.00, 0.00, 0.00, 0.00, 0.00, 0.00, 0.00
237, 4397.64, 73893.68, 5905.15, 31218.03, -22722.09, -2320.67, 8024.54, -58383.87, -10272.01, 39201.74, 11134.50, -8169.45, 0.00, 0.00, 0.00, 0.00, 0.00, 0.00, 0.00
238, 4397.64, 73893.68, 5905.15, 31218.03, -22722.09, -2320.67, 8024.54, -58383.87, -10278.36, 39176.28, 11110.96, -8140.48, 0.00, 0.00, 0.00, 0.00, 0.00, 0.00, 0.00
239, 4404.17, 73904.74, 5913.65, 31226.03, -22716.35, -2315.22, 8031.12, -58377.37, -10278.36, 39176.28, 11110.96, -8140.48, 0.00, 0.00, 0.00, 0.00, 0.00, 0.00, 0.00
240, 4404.17, 73904.74, 5913.65, 31226.03, -22716.35, -2315.22, 8031.12, -58377.37, -10266.51, 39204.49, 11140.69, -8176.78, 0.00, 0.00, 0.00, 0.00, 0.01, 0.47, 0.90
241, 4404.99, 73904.03, 5917.00, 31227.42, -22710.15, -2312.31, 8031.03, -58377.03, -10266.51, 39204.49, 11140.69, -8176.78, 0.00, 0.00, 0.00, 0.00, 0.00, 0.00, 0.00
242, 4404.99, 73904.03, 5917.00, 31227.42, -22710.15, -2312.31, 8031.03, -58377.03, -10268.19, 39179.95, 11117.20, -8136.46, 0.00, 0.00, 0.00, 0.00, 0.00, 0.00, 0.00
243, 4405.95, 73904.88, 5917.71, 31231.62, -22706.60, -2310.81, 8035.07, -58370.91, -10268.19, 39179.95, 11117.20, -8136.46, 0.00, 0.00, 0.00, 0.00, 0.00, 0.00, 0.00
244, 4405.95, 73904.88, 5917.71, 31231.62, -22706.60, -2310.81, 8035.07, -58370.91, -10258.31, 39211.89, 11141.85, -8164.71, 0.00, 0.00, 0.00, 0.00, 0.00, 0.00, 0.00
245, 4408.66, 73907.31, 5920.66, 31232.70, -22699.98, -2307.06, 8035.72, -58368.92, -10258.31, 39211.89, 11141.85, -8164.71, 0.00, 0.00, 0.00, 0.00, 0.00, 0.00, 0.00
246, 4408.66, 73907.31, 5920.66, 31232.70, -22699.98, -2307.06, 8035.72, -58368.92, -10265.91, 39182.18, 11115.81, -8133.78, 0.00, 0.00, 0.00, 0.00, 0.00, 0.00, 0.00
247, 4398.94, 73891.76, 5910.11, 31229.39, -22707.27, -2316.11, 8023.65, -58371.87, -10265.91, 39182.18, 11115.81, -8133.78, 0.00, 0.00, 0.00, 0.00, 0.00, 0.00, 0.00
248, 4398.94, 73891.76, 5910.11, 31229.39, -22707.27, -2316.11, 8023.65, -58371.87, -10266.09, 39204.11, 11127.66, -8176.85, 0.00, 0.00, 0.00, 0.00, 0.00, 0.00, 0.00
249, 4400.12, 73892.98, 5911.16, 31232.00, -22702.38, -2310.23, 8023.72, -58371.60, -10266.09, 39204.11, 11127.66, -8176.85, 0.00, 0.00, 0.00, 0.00, 0.00, 0.00, 0.00
250, 4400.12, 73892.98, 5911.16, 31232.00, -22702.38, -2310.23, 8023.72, -58371.60, -10267.23, 39178.98, 11102.00, -8149.22, 0.00, 0.00, 0.00, 0.00, 0.00, 0.47, 0.90
251, 4391.27, 73885.68, 5897.04, 31222.59, -22713.55, -2317.83, 8009.14, -58380.68, -10267.23, 39178.98, 11102.00, -8149.22, 0.00, 0.00, 0.00, 0.00, 0.00, 0.00, 0.00
252, 4391.27, 73885.68, 5897.04, 31222.59, -22713.55, -2317.83, 8009.14, -58380.68, -10264.73, 39205.83, 11115.19, -8166.25, 0.00, 0.00, 0.00, 0.00, 0.00, 0.00, 0.00
253, 4394.69, 73885.68, 5900.95, 31227.58, -22708.70, -2312.33, 8011.13, -58372.94, -10264.73, 39205.83, 11115.19, -8166.25, 0.00, 0.00, 0.00, 0.00, 0.00, 0.00, 0.00
254, 4394.69, 73885.68, 5900.95, 31227.58, -22708.70, -2312.33, 8011.13, -58372.94, -10273.08, 39182.00, 11089.84, -8136.10, 0.00, 0.00, 0.00, 0.00, 0.00, 0.00, 0.00
255, 4386.82, 73875.48, 5890.42, 31216.45, -22720.32, -2323.60, 7994.53, -58382.08, -10273.08, 39182.00, 11089.84, -8136.10, 0.00, 0.00, 0.00, 0.00, 0.00, 0.00, 0.00
0, 4386.82, 73875.48, 5890.42, 31216.45, -22720.32, -2323.60, 7994.53, -58382.08, -10263.16, 39203.33, 11111.99, -8173.47, 0.00, 0.00, 0.00, 0.00, 0.00, 0.00, 0.00
1, 4403.94, 73897.41, 5907.77, 31230.35, -22706.98, -2313.41, 8002.48, -58370.55, -10263.16, 39203.33, 11111.99, -8173.47, 0.00, 0.00, 0.00, 0.00, 0.00, 0.00, 0.00
2, 4403.94, 73897.41, 5907.77, 31230.35, -22706.98, -2313.41, 8002.48, -58370.55, -10269.55, 39176.55, 11098.89, -8152.66, 0.00, 0.00, 0.00, 0.00, 0.00, 0.00, 0.00
3, 4400.52, 73894.75, 5902.80, 31220.65, -22716.19, -2321.36, 7984.02, -58385.35, -10269.55, 39176.55, 11098.89, -8152.66, 0.00, 0.00, 0.00, 0.00, 0.00, 0.00, 0.00
4, 4400.52, 73894.75, 5902.80, 31220.65, -22716.19, -2321.36, 7984.02, -58385.35, -10262.83, 39191.59, 11116.21, -8169.07, 0.00, 0.00, 0.00, 0.00, 0.01, 0.47, 0.90
5, 4414.58, 73915.38, 5919.21, 31234.44, -22701.50, -2309.76, 7997.74, -58365.81, -10262.83, 39191.59, 11116.21, -8169.07, 0.00, 0.00, 0.00, 0.00, 0.00, 0.00, 0.00
6, 4414.58, 73915.38, 5919.21, 31234.44, -22701.50, -2309.76, 7997.74, -58365.81, -10262.94, 39190.36, 11108.82, -8147.50, 0.00, 0.00, 0.00, 0.00, 0.00, 0.00, 0.00
7, 4401.17, 73899.47, 5906.58, 31221.34, -22713.73, -2320.58, 7977.25, -58376.81, -10262.94, 39190.36, 11108.82, -8147.50, 0.00, 0.00, 0.00, 0.00, 0.00, 0.00, 0.00
8, 4401.17, 73899.47, 5906.58, 31221.34, -22713.73, -2320.58, 7977.25, -58376.81, -10256.70, 39198.41, 11114.92, -8159.15, 0.00, 0.00, 0.00, 0.00, 0.00, 0.00, 0.00
9, 4418.74, 73917.71, 5923.90, 31240.76, -22698.69, -2303.86, 7989.45, -58361.92, -10256.70, 39198.41, 11114.92, -8159.15, 0.00, 0.00, 0.00, 0.00, 0.00, 0.00, 0.00
10, 4418.74, 73917.71, 5923.90, 31240.76, -22698.69, -2303.86, 7989.45, -58361.92, -10256.08, 39190.92, 11117.49, -8152.89, 0.00, 0.00, 0.00, 0.00, 0.00, 0.00, 0.00
11, 4414.78, 73907.88, 5916.82, 31227.78, -22708.90, -2313.58, 7968.44, -58377.86, -10256.08, 39190.92, 11117.49, -8152.89, 0.00, 0.00, 0.00, 0.00, 0.00, 0.00, 0.00
12, 4414.78, 73907.88, 5916.82, 31227.78, -22708.90, -2313.58, 7968.44, -58377.86, -10254.91, 39194.54, 11118.12, -8153.56, 0.00, 0.00, 0.00, 0.00, 0.00, 0.00, 0.00
13, 4429.38, 73930.23, 5936.06, 31250.53, -22691.29, -2297.56, 7987.80, -58355.02, -10254.91, 39194.54, 11118.12, -8153.56, 0.00, 0.00, 0.00, 0.00, 0.00, 0.00, 0.00
14, 4429.38, 73930.23, 5936.06, 31250.53, -22691.29, -2297.56, 7987.80, -58355.02, -10253.17, 39202.99, 11122.34, -8149.78, 0.00, 0.00, 0.00, 0.00, 0.00, 0.47, 0.90
15, 4413.40, 73905.10, 5920.37, 31235.27, -22705.21, -2309.02, 7966.21, -58367.62, -10253.17, 39202.99, 11122.34, -8149.78, 0.00, 0.00, 0.00, 0.00, 0.00, 0.00, 0.00
16, 4413.40, 73905.10, 5920.37, 31235.27, -22705.21, -2309.02, 7966.21, -58367.62, -10249.15, 39204.31, 11108.30, -8136.86, 0.00, 0.00, 0.00, 0.00, 0.00, 0.00, 0.00
17, 4420.71, 73916.03, 5931.46, 31251.31, -22692.25, -2292.86, 7979.08, -58350.75, -10249.15, 39204.31, 11108.30, -8136.86, 0.00, 0.00, 0.00, 0.00, 0.00, 0.00, 0.00
18, 4420.71, 73916.03, 5931.46, 31251.31, -22692.25, -2292.86, 7979.08, -58350.75, -10252.97, 39208.02, 11114.94, -8149.07, 0.00, 0.00, 0.00, 0.00, 0.00, 0.00, 0.00
19, 4398.40, 73890.39, 5909.13, 31233.72, -22712.66, -2310.86, 7951.19, -58370.75, -10252.97, 39208.02, 11114.94, -8149.07, 0.00, 0.00, 0.00, 0.00, 0.00, 0.00, 0.00
20, 4398.40, 73890.39, 5909.13, 31233.72, -22712.66, -2310.86, 7951.19, -58370.75, -10263.58, 39187.12, 11087.94, -8149.24, 0.00, 0.00, 0.00, 0.00, 0.00, 0.00, 0.00
21, 4399.74, 73896.02, 5913.02, 31239.31, -22712.43, -2303.86, 7957.02, -58360.54, -10263.58, 39187.12, 11087.94, -8149.24, 0.00, 0.00, 0.00, 0.00, 0.00, 0.00, 0.00
22, 4399.74, 73896.02, 5913.02, 31239.31, -22712.43, -2303.86, 7957.02, -58360.54, -10257.51, 39200.09, 11100.79, -8163.30, 0.00, 0.00, 0.00, 0.00, 0.00, 0.00, 0.00
23, 4387.69, 73878.23, 5894.83, 31222.97, -22728.55, -2316.74, 7932.37, -58378.02, -10257.51, 39200.09, 11100.79, -8163.30, 0.00, 0.00, 0.00, 0.00, 0.00, 0.47, 0.90
24, 4387.69, 73878.23, 5894.83, 31222.97, -22728.55, -2316.74, 7932.37, -58378.02, -10264.10, 39179.43, 11074.75, -8140.10, 0.00, 0.00, 0.00, 0.00, 0.00, 0.00, 0.00
25, 4388.41, 73879.89, 5891.74, 31225.74, -22733.96, -2311.15, 7931.58, -58370.24, -10264.10, 39179.43, 11074.75, -8140.10, 0.00, 0.00, 0.00, 0.00, 0.00, 0.00, 0.00
26, 4388.41, 73879.89, 5891.74, 31225.74, -22733.96, -2311.15, 7931.58, -58370.24, -10258.09, 39201.83, 11090.80, -8176.65, 0.00, 0.00, 0.00, 0.00, 0.00, 0.00, 0.00
27, 4384.36, 73872.63, 5882.33, 31214.52, -22745.87, -2323.28, 7911.13, -58383.27, -10258.09, 39201.83, 11090.80, -8176.65, 0.00, 0.00, 0.00, 0.00, 0.00, 0.00, 0.00
28, 4384.36, 73872.63, 5882.33, 31214.52, -22745.87, -2323.28, 7911.13, -58383.27, -10263.32, 39172.64, 11069.48, -8147.28, 0.00, 0.00, 0.00, 0.00, 0.00, 0.00, 0.00
29, 4396.88, 73886.98, 5894.04, 31225.65, -22737.98, -2314.81, 7920.79, -58367.42, -10263.32, 39172.64, 11069.48, -8147.28, 0.00, 0.00, 0.00, 0.00, 0.00, 0.00, 0.00
30, 4396.88, 73886.98, 5894.04, 31225.65, -22737.98, -2314.81, 7920.79, -58367.42, -10247.69, 39206.25, 11101.11, -8169.34, 0.00, 0.00, 0.00, 0.00, 0.00, 0.00, 0.00
31, 4400.92, 73888.43, 5893.37, 31221.81, -22741.85, -2317.00, 7908.14, -58372.36, -10247.69, 39206.25, 11101.11, -8169.34, 0.00, 0.00, 0.00, 0.00, 0.00, 0.00, 0.00
32, 4400.92, 73888.43, 5893.37, 31221.81, -22741.85, -2317.00, 7908.14, -58372.36, -10254.33, 39179.77, 11079.89, -8139.86, 0.00, 0.00, 0.00, 0.00, 0.00, 0.00, 0.00
33, 4408.99, 73902.84, 5902.80, 31225.39, -22739.23, -2315.84, 7910.73, -58366.84, -10254.33, 39179.77, 11079.89, -8139.86, 0.00, 0.00, 0.00, 0.00, 0.00, 0.47, 0.90
34, 4408.99, 73902.84, 5902.80, 31225.39, -22739.23, -2315.84, 7910.73, -58366.84, -10246.60, 39206.99, 11104.86, -8180.05, 0.00, 0.00, 0.00, 0.00, 0.00, 0.00, 0.00
35, 4412.97, 73905.39, 5907.52, 31226.19, -22739.01, -2315.37, 7906.44, -58361.59, -10246.60, 39206.99, 11104.86, -8180.05, 0.00, 0.00, 0.00, 0.00, 0.00, 0.00, 0.00
36, 4412.97, 73905.39, 5907.52, 31226.19, -22739.01, -2315.37, 7906.44, -58361.59, -10247.18, 39184.02, 11090.26, -8132.28, 0.00, 0.00, 0.00, 0.00, 0.00, 0.00, 0.00
37, 4418.63, 73908.95, 5912.95, 31229.81, -22740.31, -2311.30, 7904.67, -58364.05, -10247.18, 39184.02, 11090.26, -8132.28, 0.00, 0.00, 0.00, 0.00, 0.00, 0.00, 0.00
38, 4418.63, 73908.95, 5912.95, 31229.81, -22740.31, -2311.30, 7904.67, -58364.05, -10241.55, 39207.82, 11117.02, -8169.47, 0.00, 0.00, 0.00, 0.00, 0.00, 0.00, 0.00
39, 4428.89, 73915.61, 5923.03, 31239.20, -22733.87, -2303.95, 7908.36, -58357.39, -10241.55, 39207.82, 11117.02, -8169.47, 0.00, 0.00, 0.00, 0.00, 0.00, 0.00, 0.00
40, 4428.89, 73915.61, 5923.03, 31239.20, -22733.87, -2303.95, 7908.36, -58357.39, -10241.05, 39189.83, 11096.59, -8132.84, 0.00, 0.00, 0.00, 0.00, 0.00, 0.00, 0.00
41, 4426.54, 73915.67, 5923.79, 31237.79, -22734.92, -2303.88, 7905.99, -58354.70, -10241.05, 39189.83, 11096.59, -8132.84, 0.00, 0.00, 0.00, 0.00, 0.00, 0.00, 0.00
42, 4426.54, 73915.67, 5923.79, 31237.79, -22734.92, -2303.88, 7905.99, -58354.70, -10227.98, 39220.79, 11123.28, -8165.43, 0.00, 0.00, 0.00, 0.00, 0.00, 0.00, 0.00
43, 4428.71, 73918.42, 5928.87, 31244.38, -22728.64, -2298.39, 7908.72, -58345.88, -10227.98, 39220.79, 11123.28, -8165.43, 0.00, 0.00, 0.00, 0.00, 0.00, 0.47, 0.90
44, 4428.71, 73918.42, 5928.87, 31244.38, -22728.64, -2298.39, 7908.72, -58345.88, -10231.38, 39195.32, 11100.86, -8122.24, 0.00, 0.00, 0.00, 0.00, 0.00, 0.00, 0.00
45, 4409.84, 73900.56, 5913.80, 31232.07, -22742.79, -2307.39, 7895.40, -58355.60, -10231.38, 39195.32, 11100.86, -8122.24, 0.00, 0.00, 0.00, 0.00, 0.00, 0.00, 0.00
46, 4409.84, 73900.56, 5913.80, 31232.07, -22742.79, -2307.39, 7895.40, -58355.60, -10226.93, 39217.61, 11119.17, -8160.53, 0.00, 0.00, 0.00, 0.00, 0.00, 0.00, 0.00
47, 4403.03, 73899.78, 5911.57, 31230.55, -22741.45, -2303.35, 7897.50, -58344.85, -10226.93, 39217.61, 11119.17, -8160.53, 0.00, 0.00, 0.00, 0.00, 0.00, 0.00, 0.00
48, 4403.03, 73899.78, 5911.57, 31230.55, -22741.45, -2303.35, 7897.50, -58344.85, -10232.20, 39199.48, 11093.21, -8131.36, 0.00, 0.00, 0.00, 0.00, 0.00, 0.00, 0.00
49, 4382.95, 73879.82, 5891.34, 31212.11, -22762.19, -2317.07, 7878.19, -58356.89, -10232.20, 39199.48, 11093.21, -8131.36, 0.00, 0.00, 0.00, 0.00, 0.00, 0.00, 0.00
50, 4382.95, 73879.82, 5891.34, 31212.11, -22762.19, -2317.07, 7878.19, -58356.89, -10229.39, 39217.81, 11097.60, -8156.67, 0.00, 0.00, 0.00, 0.00, 0.00, 0.00, 0.00
51, 4383.65, 73884.07, 5892.90, 31223.15, -22762.66, -2305.16, 7882.97, -58349.59, -10229.39, 39217.81, 11097.60, -8156.67, 0.00, 0.00, 0.00, 0.00, 0.00, 0.00, 0.00
52, 4383.65, 73884.07, 5892.90, 31223.15, -22762.66, -2305.16, 7882.97, -58349.59, -10244.18, 39192.96, 11075.31, -8135.79, 0.00, 0.00, 0.00, 0.00, 0.00, 0.00, 0.00
53, 4366.19, 73858.92, 5868.23, 31196.24, -22792.07, -2330.77, 7849.06, -58378.02, -10244.18, 39192.96, 11075.31, -8135.79, 0.00, 0.00, 0.00, 0.00, 0.00, 0.47, 0.90
54, 4366.19, 73858.92, 5868.23, 31196.24, -22792.07, -2330.77, 7849.06, -58378.02, -10251.90, 39191.88, 11071.09, -8172.96, 0.00, 0.00, 0.00, 0.00, 0.00, 0.00, 0.00
55, 4380.41, 73879.06, 5881.86, 31210.90, -22786.73, -2321.94, 7861.04, -58366.53, -10251.90, 39191.88, 11071.09, -8172.96, 0.00, 0.00, 0.00, 0.00, 0.00, 0.00, 0.00
56, 4380.41, 73879.06, 5881.86, 31210.90, -22786.73, -2321.94, 7861.04, -58366.53, -10253.57, 39183.25, 11066.42, -8157.02, 0.00, 0.00, 0.00, 0.00, 0.00, 0.00, 0.00
57, 4372.14, 73863.59, 5868.70, 31194.65, -22804.23, -2335.18, 7841.33, -58381.48, -10253.57, 39183.25, 11066.42, -8157.02, 0.00, 0.00, 0.00, 0.00, 0.00, 0.00, 0.00
58, 4372.14, 73863.59, 5868.70, 31194.65, -22804.23, -2335.18, 7841.33, -58381.48, -10251.67, 39188.73, 11068.58, -8168.20, 0.00, 0.00, 0.00, 0.00, 0.00, 0.00, 0.00
59, 4387.80, 73884.72, 5885.59, 31214.66, -22794.71, -2318.48, 7853.46, -58366.68, -10251.67, 39188.73, 11068.58, -8168.20, 0.00, 0.00, 0.00, 0.00, 0.00, 0.00, 0.00
60, 4387.80, 73884.72, 5885.59, 31214.66, -22794.71, -2318.48, 7853.46, -58366.68, -10251.31, 39189.07, 11071.82, -8159.44, 0.00, 0.00, 0.00, 0.00, 0.00, 0.00, 0.00
61, 4380.25, 73868.38, 5877.26, 31201.45, -22807.00, -2330.53, 7839.00, -58379.63, -10251.31, 39189.07, 11071.82, -8159.44, 0.00, 0.00, 0.00, 0.00, 0.00, 0.00, 0.00
62, 4380.25, 73868.38, 5877.26, 31201.45, -22807.00, -2330.53, 7839.00, -58379.63, -10252.66, 39187.01, 11063.80, -8160.31, 0.00, 0.00, 0.00, 0.00, 0.00, 0.47, 0.90
63, 4394.38, 73885.05, 5893.42, 31223.80, -22795.13, -2315.28, 7855.16, -58362.84, -10252.66, 39187.01, 11063.80, -8160.31, 0.00, 0.00, 0.00, 0.00, 0.00, 0.00, 0.00
64, 4394.38, 73885.05, 5893.42, 31223.80, -22795.13, -2315.28, 7855.16, -58362.84, -10246.31, 39193.13, 11076.81, -8161.52, 0.00, 0.00, 0.00, 0.00, 0.00, 0.00, 0.00
65, 4390.15, 73871.20, 5883.65, 31212.85, -22808.77, -2321.85, 7837.19, -58378.60, -10246.31, 39193.13, 11076.81, -8161.52, 0.00, 0.00, 0.00, 0.00, 0.00, 0.00, 0.00
66, 4390.15, 73871.20, 5883.65, 31212.85, -22808.77, -2321.85, 7837.19, -58378.60, -10243.60, 39188.22, 11069.70, -8158.43, 0.00, 0.00, 0.00, 0.00, 0.00, 0.00, 0.00
67, 4405.08, 73891.83, 5906.65, 31235.78, -22790.80, -2304.93, 7861.71, -58355.75, -10243.60, 39188.22, 11069.70, -8158.43, 0.00, 0.00, 0.00, 0.00, 0.00, 0.00, 0.00
68, 4405.08, 73891.83, 5906.65, 31235.78, -22790.80, -2304.93, 7861.71, -58355.75, -10232.90, 39204.24, 11092.54, -8152.89, 0.00, 0.00, 0.00, 0.00, 0.00, 0.00, 0.00
69, 4398.78, 73881.81, 5900.17, 31223.89, -22799.20, -2317.18, 7847.56, -58366.37, -10232.90, 39204.24, 11092.54, -8152.89, 0.00, 0.00, 0.00, 0.00, 0.00, 0.00, 0.00
70, 4398.78, 73881.81, 5900.17, 31223.89, -22799.20, -2317.18, 7847.56, -58366.37, -10237.32, 39187.64, 11077.23, -8145.02, 0.00, 0.00, 0.00, 0.00, 0.00, 0.00, 0.00
71, 4397.48, 73878.66, 5902.47, 31232.58, -22796.63, -2308.04, 7860.08, -58353.47, -10237.32, 39187.64, 11077.23, -8145.02, 0.00, 0.00, 0.00, 0.00, 0.00, 0.00, 0.00
72, 4397.48, 73878.66, 5902.47, 31232.58, -22796.63, -2308.04, 7860.08, -58353.47, -10228.40, 39209.43, 11094.00, -8165.43, 0.00, 0.00, 0.00, 0.00, 0.00, 0.47, 0.90
73, 4387.94, 73869.49, 5893.53, 31222.73, -22802.80, -2312.33, 7847.09, -58359.73, -10228.40, 39209.43, 11094.00, -8165.43, 0.00, 0.00, 0.00, 0.00, 0.00, 0.00, 0.00
74, 4387.94, 73869.49, 5893.53, 31222.73, -22802.80, -2312.33, 7847.09, -58359.73, -10231.73, 39190.79, 11076.88, -8139.21, 0.00, 0.00, 0.00, 0.00, 0.00, 0.00, 0.00
75, 4383.71, 73873.18, 5891.74, 31224.67, -22805.86, -2310.99, 7851.70, -58353.59, -10231.73, 39190.79, 11076.88, -8139.21, 0.00, 0.00, 0.00, 0.00, 0.00, 0.00, 0.00
76, 4383.71, 73873.18, 5891.74, 31224.67, -22805.86, -2310.99, 7851.70, -58353.59, -10226.71, 39208.82, 11090.82, -8161.69, 0.00, 0.00, 0.00, 0.00, 0.00, 0.00, 0.00
77, 4370.82, 73859.70, 5877.66, 31210.46, -22818.56, -2321.70, 7838.60, -58361.72, -10226.71, 39208.82, 11090.82, -8161.69, 0.00, 0.00, 0.00, 0.00, 0.00, 0.00, 0.00
78, 4370.82, 73859.70, 5877.66, 31210.46, -22818.56, -2321.70, 7838.60, -58361.72, -10229.50, 39187.64, 11068.07, -8137.09, 0.00, 0.00, 0.00, 0.00, 0.00, 0.00, 0.00
79, 4369.54, 73859.44, 5874.89, 31208.11, -22823.46, -2323.46, 7840.01, -58360.29, -10229.50, 39187.64, 11068.07, -8137.09, 0.00, 0.00, 0.00, 0.00, 0.00, 0.00, 0.00
80, 4369.54, 73859.44, 5874.89, 31208.11, -22823.46, -2323.46, 7840.01, -58360.29, -10224.34, 39211.91, 11085.33, -8174.79, 0.00, 0.00, 0.00, 0.00, 0.00, 0.00, 0.00
81, 4372.87, 73858.19, 5875.80, 31206.12, -22825.85, -2323.84, 7836.36, -58360.74, -10224.34, 39211.91, 11085.33, -8174.79, 0.00, 0.00, 0.00, 0.00, 0.00, 0.00, 0.00
82, 4372.87, 73858.19, 5875.80, 31206.12, -22825.85, -2323.84, 7836.36, -58360.74, -10231.38, 39184.86, 11064.27, -8129.60, 0.00, 0.00, 0.00, 0.00, 0.01, 0.47, 0.90
83, 4378.33, 73862.59, 5879.74, 31210.48, -22827.59, -2322.01, 7834.76, -58359.62, -10231.38, 39184.86, 11064.27, -8129.60, 0.00, 0.00, 0.00, 0.00, 0.00, 0.00, 0.00
84, 4378.33, 73862.59, 5879.74, 31210.48, -22827.59, -2322.01, 7834.76, -58359.62, -10222.88, 39213.65, 11093.93, -8168.91, 0.00, 0.00, 0.00, 0.00, 0.00, 0.00, 0.00
85, 4383.62, 73869.38, 5883.45, 31211.08, -22828.46, -2322.44, 7836.83, -58360.27, -10222.88, 39213.65, 11093.93, -8168.91, 0.00, 0.00, 0.00, 0.00, 0.00, 0.00, 0.00
86, 4383.62, 73869.38, 5883.45, 31211.08, -22828.46, -2322.44, 7836.83, -58360.27, -10232.40, 39185.04, 11070.84, -8136.17, 0.00, 0.00, 0.00, 0.00, 0.00, 0.00, 0.00
87, 4388.99, 73873.38, 5886.62, 31212.27, -22832.02, -2318.77, 7836.23, -58357.72, -10232.40, 39185.04, 11070.84, -8136.17, 0.00, 0.00, 0.00, 0.00, 0.00, 0.00, 0.00
88, 4388.99, 73873.38, 5886.62, 31212.27, -22832.02, -2318.77, 7836.23, -58357.72, -10222.91, 39214.10, 11093.91, -8175.53, 0.00, 0.00, 0.00, 0.00, 0.00, 0.00, 0.00
89, 4400.30, 73882.82, 5897.55, 31221.32, -22828.04, -2317.14, 7841.95, -58357.43, -10222.91, 39214.10, 11093.91, -8175.53, 0.00, 0.00, 0.00, 0.00, 0.00, 0.00, 0.00
90, 4400.30, 73882.82, 5897.55, 31221.32, -22828.04, -2317.14, 7841.95, -58357.43, -10232.54, 39184.33, 11074.39, -8130.51, 0.00, 0.00, 0.00, 0.00, 0.00, 0.00, 0.00
91, 4394.67, 73880.18, 5892.72, 31214.84, -22836.08, -2325.10, 7834.67, -58363.89, -10232.54, 39184.33, 11074.39, -8130.51, 0.00, 0.00, 0.00, 0.00, 0.00, 0.00, 0.00
92, 4394.67, 73880.18, 5892.72, 31214.84, -22836.08, -2325.10, 7834.67, -58363.89, -10226.46, 39206.90, 11088.48, -8169.90, 0.00, 0.00, 0.00, 0.00, 0.00, 0.47, 0.90
93, 4402.38, 73882.46, 5898.45, 31223.87, -22831.55, -2315.37, 7845.46, -58352.85, -10226.46, 39206.90, 11088.48, -8169.90, 0.00, 0.00, 0.00, 0.00, 0.00, 0.00, 0.00
94, 4402.38, 73882.46, 5898.45, 31223.87, -22831.55, -2315.37, 7845.46, -58352.85, -10230.93, 39189.91, 11064.29, -8138.72, 0.00, 0.00, 0.00, 0.00, 0.00, 0.00, 0.00
95, 4392.72, 73866.19, 5885.53, 31216.09, -22845.36, -2323.44, 7833.62, -58365.86, -10230.93, 39189.91, 11064.29, -8138.72, 0.00, 0.00, 0.00, 0.00, 0.00, 0.00, 0.00
96, 4392.72, 73866.19, 5885.53, 31216.09, -22845.36, -2323.44, 7833.62, -58365.86, -10232.14, 39203.21, 11074.84, -8167.01, 0.00, 0.00, 0.00, 0.00, 0.00, 0.00, 0.00
97, 4396.86, 73873.97, 5891.29, 31227.15, -22842.21, -2314.57, 7841.73, -58359.33, -10232.14, 39203.21, 11074.84, -8167.01, 0.00, 0.00, 0.00, 0.00, 0.00, 0.00, 0.00
98, 4396.86, 73873.97, 5891.29, 31227.15, -22842.21, -2314.57, 7841.73, -58359.33, -10237.39, 39182.67, 11055.80, -8141.33, 0.00, 0.00, 0.00, 0.00, 0.00, 0.00, 0.00
99, 4383.04, 73855.13, 5876.65, 31216.06, -22854.99, -2323.35, 7828.14, -58371.36, -10237.39, 39182.67, 11055.80, -8141.33, 0.00, 0.00, 0.00, 0.00, 0.00, 0.00, 0.00
100, 4383.04, 73855.13, 5876.65, 31216.06, -22854.99, -2323.35, 7828.14, -58371.36, -10235.11, 39199.23, 11060.72, -8168.82, 0.00, 0.00, 0.00, 0.00, 0.00, 0.00, 0.00
101, 4385.32, 73862.39, 5882.33, 31222.73, -22847.15, -2318.08, 7842.94, -58355.30, -10235.11, 39199.23, 11060.72, -8168.82, 0.00, 0.00, 0.00, 0.00, 0.00, 0.46, 0.90
102, 4385.32, 73862.39, 5882.33, 31222.73, -22847.15, -2318.08, 7842.94, -58355.30, -10237.30, 39188.33, 11052.20, -8148.35, 0.00, 0.00, 0.00, 0.00, 0.00, 0.00, 0.00
103, 4362.17, 73841.17, 5862.97, 31200.87, -22861.43, -2335.06, 7828.05, -58369.46, -10237.30, 39188.33, 11052.20, -8148.35, 0.00, 0.00, 0.00, 0.00, 0.00, 0.00, 0.00
104, 4362.17, 73841.17, 5862.97, 31200.87, -22861.43, -2335.06, 7828.05, -58369.46, -10231.33, 39200.60, 11059.55, -8162.32, 0.00, 0.00, 0.00, 0.00, 0.00, 0.00, 0.00
105, 4371.11, 73857.27, 5875.49, 31212.82, -22849.56, -2322.88, 7844.14, -58353.96, -10231.33, 39200.60, 11059.55, -8162.32, 0.00, 0.00, 0.00, 0.00, 0.00, 0.00, 0.00
106, 4371.11, 73857.27, 5875.49, 31212.82, -22849.56, -2322.88, 7844.14, -58353.96, -10226.59, 39199.57, 11059.53, -8139.50, 0.00, 0.00, 0.00, 0.00, 0.00, 0.00, 0.00
107, 4360.87, 73847.55, 5862.64, 31196.28, -22862.62, -2335.22, 7827.22, -58367.15, -10226.59, 39199.57, 11059.53, -8139.50, 0.00, 0.00, 0.00, 0.00, 0.00, 0.00, 0.00
108, 4360.87, 73847.55, 5862.64, 31196.28, -22862.62, -2335.22, 7827.22, -58367.15, -10220.58, 39200.22, 11065.70, -8152.80, 0.00, 0.00, 0.00, 0.00, 0.00, 0.00, 0.00
109, 4376.43, 73868.71, 5881.32, 31208.00, -22849.25, -2325.94, 7844.12, -58351.77, -10220.58, 39200.22, 11065.70, -8152.80, 0.00, 0.00, 0.00, 0.00, 0.00, 0.00, 0.00
110, 4376.43, 73868.71, 5881.32, 31208.00, -22849.25, -2325.94, 7844.12, -58351.77, -10219.28, 39200.15, 11070.86, -8153.56, 0.00, 0.00, 0.00, 0.00, 0.00, 0.00, 0.00
111, 4367.53, 73849.63, 5866.30, 31193.36, -22864.20, -2336.81, 7827.98, -58367.13, -10219.28, 39200.15, 11070.86, -8153.56, 0.00, 0.00, 0.00, 0.00, 0.00, 0.47, 0.90
112, 4367.53, 73849.63, 5866.30, 31193.36, -22864.20, -2336.81, 7827.98, -58367.13, -10220.96, 39200.42, 11064.87, -8144.01, 0.00, 0.00, 0.00, 0.00, 0.00, 0.00, 0.00
113, 4382.71, 73869.67, 5883.65, 31209.96, -22849.92, -2326.26, 7847.03, -58346.46, -10220.96, 39200.42, 11064.87, -8144.01, 0.00, 0.00, 0.00, 0.00, 0.00, 0.00, 0.00
114, 4382.71, 73869.67, 5883.65, 31209.96, -22849.92, -2326.26, 7847.03, -58346.46, -10220.85, 39206.39, 11071.94, -8158.14, 0.00, 0.00, 0.00, 0.00, 0.00, 0.00, 0.00
115, 4377.86, 73859.68, 5875.80, 31199.08, -22861.41, -2335.11, 7830.64, -58365.72, -10220.85, 39206.39, 11071.94, -8158.14, 0.00, 0.00, 0.00, 0.00, 0.00, 0.00, 0.00
116, 4377.86, 73859.68, 5875.80, 31199.08, -22861.41, -2335.11, 7830.64, -58365.72, -10223.60, 39190.36, 11061.39, -8152.31, 0.00, 0.00, 0.00, 0.00, 0.00, 0.00, 0.00
117, 4390.66, 73876.36, 5888.25, 31216.49, -22851.84, -2324.11, 7846.67, -58349.45, -10223.60, 39190.36, 11061.39, -8152.31, 0.00, 0.00, 0.00, 0.00, 0.00, 0.00, 0.00
118, 4390.66, 73876.36, 5888.25, 31216.49, -22851.84, -2324.11, 7846.67, -58349.45, -10221.21, 39204.87, 11074.64, -8166.43, 0.00, 0.00, 0.00, 0.00, 0.00, 0.00, 0.00
119, 4386.57, 73864.40, 5879.56, 31203.44, -22862.03, -2334.82, 7833.17, -58366.91, -10221.21, 39204.87, 11074.64, -8166.43, 0.00, 0.00, 0.00, 0.00, 0.00, 0.00, 0.00
120, 4386.57, 73864.40, 5879.56, 31203.44, -22862.03, -2334.82, 7833.17, -58366.91, -10226.77, 39186.34, 11055.35, -8141.69, 0.00, 0.00, 0.00, 0.00, 0.00, 0.00, 0.00
121, 4391.78, 73868.09, 5887.58, 31219.57, -22855.55, -2325.81, 7844.99, -58357.21, -10226.77, 39186.34, 11055.35, -8141.69, 0.00, 0.00, 0.00, 0.00, 0.01, 0.46, 0.90
122, 4391.78, 73868.09, 5887.58, 31219.57, -22855.55, -2325.81, 7844.99, -58357.21, -10225.21, 39197.43, 11069.25, -8180.09, 0.00, 0.00, 0.00, 0.00, 0.00, 0.00, 0.00
123, 4379.33, 73851.79, 5873.66, 31204.42, -22869.05, -2336.54, 7829.21, -58373.61, -10225.21, 39197.43, 11069.25, -8180.09, 0.00, 0.00, 0.00, 0.00, 0.00, 0.00, 0.00
124, 4379.33, 73851.79, 5873.66, 31204.42, -22869.05, -2336.54, 7829.21, -58373.61, -10234.30, 39175.21, 11043.06, -8149.42, 0.00, 0.00, 0.00, 0.00, 0.00, 0.00, 0.00
125, 4381.41, 73858.79, 5879.85, 31213.23, -22861.92, -2330.10, 7841.42, -58360.85, -10234.30, 39175.21, 11043.06, -8149.42, 0.00, 0.00, 0.00, 0.00, 0.00, 0.00, 0.00
126, 4381.41, 73858.79, 5879.85, 31213.23, -22861.92, -2330.10, 7841.42, -58360.85, -10225.54, 39203.24, 11062.93, -8168.87, 0.00, 0.00, 0.00, 0.00, 0.00, 0.00, 0.00
127, 4373.99, 73851.32, 5868.54, 31201.43, -22870.37, -2338.91, 7829.91, -58369.50, -10225.54, 39203.24, 11062.93, -8168.87, 0.00, 0.00, 0.00, 0.00, 0.00, 0.00, 0.00
128, 4373.99, 73851.32, 5868.54, 31201.43, -22870.37, -2338.91, 7829.91, -58369.50, -10230.26, 39178.70, 11039.44, -8143.17, 0.00, 0.00, 0.00, 0.00, 0.00, 0.00, 0.00
129, 4373.68, 73850.74, 5871.13, 31207.66, -22868.81, -2333.43, 7838.18, -58363.51, -10230.26, 39178.70, 11039.44, -8143.17, 0.00, 0.00, 0.00, 0.00, 0.00, 0.00, 0.00
130, 4373.68, 73850.74, 5871.13, 31207.66, -22868.81, -2333.43, 7838.18, -58363.51, -10226.44, 39200.84, 11055.31, -8177.52, 0.00, 0.00, 0.00, 0.00, 0.00, 0.00, 0.00
131, 4366.88, 73836.30, 5859.20, 31199.97, -22875.76, -2338.44, 7830.96, -58369.21, -10226.44, 39200.84, 11055.31, -8177.52, 0.00, 0.00, 0.00, 0.00, 0.00, 0.47, 0.89
132, 4366.88, 73836.30, 5859.20, 31199.97, -22875.76, -2338.44, 7830.96, -58369.21, -10232.99, 39176.57, 11025.74, -8149.13, 0.00, 0.00, 0.00, 0.00, 0.00, 0.00, 0.00
133, 4360.11, 73833.82, 5852.98, 31193.38, -22878.89, -2342.73, 7826.44, -58370.64, -10232.99, 39176.57, 11025.74, -8149.13, 0.00, 0.00, 0.00, 0.00, 0.00, 0.00, 0.00
134, 4360.11, 73833.82, 5852.98, 31193.38, -22878.89, -2342.73, 7826.44, -58370.64, -10223.35, 39200.98, 11051.53, -8185.75, 0.00, 0.00, 0.00, 0.00, 0.00, 0.00, 0.00
135, 4367.58, 73846.27, 5860.58, 31197.74, -22873.90, -2338.95, 7830.82, -58366.21, -10223.35, 39200.98, 11051.53, -8185.75, 0.00, 0.00, 0.00, 0.00, 0.00, 0.00, 0.00
136, 4367.58, 73846.27, 5860.58, 31197.74, -22873.90, -2338.95, 7830.82, -58366.21, -10230.28, 39174.25, 11032.11, -8148.04, 0.00, 0.00, 0.00, 0.00, 0.00, 0.00, 0.00
137, 4368.83, 73849.06, 5861.12, 31192.91, -22875.65, -2345.68, 7829.46, -58369.34, -10230.28, 39174.25, 11032.11, -8148.04, 0.00, 0.00, 0.00, 0.00, 0.00, 0.00, 0.00
138, 4368.83, 73849.06, 5861.12, 31192.91, -22875.65, -2345.68, 7829.46, -58369.34, -10218.10, 39201.79, 11060.69, -8178.19, 0.00, 0.00, 0.00, 0.00, 0.00, 0.00, 0.00
139, 4380.47, 73862.34, 5872.23, 31200.73, -22867.06, -2339.89, 7838.35, -58359.53, -10218.10, 39201.79, 11060.69, -8178.19, 0.00, 0.00, 0.00, 0.00, 0.00, 0.00, 0.00
140, 4380.47, 73862.34, 5872.23, 31200.73, -22867.06, -2339.89, 7838.35, -58359.53, -10223.46, 39180.04, 11044.91, -8149.67, 0.00, 0.00, 0.00, 0.00, 0.00, 0.47, 0.90
141, 4374.39, 73853.96, 5865.90, 31190.70, -22873.77, -2346.73, 7831.34, -58365.97, -10223.46, 39180.04, 11044.91, -8149.67, 0.00, 0.00, 0.00, 0.00, 0.00, 0.00, 0.00
142, 4374.39, 73853.96, 5865.90, 31190.70, -22873.77, -2346.73, 7831.34, -58365.97, -10216.54, 39206.68, 11063.91, -8174.39, 0.00, 0.00, 0.00, 0.00, 0.00, 0.00, 0.00
143, 4383.76, 73869.14, 5878.51, 31199.86, -22861.03, -2338.06, 7844.79, -58355.17, -10216.54, 39206.68, 11063.91, -8174.39, 0.00, 0.00, 0.00, 0.00, 0.00, 0.00, 0.00
144, 4383.76, 73869.14, 5878.51, 31199.86, -22861.03, -2338.06, 7844.79, -58355.17, -10216.96, 39188.42, 11053.34, -8141.09, 0.00, 0.00, 0.00, 0.00, 0.00, 0.00, 0.00
145, 4377.07, 73859.21, 5870.55, 31189.49, -22867.60, -2347.13, 7833.79, -58366.53, -10216.96, 39188.42, 11053.34, -8141.09, 0.00, 0.00, 0.00, 0.00, 0.00, 0.00, 0.00
146, 4377.07, 73859.21, 5870.55, 31189.49, -22867.60, -2347.13, 7833.79, -58366.53, -10218.93, 39200.91, 11062.39, -8180.13, 0.00, 0.00, 0.00, 0.00, 0.00, 0.00, 0.00
147, 4379.91, 73862.09, 5874.78, 31200.62, -22863.11, -2337.08, 7844.61, -58354.82, -10218.93, 39200.91, 11062.39, -8180.13, 0.00, 0.00, 0.00, 0.00, 0.00, 0.00, 0.00
148, 4379.91, 73862.09, 5874.78, 31200.62, -22863.11, -2337.08, 7844.61, -58354.82, -10218.01, 39189.38, 11043.17, -8145.24, 0.00, 0.00, 0.00, 0.00, 0.00, 0.00, 0.00
149, 4365.47, 73847.66, 5861.92, 31182.96, -22873.54, -2349.15, 7828.01, -58370.42, -10218.01, 39189.38, 11043.17, -8145.24, 0.00, 0.00, 0.00, 0.00, 0.00, 0.00, 0.00
150, 4365.47, 73847.66, 5861.92, 31182.96, -22873.54, -2349.15, 7828.01, -58370.42, -10215.04, 39196.78, 11052.54, -8170.66, 0.00, 0.00, 0.00, 0.00, 0.01, 0.47, 0.90
151, 4372.78, 73857.63, 5871.00, 31196.82, -22862.35, -2339.45, 7846.96, -58356.25, -10215.04, 39196.78, 11052.54, -8170.66, 0.00, 0.00, 0.00, 0.00, 0.00, 0.00, 0.00
152, 4372.78, 73857.63, 5871.00, 31196.82, -22862.35, -2339.45, 7846.96, -58356.25, -10224.11, 39185.31, 11036.89, -8156.29, 0.00, 0.00, 0.00, 0.00, 0.00, 0.00, 0.00
153, 4355.04, 73829.55, 5848.47, 31178.58, -22881.88, -2357.08, 7825.90, -58374.15, -10224.11, 39185.31, 11036.89, -8156.29, 0.00, 0.00, 0.00, 0.00, 0.00, 0.00, 0.00
154, 4355.04, 73829.55, 5848.47, 31178.58, -22881.88, -2357.08, 7825.90, -58374.15, -10227.96, 39187.75, 11029.07, -8178.75, 0.00, 0.00, 0.00, 0.00, 0.00, 0.00, 0.00
155, 4360.98, 73835.56, 5855.17, 31193.18, -22874.17, -2347.83, 7837.01, -58363.55, -10227.96, 39187.75, 11029.07, -8178.75, 0.00, 0.00, 0.00, 0.00, 0.00, 0.00, 0.00
156, 4360.98, 73835.56, 5855.17, 31193.18, -22874.17, -2347.83, 7837.01, -58363.55, -10232.96, 39180.08, 11025.56, -8171.42, 0.00, 0.00, 0.00, 0.00, 0.00, 0.00, 0.00
157, 4350.16, 73818.94, 5842.61, 31177.64, -22888.07, -2358.89, 7818.06, -58384.32, -10232.96, 39180.08, 11025.56, -8171.42, 0.00, 0.00, 0.00, 0.00, 0.00, 0.00, 0.00
158, 4350.16, 73818.94, 5842.61, 31177.64, -22888.07, -2358.89, 7818.06, -58384.32, -10229.90, 39177.76, 11025.53, -8173.59, 0.00, 0.00, 0.00, 0.00, 0.00, 0.00, 0.00
159, 4363.69, 73836.98, 5858.30, 31195.50, -22872.79, -2344.76, 7840.52, -58365.63, -10229.90, 39177.76, 11025.53, -8173.59, 0.00, 0.00, 0.00, 0.00, 0.00, 0.00, 0.00
160, 4363.69, 73836.98, 5858.30, 31195.50, -22872.79, -2344.76, 7840.52, -58365.63, -10220.04, 39190.86, 11035.37, -8166.50, 0.00, 0.00, 0.00, 0.00, 0.01, 0.47, 0.90
161, 4357.25, 73826.31, 5848.80, 31182.85, -22880.36, -2357.08, 7828.97, -58372.11, -10220.04, 39190.86, 11035.37, -8166.50, 0.00, 0.00, 0.00, 0.00, 0.00, 0.00, 0.00
162, 4357.25, 73826.31, 5848.80, 31182.85, -22880.36, -2357.08, 7828.97, -58372.11, -10215.40, 39186.43, 11029.56, -8160.62, 0.00, 0.00, 0.00, 0.00, 0.00, 0.00, 0.00
163, 4367.67, 73843.48, 5861.41, 31198.47, -22868.36, -2342.33, 7846.62, -58356.20, -10215.40, 39186.43, 11029.56, -8160.62, 0.00, 0.00, 0.00, 0.00, 0.00, 0.00, 0.00
164, 4367.67, 73843.48, 5861.41, 31198.47, -22868.36, -2342.33, 7846.62, -58356.20, -10210.99, 39202.39, 11039.30, -8165.67, 0.00, 0.00, 0.00, 0.00, 0.00, 0.00, 0.00
165, 4352.69, 73820.01, 5842.57, 31176.39, -22882.93, -2361.10, 7826.15, -58372.56, -10210.99, 39202.39, 11039.30, -8165.67, 0.00, 0.00, 0.00, 0.00, 0.00, 0.00, 0.00
166, 4352.69, 73820.01, 5842.57, 31176.39, -22882.93, -2361.10, 7826.15, -58372.56, -10211.13, 39187.68, 11026.90, -8147.14, 0.00, 0.00, 0.00, 0.00, 0.00, 0.00, 0.00
167, 4369.10, 73844.88, 5862.57, 31194.29, -22865.68, -2346.91, 7849.24, -58355.17, -10211.13, 39187.68, 11026.90, -8147.14, 0.00, 0.00, 0.00, 0.00, 0.00, 0.00, 0.00
168, 4369.10, 73844.88, 5862.57, 31194.29, -22865.68, -2346.91, 7849.24, -58355.17, -10205.85, 39206.14, 11053.74, -8172.11, 0.00, 0.00, 0.00, 0.00, 0.00, 0.00, 0.00
169, 4362.10, 73836.86, 5854.88, 31179.50, -22874.69, -2356.23, 7832.72, -58368.58, -10205.85, 39206.14, 11053.74, -8172.11, 0.00, 0.00, 0.00, 0.00, 0.00, 0.00, 0.00
170, 4362.10, 73836.86, 5854.88, 31179.50, -22874.69, -2356.23, 7832.72, -58368.58, -10209.90, 39183.79, 11034.03, -8142.05, 0.00, 0.00, 0.00, 0.00, 0.01, 0.47, 0.90
171, 4375.29, 73856.82, 5872.90, 31199.95, -22856.54, -2341.97, 7853.33, -58350.10, -10209.90, 39183.79, 11034.03, -8142.05, 0.00, 0.00, 0.00, 0.00, 0.00, 0.00, 0.00
172, 4375.29, 73856.82, 5872.90, 31199.95, -22856.54, -2341.97, 7853.33, -58350.10, -10195.95, 39216.11, 11063.67, -8166.14, 0.00, 0.00, 0.00, 0.00, 0.00, 0.00, 0.00
173, 4370.53, 73847.48, 5865.12, 31184.86, -22862.73, -2353.21, 7843.61, -58360.11, -10195.95, 39216.11, 11063.67, -8166.14, 0.00, 0.00, 0.00, 0.00, 0.00, 0.00, 0.00
174, 4370.53, 73847.48, 5865.12, 31184.86, -22862.73, -2353.21, 7843.61, -58360.11, -10203.82, 39185.89, 11033.71, -8135.86, 0.00, 0.00, 0.00, 0.00, 0.00, 0.00, 0.00
175, 4374.01, 73855.52, 5870.55, 31192.98, -22860.49, -2349.28, 7855.12, -58352.58, -10203.82, 39185.89, 11033.71, -8135.86, 0.00, 0.00, 0.00, 0.00, 0.00, 0.00, 0.00
176, 4374.01, 73855.52, 5870.55, 31192.98, -22860.49, -2349.28, 7855.12, -58352.58, -10199.41, 39215.96, 11062.30, -8179.64, 0.00, 0.00, 0.00, 0.00, 0.00, 0.00, 0.00
177, 4367.40, 73843.27, 5863.51, 31184.46, -22863.38, -2354.09, 7845.10, -58361.54, -10199.41, 39215.96, 11062.30, -8179.64, 0.00, 0.00, 0.00, 0.00, 0.00, 0.00, 0.00
178, 4367.40, 73843.27, 5863.51, 31184.46, -22863.38, -2354.09, 7845.10, -58361.54, -10207.75, 39181.13, 11029.36, -8138.90, 0.00, 0.00, 0.00, 0.00, 0.00, 0.00, 0.00
179, 4368.78, 73845.65, 5864.61, 31188.66, -22862.44, -2352.86, 7849.22, -58359.73, -10207.75, 39181.13, 11029.36, -8138.90, 0.00, 0.00, 0.00, 0.00, 0.01, 0.46, 0.90
180, 4368.78, 73845.65, 5864.61, 31188.66, -22862.44, -2352.86, 7849.22, -58359.73, -10196.49, 39214.75, 11060.36, -8176.47, 0.00, 0.00, 0.00, 0.00, 0.00, 0.00, 0.00
181, 4374.28, 73851.79, 5867.35, 31187.37, -22859.17, -2354.02, 7849.15, -58356.65, -10196.49, 39214.75, 11060.36, -8176.47, 0.00, 0.00, 0.00, 0.00, 0.00, 0.00, 0.00
182, 4374.28, 73851.79, 5867.35, 31187.37, -22859.17, -2354.02, 7849.15, -58356.65, -10206.14, 39179.54, 11032.33, -8136.50, 0.00, 0.00, 0.00, 0.00, 0.00, 0.00, 0.00
183, 4371.87, 73850.09, 5863.20, 31185.38, -22867.13, -2355.76, 7845.82, -58364.49, -10206.14, 39179.54, 11032.33, -8136.50, 0.00, 0.00, 0.00, 0.00, 0.00, 0.00, 0.00
184, 4371.87, 73850.09, 5863.20, 31185.38, -22867.13, -2355.76, 7845.82, -58364.49, -10198.59, 39212.18, 11056.11, -8186.06, 0.00, 0.00, 0.00, 0.00, 0.00, 0.00, 0.00
185, 4376.92, 73856.53, 5869.68, 31189.38, -22858.90, -2349.59, 7854.36, -58353.25, -10198.59, 39212.18, 11056.11, -8186.06, 0.00, 0.00, 0.00, 0.00, 0.00, 0.00, 0.00
186, 4376.92, 73856.53, 5869.68, 31189.38, -22858.90, -2349.59, 7854.36, -58353.25, -10199.82, 39182.16, 11032.53, -8142.00, 0.00, 0.00, 0.00, 0.00, 0.00, 0.00, 0.00
187, 4368.54, 73847.26, 5861.23, 31180.62, -22864.36, -2356.48, 7845.71, -58362.39, -10199.82, 39182.16, 11032.53, -8142.00, 0.00, 0.00, 0.00, 0.00, 0.00, 0.00, 0.00
188, 4368.54, 73847.26, 5861.23, 31180.62, -22864.36, -2356.48, 7845.71, -58362.39, -10192.42, 39213.81, 11056.27, -8180.20, 0.00, 0.00, 0.00, 0.00, 0.00, 0.00, 0.00
189, 4373.16, 73855.55, 5868.45, 31187.50, -22857.50, -2351.38, 7855.65, -58352.69, -10192.42, 39213.81, 11056.27, -8180.20, 0.00, 0.00, 0.00, 0.00, 0.01, 0.47, 0.89
190, 4373.16, 73855.55, 5868.45, 31187.50, -22857.50, -2351.38, 7855.65, -58352.69, -10202.50, 39186.21, 11037.56, -8135.83, 0.00, 0.00, 0.00, 0.00, 0.00, 0.00, 0.00
191, 4365.14, 73843.66, 5862.71, 31179.05, -22865.25, -2358.85, 7847.07, -58363.20, -10202.50, 39186.21, 11037.56, -8135.83, 0.00, 0.00, 0.00, 0.00, 0.00, 0.00, 0.00
192, 4365.14, 73843.66, 5862.71, 31179.05, -22865.25, -2358.85, 7847.07, -58363.20, -10196.73, 39213.92, 11057.90, -8180.16, 0.00, 0.00, 0.00, 0.00, 0.00, 0.00, 0.00
193, 4375.40, 73853.55, 5875.20, 31194.50, -22852.51, -2348.01, 7862.90, -58349.94, -10196.73, 39213.92, 11057.90, -8180.16, 0.00, 0.00, 0.00, 0.00, 0.00, 0.00, 0.00
194, 4375.40, 73853.55, 5875.20, 31194.50, -22852.51, -2348.01, 7862.90, -58349.94, -10203.68, 39186.25, 11032.02, -8140.64, 0.00, 0.00, 0.00, 0.00, 0.00, 0.00, 0.00
195, 4358.25, 73832.26, 5857.81, 31174.58, -22870.51, -2363.36, 7842.18, -58369.03, -10203.68, 39186.25, 11032.02, -8140.64, 0.00, 0.00, 0.00, 0.00, 0.00, 0.00, 0.00
196, 4358.25, 73832.26, 5857.81, 31174.58, -22870.51, -2363.36, 7842.18, -58369.03, -10194.27, 39208.24, 11050.37, -8169.09, 0.00, 0.00, 0.00, 0.00, 0.00, 0.00, 0.00
197, 4369.81, 73847.70, 5870.71, 31194.38, -22853.76, -2345.06, 7863.54, -58347.77, -10194.27, 39208.24, 11050.37, -8169.09, 0.00, 0.00, 0.00, 0.00, 0.00, 0.00, 0.00
198, 4369.81, 73847.70, 5870.71, 31194.38, -22853.76, -2345.06, 7863.54, -58347.77, -10197.45, 39195.64, 11033.71, -8144.57, 0.00, 0.00, 0.00, 0.00, 0.00, 0.00, 0.00
199, 4351.97, 73824.08, 5849.21, 31168.88, -22874.39, -2367.00, 7838.80, -58368.65, -10197.45, 39195.64, 11033.71, -8144.57, 0.00, 0.00, 0.00, 0.00, 0.01, 0.47, 0.91
200, 4351.97, 73824.08, 5849.21, 31168.88, -22874.39, -2367.00, 7838.80, -58368.65, -10193.80, 39203.68, 11039.71, -8168.87, 0.00, 0.00, 0.00, 0.00, 0.00, 0.00, 0.00
201, 4366.79, 73845.16, 5867.35, 31188.55, -22854.86, -2350.06, 7861.00, -58348.18, -10193.80, 39203.68, 11039.71, -8168.87, 0.00, 0.00, 0.00, 0.00, 0.00, 0.00, 0.00
202, 4366.79, 73845.16, 5867.35, 31188.55, -22854.86, -2350.06, 7861.00, -58348.18, -10195.93, 39200.55, 11036.67, -8142.90, 0.00, 0.00, 0.00, 0.00, 0.00, 0.00, 0.00
203, 4353.14, 73828.05, 5850.35, 31166.36, -22870.33, -2367.56, 7839.76, -58365.88, -10195.93, 39200.55, 11036.67, -8142.90, 0.00, 0.00, 0.00, 0.00, 0.00, 0.00, 0.00
204, 4353.14, 73828.05, 5850.35, 31166.36, -22870.33, -2367.56, 7839.76, -58365.88, -10191.48, 39206.14, 11040.17, -8155.84, 0.00, 0.00, 0.00, 0.00, 0.00, 0.00, 0.00
205, 4372.05, 73852.64, 5869.59, 31184.06, -22856.87, -2352.34, 7858.23, -58348.02, -10191.48, 39206.14, 11040.17, -8155.84, 0.00, 0.00, 0.00, 0.00, 0.00, 0.00, 0.00
206, 4372.05, 73852.64, 5869.59, 31184.06, -22856.87, -2352.34, 7858.23, -58348.02, -10198.52, 39198.25, 11041.74, -8161.94, 0.00, 0.00, 0.00, 0.00, 0.00, 0.00, 0.00
207, 4358.57, 73830.94, 5851.69, 31162.44, -22874.98, -2371.32, 7830.62, -58374.48, -10198.52, 39198.25, 11041.74, -8161.94, 0.00, 0.00, 0.00, 0.00, 0.00, 0.00, 0.00
208, 4358.57, 73830.94, 5851.69, 31162.44, -22874.98, -2371.32, 7830.62, -58374.48, -10194.21, 39192.93, 11041.11, -8167.89, 0.00, 0.00, 0.00, 0.00, 0.00, 0.00, 0.00
209, 4378.06, 73861.16, 5876.45, 31186.58, -22852.65, -2352.43, 7858.00, -58347.93, -10194.21, 39192.93, 11041.11, -8167.89, 0.00, 0.00, 0.00, 0.00, 0.00, 0.46, 0.90
210, 4378.06, 73861.16, 5876.45, 31186.58, -22852.65, -2352.43, 7858.00, -58347.93, -10192.37, 39202.86, 11055.98, -8159.46, 0.00, 0.00, 0.00, 0.00, 0.00, 0.00, 0.00
211, 4366.66, 73835.72, 5862.26, 31169.19, -22866.84, -2368.97, 7838.20, -58366.37, -10192.37, 39202.86, 11055.98, -8159.46, 0.00, 0.00, 0.00, 0.00, 0.00, 0.00, 0.00
212, 4366.66, 73835.72, 5862.26, 31169.19, -22866.84, -2368.97, 7838.20, -58366.37, -10190.76, 39195.48, 11043.59, -8143.88, 0.00, 0.00, 0.00, 0.00, 0.00, 0.00, 0.00
213, 4385.50, 73861.05, 5885.33, 31198.47, -22848.98, -2344.72, 7862.02, -58345.72, -10190.76, 39195.48, 11043.59, -8143.88, 0.00, 0.00, 0.00, 0.00, 0.00, 0.00, 0.00
214, 4385.50, 73861.05, 5885.33, 31198.47, -22848.98, -2344.72, 7862.02, -58345.72, -10187.79, 39208.76, 11062.17, -8168.20, 0.00, 0.00, 0.00, 0.00, 0.00, 0.00, 0.00
215, 4373.36, 73843.01, 5869.52, 31180.82, -22863.38, -2360.88, 7838.42, -58366.77, -10187.79, 39208.76, 11062.17, -8168.20, 0.00, 0.00, 0.00, 0.00, 0.00, 0.00, 0.00
216, 4373.36, 73843.01, 5869.52, 31180.82, -22863.38, -2360.88, 7838.42, -58366.77, -10194.83, 39184.24, 11039.82, -8153.54, 0.00, 0.00, 0.00, 0.00, 0.00, 0.00, 0.00
217, 4379.47, 73855.73, 5879.47, 31193.47, -22852.60, -2353.55, 7855.99, -58350.30, -10194.83, 39184.24, 11039.82, -8153.54, 0.00, 0.00, 0.00, 0.00, 0.00, 0.00, 0.00
218, 4379.47, 73855.73, 5879.47, 31193.47, -22852.60, -2353.55, 7855.99, -58350.30, -10186.36, 39212.18, 11055.04, -8180.65, 0.00, 0.00, 0.00, 0.00, 0.00, 0.46, 0.90
219, 4362.41, 73829.30, 5857.50, 31173.80, -22870.57, -2364.64, 7835.31, -58366.88, -10186.36, 39212.18, 11055.04, -8180.65, 0.00, 0.00, 0.00, 0.00, 0.00, 0.00, 0.00
220, 4362.41, 73829.30, 5857.50, 31173.80, -22870.57, -2364.64, 7835.31, -58366.88, -10193.98, 39186.83, 11023.68, -8136.44, 0.00, 0.00, 0.00, 0.00, 0.00, 0.00, 0.00
221, 4366.61, 73838.00, 5864.09, 31187.66, -22862.68, -2353.12, 7851.70, -58350.59, -10193.98, 39186.83, 11023.68, -8136.44, 0.00, 0.00, 0.00, 0.00, 0.00, 0.00, 0.00
222, 4366.61, 73838.00, 5864.09, 31187.66, -22862.68, -2353.12, 7851.70, -58350.59, -10184.73, 39217.99, 11048.67, -8176.80, 0.00, 0.00, 0.00, 0.00, 0.00, 0.00, 0.00
223, 4358.01, 73825.71, 5851.06, 31166.91, -22875.40, -2369.87, 7829.93, -58367.46, -10184.73, 39217.99, 11048.67, -8176.80, 0.00, 0.00, 0.00, 0.00, 0.00, 0.00, 0.00
224, 4358.01, 73825.71, 5851.06, 31166.91, -22875.40, -2369.87, 7829.93, -58367.46, -10191.93, 39174.65, 11020.88, -8148.48, 0.00, 0.00, 0.00, 0.00, 0.00, 0.00, 0.00
225, 4360.69, 73834.98, 5858.71, 31175.74, -22868.96, -2361.73, 7840.84, -58356.58, -10191.93, 39174.65, 11020.88, -8148.48, 0.00, 0.00, 0.00, 0.00, 0.00, 0.00, 0.00
226, 4360.69, 73834.98, 5858.71, 31175.74, -22868.96, -2361.73, 7840.84, -58356.58, -10182.00, 39218.26, 11054.81, -8180.96, 0.00, 0.00, 0.00, 0.00, 0.00, 0.00, 0.00
227, 4364.16, 73839.34, 5860.54, 31169.37, -22872.27, -2364.50, 7835.54, -58361.97, -10182.00, 39218.26, 11054.81, -8180.96, 0.00, 0.00, 0.00, 0.00, 0.00, 0.00, 0.00
228, 4364.16, 73839.34, 5860.54, 31169.37, -22872.27, -2364.50, 7835.54, -58361.97, -10187.48, 39183.61, 11041.67, -8135.63, 0.00, 0.00, 0.00, 0.00, 0.00, 0.46, 0.90
229, 4374.30, 73852.35, 5877.61, 31188.01, -22859.60, -2355.56, 7847.67, -58351.30, -10187.48, 39183.61, 11041.67, -8135.63, 0.00, 0.00, 0.00, 0.00, 0.00, 0.00, 0.00
230, 4374.30, 73852.35, 5877.61, 31188.01, -22859.60, -2355.56, 7847.67, -58351.30, -10173.66, 39221.81, 11075.20, -8179.37, 0.00, 0.00, 0.00, 0.00, 0.00, 0.00, 0.00
231, 4367.35, 73843.48, 5863.60, 31170.74, -22872.88, -2366.07, 7836.32, -58358.59, -10173.66, 39221.81, 11075.20, -8179.37, 0.00, 0.00, 0.00, 0.00, 0.00, 0.00, 0.00
232, 4367.35, 73843.48, 5863.60, 31170.74, -22872.88, -2366.07, 7836.32, -58358.59, -10186.72, 39183.77, 11029.87, -8134.69, 0.00, 0.00, 0.00, 0.00, 0.00, 0.00, 0.00
233, 4363.10, 73837.89, 5860.98, 31164.50, -22878.53, -2366.27, 7834.71, -58358.23, -10186.72, 39183.77, 11029.87, -8134.69, 0.00, 0.00, 0.00, 0.00, 0.00, 0.00, 0.00
234, 4363.10, 73837.89, 5860.98, 31164.50, -22878.53, -2366.27, 7834.71, -58358.23, -10175.23, 39222.37, 11059.78, -8173.56, 0.00, 0.00, 0.00, 0.00, 0.00, 0.00, 0.00
235, 4367.64, 73843.97, 5869.23, 31175.68, -22870.28, -2356.77, 7842.40, -58349.70, -10175.23, 39222.37, 11059.78, -8173.56, 0.00, 0.00, 0.00, 0.00, 0.00, 0.00, 0.00
236, 4367.64, 73843.97, 5869.23, 31175.68, -22870.28, -2356.77, 7842.40, -58349.70, -10180.26, 39191.37, 11038.48, -8134.20, 0.00, 0.00, 0.00, 0.00, 0.00, 0.00, 0.00
237, 4365.43, 73838.07, 5864.94, 31171.50, -22873.46, -2362.20, 7834.31, -58354.32, -10180.26, 39191.37, 11038.48, -8134.20, 0.00, 0.00, 0.00, 0.00, 0.00, 0.00, 0.00
238, 4365.43, 73838.07, 5864.94, 31171.50, -22873.46, -2362.20, 7834.31, -58354.32, -10170.18, 39221.63, 11068.96, -8172.78, 0.00, 0.00, 0.00, 0.00, 0.00, 0.46, 0.90
239, 4371.87, 73848.26, 5872.65, 31180.50, -22870.04, -2353.97, 7845.31, -58348.89, -10170.18, 39221.63, 11068.96, -8172.78, 0.00, 0.00, 0.00, 0.00, 0.00, 0.00, 0.00
240, 4371.87, 73848.26, 5872.65, 31180.50, -22870.04, -2353.97, 7845.31, -58348.89, -10178.09, 39192.87, 11041.65, -8131.74, 0.00, 0.00, 0.00, 0.00, 0.00, 0.00, 0.00
241, 4356.91, 73832.37, 5856.81, 31160.83, -22885.84, -2371.90, 7828.50, -58361.50, -10178.09, 39192.87, 11041.65, -8131.74, 0.00, 0.00, 0.00, 0.00, 0.00, 0.00, 0.00
242, 4356.91, 73832.37, 5856.81, 31160.83, -22885.84, -2371.90, 7828.50, -58361.50, -10171.27, 39215.93, 11061.63, -8172.58, 0.00, 0.00, 0.00, 0.00, 0.00, 0.00, 0.00
243, 4370.93, 73844.62, 5869.08, 31176.55, -22875.09, -2358.27, 7842.49, -58344.53, -10171.27, 39215.93, 11061.63, -8172.58, 0.00, 0.00, 0.00, 0.00, 0.00, 0.00, 0.00
244, 4370.93, 73844.62, 5869.08, 31176.55, -22875.09, -2358.27, 7842.49, -58344.53, -10178.45, 39195.10, 11044.00, -8138.81, 0.00, 0.00, 0.00, 0.00, 0.00, 0.00, 0.00
245, 4359.60, 73827.98, 5854.97, 31156.61, -22892.83, -2373.33, 7822.69, -58361.61, -10178.45, 39195.10, 11044.00, -8138.81, 0.00, 0.00, 0.00, 0.00, 0.00, 0.00, 0.00
246, 4359.60, 73827.98, 5854.97, 31156.61, -22892.83, -2373.33, 7822.69, -58361.61, -10170.71, 39214.55, 11060.34, -8169.16, 0.00, 0.00, 0.00, 0.00, 0.00, 0.00, 0.00
247, 4374.91, 73851.95, 5872.65, 31177.17, -22880.41, -2356.21, 7843.83, -58343.62, -10170.71, 39214.55, 11060.34, -8169.16, 0.00, 0.00, 0.00, 0.00, 0.00, 0.00, 0.00
248, 4374.91, 73851.95, 5872.65, 31177.17, -22880.41, -2356.21, 7843.83, -58343.62, -10177.35, 39197.96, 11050.81, -8139.86, 0.00, 0.00, 0.00, 0.00, 0.00, 0.46, 0.91
249, 4359.01, 73832.21, 5855.24, 31153.68, -22900.59, -2378.31, 7817.84, -58368.07, -10177.35, 39197.96, 11050.81, -8139.86, 0.00, 0.00, 0.00, 0.00, 0.00, 0.00, 0.00
250, 4359.01, 73832.21, 5855.24, 31153.68, -22900.59, -2378.31, 7817.84, -58368.07, -10177.31, 39205.61, 11054.52, -8153.51, 0.00, 0.00, 0.00, 0.00, 0.00, 0.00, 0.00
251, 4375.04, 73852.17, 5873.08, 31178.60, -22885.82, -2359.36, 7840.77, -58345.32, -10177.31, 39205.61, 11054.52, -8153.51, 0.00, 0.00, 0.00, 0.00, 0.00, 0.00, 0.00
252, 4375.04, 73852.17, 5873.08, 31178.60, -22885.82, -2359.36, 7840.77, -58345.32, -10176.48, 39201.65, 11054.52, -8145.18, 0.00, 0.00, 0.00, 0.00, 0.00, 0.00, 0.00
253, 4356.87, 73829.11, 5853.05, 31151.92, -22906.94, -2377.09, 7815.58, -58365.03, -10176.48, 39201.65, 11054.52, -8145.18, 0.00, 0.00, 0.00, 0.00, 0.00, 0.00, 0.00
254, 4356.87, 73829.11, 5853.05, 31151.92, -22906.94, -2377.09, 7815.58, -58365.03, -10171.07, 39208.71, 11048.96, -8148.80, 0.00, 0.00, 0.00, 0.00, 0.00, 0.00, 0.00
255, 4380.07, 73856.64, 5878.02, 31184.42, -22888.14, -2354.85, 7843.27, -58339.82, -10171.07, 39208.71, 11048.96, -8148.80, 0.00, 0.00, 0.00, 0.00, 0.00, 0.00, 0.00
0, 4380.07, 73856.64, 5878.02, 31184.42, -22888.14, -2354.85, 7843.27, -58339.82, -10172.68, 39209.94, 11055.24, -8143.30, 0.00, 0.00, 0.00, 0.00, 0.00, 0.00, 0.00
1, 4365.18, 73835.97, 5860.69, 31162.29, -22905.78, -2371.30, 7818.57, -58362.68, -10172.68, 39209.94, 11055.24, -8143.30, 0.00, 0.00, 0.00, 0.00, 0.00, 0.47, 0.91
2, 4365.18, 73835.97, 5860.69, 31162.29, -22905.78, -2371.30, 7818.57, -58362.68, -10172.61, 39202.63, 11051.37, -8139.86, 0.00, 0.00, 0.00, 0.00, 0.00, 0.00, 0.00
3, 4380.99, 73859.95, 5881.08, 31184.33, -22888.77, -2355.40, 7843.50, -58337.78, -10172.61, 39202.63, 11051.37, -8139.86, 0.00, 0.00, 0.00, 0.00, 0.00, 0.00, 0.00
4, 4380.99, 73859.95, 5881.08, 31184.33, -22888.77, -2355.40, 7843.50, -58337.78, -10171.83, 39209.12, 11065.19, -8159.26, 0.00, 0.00, 0.00, 0.00, 0.00, 0.00, 0.00
5, 4360.67, 73835.25, 5857.79, 31157.57, -22913.96, -2376.62, 7814.82, -58364.94, -10171.83, 39209.12, 11065.19, -8159.26, 0.00, 0.00, 0.00, 0.00, 0.00, 0.00, 0.00
6, 4360.67, 73835.25, 5857.79, 31157.57, -22913.96, -2376.62, 7814.82, -58364.94, -10175.74, 39189.87, 11041.16, -8147.50, 0.00, 0.00, 0.00, 0.00, 0.00, 0.00, 0.00
7, 4371.84, 73854.32, 5872.81, 31175.45, -22897.73, -2362.36, 7837.24, -58343.30, -10175.74, 39189.87, 11041.16, -8147.50, 0.00, 0.00, 0.00, 0.00, 0.00, 0.00, 0.00
8, 4371.84, 73854.32, 5872.81, 31175.45, -22897.73, -2362.36, 7837.24, -58343.30, -10169.71, 39212.89, 11059.04, -8155.86, 0.00, 0.00, 0.00, 0.00, 0.00, 0.00, 0.00
9, 4356.94, 73830.80, 5853.52, 31155.07, -22920.17, -2378.92, 7812.67, -58363.89, -10169.71, 39212.89, 11059.04, -8155.86, 0.00, 0.00, 0.00, 0.00, 0.00, 0.00, 0.00
10, 4356.94, 73830.80, 5853.52, 31155.07, -22920.17, -2378.92, 7812.67, -58363.89, -10176.55, 39189.18, 11039.12, -8132.26, 0.00, 0.00, 0.00, 0.00, 0.00, 0.00, 0.00
11, 4366.59, 73850.05, 5868.52, 31170.65, -22906.67, -2365.49, 7832.59, -58346.84, -10176.55, 39189.18, 11039.12, -8132.26, 0.00, 0.00, 0.00, 0.00, 0.00, 0.47, 0.90
12, 4366.59, 73850.05, 5868.52, 31170.65, -22906.67, -2365.49, 7832.59, -58346.84, -10167.54, 39216.98, 11061.07, -8166.72, 0.00, 0.00, 0.00, 0.00, 0.00, 0.00, 0.00
13, 4353.49, 73831.77, 5850.46, 31154.64, -22926.68, -2377.22, 7810.64, -58366.75, -10167.54, 39216.98, 11061.07, -8166.72, 0.00, 0.00, 0.00, 0.00, 0.00, 0.00, 0.00
14, 4353.49, 73831.77, 5850.46, 31154.64, -22926.68, -2377.22, 7810.64, -58366.75, -10177.06, 39182.67, 11029.24, -8137.71, 0.00, 0.00, 0.00, 0.00, 0.00, 0.00, 0.00
15, 4360.53, 73842.27, 5860.25, 31166.31, -22922.21, -2370.40, 7822.06, -58354.79, -10177.06, 39182.67, 11029.24, -8137.71, 0.00, 0.00, 0.00, 0.00, 0.00, 0.00, 0.00
16, 4360.53, 73842.27, 5860.25, 31166.31, -22922.21, -2370.40, 7822.06, -58354.79, -10171.41, 39211.04, 11055.49, -8177.56, 0.00, 0.00, 0.00, 0.00, 0.00, 0.00, 0.00
17, 4354.52, 73834.91, 5853.36, 31156.90, -22933.31, -2377.22, 7811.13, -58365.63, -10171.41, 39211.04, 11055.49, -8177.56, 0.00, 0.00, 0.00, 0.00, 0.00, 0.00, 0.00
18, 4354.52, 73834.91, 5853.36, 31156.90, -22933.31, -2377.22, 7811.13, -58365.63, -10182.61, 39181.76, 11024.51, -8123.58, 0.00, 0.00, 0.00, 0.00, 0.00, 0.00, 0.00
19, 4355.08, 73835.45, 5853.47, 31158.55, -22933.29, -2374.90, 7815.33, -58358.91, -10182.61, 39181.76, 11024.51, -8123.58, 0.00, 0.00, 0.00, 0.00, 0.00, 0.00, 0.00
20, 4355.08, 73835.45, 5853.47, 31158.55, -22933.29, -2374.90, 7815.33, -58358.91, -10171.18, 39217.72, 11054.99, -8170.95, 0.00, 0.00, 0.00, 0.00, 0.00, 0.00, 0.00
21, 4358.77, 73837.02, 5856.43, 31162.42, -22933.67, -2374.00, 7815.24, -58359.11, -10171.18, 39217.72, 11054.99, -8170.95, 0.00, 0.00, 0.00, 0.00, 0.00, 0.47, 0.91
22, 4358.77, 73837.02, 5856.43, 31162.42, -22933.67, -2374.00, 7815.24, -58359.11, -10177.17, 39180.21, 11027.39, -8131.01, 0.00, 0.00, 0.00, 0.00, 0.00, 0.00, 0.00
23, 4355.77, 73835.32, 5856.94, 31160.05, -22941.20, -2376.50, 7811.85, -58363.60, -10177.17, 39180.21, 11027.39, -8131.01, 0.00, 0.00, 0.00, 0.00, 0.00, 0.00, 0.00
24, 4355.77, 73835.32, 5856.94, 31160.05, -22941.20, -2376.50, 7811.85, -58363.60, -10173.26, 39210.50, 11055.19, -8178.46, 0.00, 0.00, 0.00, 0.00, 0.00, 0.00, 0.00
25, 4358.50, 73834.34, 5857.88, 31162.82, -22939.55, -2372.41, 7815.78, -58359.51, -10173.26, 39210.50, 11055.19, -8178.46, 0.00, 0.00, 0.00, 0.00, 0.00, 0.00, 0.00
26, 4358.50, 73834.34, 5857.88, 31162.82, -22939.55, -2372.41, 7815.78, -58359.51, -10178.16, 39177.82, 11026.32, -8123.61, 0.00, 0.00, 0.00, 0.00, 0.00, 0.00, 0.00
27, 4354.32, 73831.63, 5855.93, 31160.14, -22945.18, -2376.15, 7809.92, -58363.87, -10178.16, 39177.82, 11026.32, -8123.61, 0.00, 0.00, 0.00, 0.00, 0.00, 0.00, 0.00
28, 4354.32, 73831.63, 5855.93, 31160.14, -22945.18, -2376.15, 7809.92, -58363.87, -10164.50, 39214.68, 11055.80, -8175.84, 0.00, 0.00, 0.00, 0.00, 0.00, 0.00, 0.00
29, 4359.98, 73845.22, 5866.68, 31169.28, -22932.49, -2366.87, 7825.66, -58348.42, -10164.50, 39214.68, 11055.80, -8175.84, 0.00, 0.00, 0.00, 0.00, 0.00, 0.00, 0.00
30, 4359.98, 73845.22, 5866.68, 31169.28, -22932.49, -2366.87, 7825.66, -58348.42, -10170.85, 39185.82, 11030.70, -8127.43, 0.00, 0.00, 0.00, 0.00, 0.00, 0.00, 0.00
31, 4343.28, 73825.15, 5848.85, 31152.63, -22952.89, -2382.29, 7806.01, -58364.61, -10170.85, 39185.82, 11030.70, -8127.43, 0.00, 0.00, 0.00, 0.00, 0.00, 0.46, 0.90
32, 4343.28, 73825.15, 5848.85, 31152.63, -22952.89, -2382.29, 7806.01, -58364.61, -10162.47, 39212.25, 11051.17, -8173.05, 0.00, 0.00, 0.00, 0.00, 0.00, 0.00, 0.00
33, 4355.33, 73841.58, 5862.68, 31168.12, -22939.33, -2366.67, 7821.52, -58345.34, -10162.47, 39212.25, 11051.17, -8173.05, 0.00, 0.00, 0.00, 0.00, 0.00, 0.00, 0.00
34, 4355.33, 73841.58, 5862.68, 31168.12, -22939.33, -2366.67, 7821.52, -58345.34, -10165.75, 39190.21, 11033.71, -8127.09, 0.00, 0.00, 0.00, 0.00, 0.00, 0.00, 0.00
35, 4345.54, 73832.05, 5848.27, 31148.54, -22958.41, -2386.72, 7802.84, -58361.32, -10165.75, 39190.21, 11033.71, -8127.09, 0.00, 0.00, 0.00, 0.00, 0.00, 0.00, 0.00
36, 4345.54, 73832.05, 5848.27, 31148.54, -22958.41, -2386.72, 7802.84, -58361.32, -10163.32, 39213.18, 11046.88, -8165.07, 0.00, 0.00, 0.00, 0.00, 0.00, 0.00, 0.00
37, 4355.68, 73839.84, 5860.72, 31165.37, -22946.77, -2371.52, 7819.98, -58345.05, -10163.32, 39213.18, 11046.88, -8165.07, 0.00, 0.00, 0.00, 0.00, 0.00, 0.00, 0.00
38, 4355.68, 73839.84, 5860.72, 31165.37, -22946.77, -2371.52, 7819.98, -58345.05, -10168.90, 39189.27, 11030.50, -8132.75, 0.00, 0.00, 0.00, 0.00, 0.00, 0.00, 0.00
39, 4343.70, 73820.88, 5842.39, 31147.29, -22967.51, -2387.14, 7795.93, -58367.46, -10168.90, 39189.27, 11030.50, -8132.75, 0.00, 0.00, 0.00, 0.00, 0.00, 0.00, 0.00
40, 4343.70, 73820.88, 5842.39, 31147.29, -22967.51, -2387.14, 7795.93, -58367.46, -10163.49, 39208.69, 11044.60, -8159.62, 0.00, 0.00, 0.00, 0.00, 0.00, 0.46, 0.90
41, 4359.73, 73842.85, 5862.71, 31170.76, -22952.42, -2367.63, 7818.01, -58343.01, -10163.49, 39208.69, 11044.60, -8159.62, 0.00, 0.00, 0.00, 0.00, 0.00, 0.00, 0.00
42, 4359.73, 73842.85, 5862.71, 31170.76, -22952.42, -2367.63, 7818.01, -58343.01, -10171.09, 39193.27, 11031.21, -8141.96, 0.00, 0.00, 0.00, 0.00, 0.00, 0.00, 0.00
43, 4343.26, 73817.80, 5842.30, 31146.37, -22974.87, -2389.92, 7789.94, -58371.15, -10171.09, 39193.27, 11031.21, -8141.96, 0.00, 0.00, 0.00, 0.00, 0.00, 0.00, 0.00
44, 4343.26, 73817.80, 5842.30, 31146.37, -22974.87, -2389.92, 7789.94, -58371.15, -10170.83, 39196.42, 11034.52, -8155.93, 0.00, 0.00, 0.00, 0.00, 0.00, 0.00, 0.00
45, 4357.16, 73833.48, 5858.53, 31167.03, -22962.08, -2371.90, 7812.27, -58345.88, -10170.83, 39196.42, 11034.52, -8155.93, 0.00, 0.00, 0.00, 0.00, 0.00, 0.00, 0.00
46, 4357.16, 73833.48, 5858.53, 31167.03, -22962.08, -2371.90, 7812.27, -58345.88, -10168.39, 39198.57, 11037.40, -8143.95, 0.00, 0.00, 0.00, 0.00, 0.00, 0.00, 0.00
47, 4342.25, 73815.16, 5841.96, 31147.85, -22980.79, -2387.77, 7791.01, -58372.38, -10168.39, 39198.57, 11037.40, -8143.95, 0.00, 0.00, 0.00, 0.00, 0.00, 0.00, 0.00
48, 4342.25, 73815.16, 5841.96, 31147.85, -22980.79, -2387.77, 7791.01, -58372.38, -10168.30, 39193.29, 11031.95, -8152.04, 0.00, 0.00, 0.00, 0.00, 0.00, 0.00, 0.00
49, 4358.75, 73841.84, 5862.55, 31167.52, -22965.05, -2370.67, 7812.81, -58346.28, -10168.30, 39193.29, 11031.95, -8152.04, 0.00, 0.00, 0.00, 0.00, 0.00, 0.00, 0.00
50, 4358.75, 73841.84, 5862.55, 31167.52, -22965.05, -2370.67, 7812.81, -58346.28, -10164.99, 39201.29, 11041.29, -8161.54, 0.00, 0.00, 0.00, 0.00, 0.01, 0.46, 0.90
51, 4344.78, 73822.38, 5846.28, 31149.52, -22981.17, -2385.29, 7790.63, -58366.86, -10164.99, 39201.29, 11041.29, -8161.54, 0.00, 0.00, 0.00, 0.00, 0.00, 0.00, 0.00
52, 4344.78, 73822.38, 5846.28, 31149.52, -22981.17, -2385.29, 7790.63, -58366.86, -10162.31, 39192.89, 11033.80, -8137.35, 0.00, 0.00, 0.00, 0.00, 0.00, 0.00, 0.00
53, 4351.93, 73838.60, 5859.20, 31164.72, -22970.39, -2373.11, 7811.13, -58344.82, -10162.31, 39192.89, 11033.80, -8137.35, 0.00, 0.00, 0.00, 0.00, 0.00, 0.00, 0.00
54, 4351.93, 73838.60, 5859.20, 31164.72, -22970.39, -2373.11, 7811.13, -58344.82, -10158.89, 39210.75, 11050.79, -8152.60, 0.00, 0.00, 0.00, 0.00, 0.00, 0.00, 0.00
55, 4344.08, 73822.96, 5849.70, 31147.98, -22983.52, -2386.88, 7794.10, -58360.78, -10158.89, 39210.75, 11050.79, -8152.60, 0.00, 0.00, 0.00, 0.00, 0.00, 0.00, 0.00
56, 4344.08, 73822.96, 5849.70, 31147.98, -22983.52, -2386.88, 7794.10, -58360.78, -10160.50, 39192.80, 11036.91, -8128.77, 0.00, 0.00, 0.00, 0.00, 0.00, 0.00, 0.00
57, 4357.25, 73843.99, 5867.53, 31168.01, -22971.04, -2370.22, 7811.64, -58342.81, -10160.50, 39192.80, 11036.91, -8128.77, 0.00, 0.00, 0.00, 0.00, 0.00, 0.00, 0.00
58, 4357.25, 73843.99, 5867.53, 31168.01, -22971.04, -2370.22, 7811.64, -58342.81, -10154.29, 39215.26, 11059.67, -8169.09, 0.00, 0.00, 0.00, 0.00, 0.00, 0.00, 0.00
59, 4348.13, 73831.84, 5857.65, 31154.15, -22981.48, -2383.17, 7794.84, -58355.87, -10154.29, 39215.26, 11059.67, -8169.09, 0.00, 0.00, 0.00, 0.00, 0.00, 0.00, 0.00
60, 4348.13, 73831.84, 5857.65, 31154.15, -22981.48, -2383.17, 7794.84, -58355.87, -10157.50, 39187.34, 11035.10, -8123.54, 0.00, 0.00, 0.00, 0.00, 0.00, 0.46, 0.90
61, 4357.63, 73845.35, 5869.17, 31167.99, -22977.19, -2372.35, 7810.66, -58341.09, -10157.50, 39187.34, 11035.10, -8123.54, 0.00, 0.00, 0.00, 0.00, 0.00, 0.00, 0.00
62, 4357.63, 73845.35, 5869.17, 31167.99, -22977.19, -2372.35, 7810.66, -58341.09, -10153.44, 39213.56, 11057.14, -8163.44, 0.00, 0.00, 0.00, 0.00, 0.00, 0.00, 0.00
63, 4345.07, 73825.84, 5854.75, 31153.70, -22990.11, -2382.90, 7794.90, -58355.04, -10153.44, 39213.56, 11057.14, -8163.44, 0.00, 0.00, 0.00, 0.00, 0.00, 0.00, 0.00
64, 4345.07, 73825.84, 5854.75, 31153.70, -22990.11, -2382.90, 7794.90, -58355.04, -10156.32, 39187.99, 11026.16, -8122.69, 0.00, 0.00, 0.00, 0.00, 0.00, 0.00, 0.00
65, 4348.11, 73830.96, 5860.56, 31165.95, -22987.03, -2372.79, 7804.56, -58344.46, -10156.32, 39187.99, 11026.16, -8122.69, 0.00, 0.00, 0.00, 0.00, 0.00, 0.00, 0.00
66, 4348.11, 73830.96, 5860.56, 31165.95, -22987.03, -2372.79, 7804.56, -58344.46, -10156.81, 39216.58, 11050.84, -8163.28, 0.00, 0.00, 0.00, 0.00, 0.00, 0.00, 0.00
67, 4339.77, 73816.79, 5847.60, 31152.09, -23002.76, -2381.76, 7790.39, -58359.11, -10156.81, 39216.58, 11050.84, -8163.28, 0.00, 0.00, 0.00, 0.00, 0.00, 0.00, 0.00
68, 4339.77, 73816.79, 5847.60, 31152.09, -23002.76, -2381.76, 7790.39, -58359.11, -10169.15, 39177.13, 11013.08, -8122.20, 0.00, 0.00, 0.00, 0.00, 0.00, 0.00, 0.00
69, 4342.36, 73816.90, 5848.22, 31158.06, -23003.48, -2379.48, 7792.67, -58355.13, -10169.15, 39177.13, 11013.08, -8122.20, 0.00, 0.00, 0.00, 0.00, 0.00, 0.00, 0.00
70, 4342.36, 73816.90, 5848.22, 31158.06, -23003.48, -2379.48, 7792.67, -58355.13, -10158.08, 39214.14, 11043.04, -8172.83, 0.00, 0.00, 0.00, 0.00, 0.00, 0.45, 0.90
71, 4345.80, 73819.23, 5849.00, 31156.12, -23005.60, -2383.01, 7790.81, -58355.71, -10158.08, 39214.14, 11043.04, -8172.83, 0.00, 0.00, 0.00, 0.00, 0.00, 0.00, 0.00
72, 4345.80, 73819.23, 5849.00, 31156.12, -23005.60, -2383.01, 7790.81, -58355.71, -10166.44, 39176.75, 11007.00, -8128.66, 0.00, 0.00, 0.00, 0.00, 0.00, 0.00, 0.00
73, 4339.52, 73812.34, 5841.38, 31151.22, -23013.78, -2388.51, 7785.00, -58358.66, -10166.44, 39176.75, 11007.00, -8128.66, 0.00, 0.00, 0.00, 0.00, 0.00, 0.00, 0.00
74, 4339.52, 73812.34, 5841.38, 31151.22, -23013.78, -2388.51, 7785.00, -58358.66, -10161.26, 39205.70, 11034.41, -8174.77, 0.00, 0.00, 0.00, 0.00, 0.00, 0.00, 0.00
75, 4341.40, 73817.37, 5844.71, 31152.70, -23014.63, -2383.34, 7786.65, -58357.03, -10161.26, 39205.70, 11034.41, -8174.77, 0.00, 0.00, 0.00, 0.00, 0.00, 0.00, 0.00
76, 4341.40, 73817.37, 5844.71, 31152.70, -23014.63, -2383.34, 7786.65, -58357.03, -10170.31, 39173.13, 11008.88, -8126.07, 0.00, 0.00, 0.00, 0.00, 0.00, 0.00, 0.00
77, 4337.02, 73816.66, 5839.80, 31141.75, -23022.23, -2393.67, 7778.54, -58364.65, -10170.31, 39173.13, 11008.88, -8126.07, 0.00, 0.00, 0.00, 0.00, 0.00, 0.00, 0.00
78, 4337.02, 73816.66, 5839.80, 31141.75, -23022.23, -2393.67, 7778.54, -58364.65, -10155.18, 39211.51, 11041.38, -8167.73, 0.00, 0.00, 0.00, 0.00, 0.00, 0.00, 0.00
79, 4349.58, 73831.92, 5854.48, 31153.77, -23011.12, -2382.96, 7793.58, -58350.08, -10155.18, 39211.51, 11041.38, -8167.73, 0.00, 0.00, 0.00, 0.00, 0.00, 0.46, 0.90
80, 4349.58, 73831.92, 5854.48, 31153.77, -23011.12, -2382.96, 7793.58, -58350.08, -10160.34, 39181.09, 11022.40, -8127.34, 0.00, 0.00, 0.00, 0.00, 0.00, 0.00, 0.00
81, 4345.69, 73825.24, 5847.06, 31139.26, -23024.22, -2396.96, 7778.99, -58363.09, -10160.34, 39181.09, 11022.40, -8127.34, 0.00, 0.00, 0.00, 0.00, 0.00, 0.00, 0.00
82, 4345.69, 73825.24, 5847.06, 31139.26, -23024.22, -2396.96, 7778.99, -58363.09, -10154.73, 39206.61, 11045.45, -8170.17, 0.00, 0.00, 0.00, 0.00, 0.00, 0.00, 0.00
83, 4356.53, 73839.08, 5860.25, 31156.65, -23015.59, -2381.35, 7791.97, -58348.96, -10154.73, 39206.61, 11045.45, -8170.17, 0.00, 0.00, 0.00, 0.00, 0.00, 0.00, 0.00
84, 4356.53, 73839.08, 5860.25, 31156.65, -23015.59, -2381.35, 7791.97, -58348.96, -10165.53, 39177.02, 11022.52, -8127.34, 0.00, 0.00, 0.00, 0.00, 0.00, 0.00, 0.00
85, 4346.94, 73824.16, 5847.40, 31139.24, -23031.57, -2397.56, 7773.15, -58368.72, -10165.53, 39177.02, 11022.52, -8127.34, 0.00, 0.00, 0.00, 0.00, 0.00, 0.00, 0.00
86, 4346.94, 73824.16, 5847.40, 31139.24, -23031.57, -2397.56, 7773.15, -58368.72, -10159.67, 39200.46, 11037.78, -8165.23, 0.00, 0.00, 0.00, 0.00, 0.00, 0.00, 0.00
87, 4357.03, 73840.93, 5861.30, 31159.54, -23019.59, -2381.73, 7793.34, -58349.32, -10159.67, 39200.46, 11037.78, -8165.23, 0.00, 0.00, 0.00, 0.00, 0.00, 0.00, 0.00
88, 4357.03, 73840.93, 5861.30, 31159.54, -23019.59, -2381.73, 7793.34, -58349.32, -10168.72, 39183.70, 11023.63, -8141.58, 0.00, 0.00, 0.00, 0.00, 0.00, 0.00, 0.00
89, 4337.33, 73814.76, 5841.11, 31138.44, -23037.70, -2396.04, 7770.99, -58367.80, -10168.72, 39183.70, 11023.63, -8141.58, 0.00, 0.00, 0.00, 0.00, 0.00, 0.46, 0.91
90, 4337.33, 73814.76, 5841.11, 31138.44, -23037.70, -2396.04, 7770.99, -58367.80, -10161.21, 39196.73, 11029.96, -8154.41, 0.00, 0.00, 0.00, 0.00, 0.00, 0.00, 0.00
91, 4348.73, 73834.91, 5856.49, 31157.79, -23021.29, -2379.79, 7795.98, -58343.10, -10161.21, 39196.73, 11029.96, -8154.41, 0.00, 0.00, 0.00, 0.00, 0.00, 0.00, 0.00
92, 4348.73, 73834.91, 5856.49, 31157.79, -23021.29, -2379.79, 7795.98, -58343.10, -10160.66, 39189.96, 11024.84, -8143.61, 0.00, 0.00, 0.00, 0.00, 0.00, 0.00, 0.00
93, 4328.66, 73803.89, 5834.05, 31133.88, -23043.57, -2402.14, 7769.31, -58369.25, -10160.66, 39189.96, 11024.84, -8143.61, 0.00, 0.00, 0.00, 0.00, 0.00, 0.00, 0.00
94, 4328.66, 73803.89, 5834.05, 31133.88, -23043.57, -2402.14, 7769.31, -58369.25, -10163.47, 39187.03, 11015.14, -8157.94, 0.00, 0.00, 0.00, 0.00, 0.00, 0.00, 0.00
95, 4340.71, 73821.57, 5848.89, 31152.83, -23031.13, -2382.43, 7792.51, -58345.79, -10163.47, 39187.03, 11015.14, -8157.94, 0.00, 0.00, 0.00, 0.00, 0.00, 0.00, 0.00
96, 4340.71, 73821.57, 5848.89, 31152.83, -23031.13, -2382.43, 7792.51, -58345.79, -10156.27, 39198.21, 11025.69, -8140.53, 0.00, 0.00, 0.00, 0.00, 0.00, 0.00, 0.00
97, 4326.22, 73801.61, 5830.92, 31131.26, -23048.00, -2397.87, 7769.85, -58364.56, -10156.27, 39198.21, 11025.69, -8140.53, 0.00, 0.00, 0.00, 0.00, 0.00, 0.00, 0.00
98, 4326.22, 73801.61, 5830.92, 31131.26, -23048.00, -2397.87, 7769.85, -58364.56, -10154.02, 39193.04, 11020.91, -8138.85, 0.00, 0.00, 0.00, 0.00, 0.00, 0.00, 0.00
99, 4345.58, 73827.50, 5853.70, 31160.86, -23029.11, -2375.28, 7796.06, -58336.06, -10154.02, 39193.04, 11020.91, -8138.85, 0.00, 0.00, 0.00, 0.00, 0.01, 0.46, 0.91
100, 4345.58, 73827.50, 5853.70, 31160.86, -23029.11, -2375.28, 7796.06, -58336.06, -10152.63, 39207.37, 11028.04, -8139.12, 0.00, 0.00, 0.00, 0.00, 0.00, 0.00, 0.00
101, 4329.44, 73802.22, 5834.30, 31136.00, -23051.46, -2396.98, 7771.41, -58363.98, -10152.63, 39207.37, 11028.04, -8139.12, 0.00, 0.00, 0.00, 0.00, 0.00, 0.00, 0.00
102, 4329.44, 73802.22, 5834.30, 31136.00, -23051.46, -2396.98, 7771.41, -58363.98, -10158.49, 39187.19, 11010.74, -8133.64, 0.00, 0.00, 0.00, 0.00, 0.00, 0.00, 0.00
103, 4340.37, 73816.68, 5848.27, 31156.50, -23039.60, -2382.34, 7790.50, -58347.64, -10158.49, 39187.19, 11010.74, -8133.64, 0.00, 0.00, 0.00, 0.00, 0.00, 0.00, 0.00
104, 4340.37, 73816.68, 5848.27, 31156.50, -23039.60, -2382.34, 7790.50, -58347.64, -10158.24, 39200.98, 11031.55, -8160.78, 0.00, 0.00, 0.00, 0.00, 0.00, 0.00, 0.00
105, 4331.03, 73803.96, 5834.74, 31133.32, -23055.80, -2399.62, 7767.34, -58370.59, -10158.24, 39200.98, 11031.55, -8160.78, 0.00, 0.00, 0.00, 0.00, 0.00, 0.00, 0.00
106, 4331.03, 73803.96, 5834.74, 31133.32, -23055.80, -2399.62, 7767.34, -58370.59, -10163.56, 39174.05, 11004.93, -8126.49, 0.00, 0.00, 0.00, 0.00, 0.00, 0.00, 0.00
107, 4344.67, 73824.23, 5852.51, 31157.12, -23042.64, -2383.59, 7786.79, -58350.50, -10163.56, 39174.05, 11004.93, -8126.49, 0.00, 0.00, 0.00, 0.00, 0.00, 0.00, 0.00
108, 4344.67, 73824.23, 5852.51, 31157.12, -23042.64, -2383.59, 7786.79, -58350.50, -10159.02, 39200.53, 11036.75, -8163.71, 0.00, 0.00, 0.00, 0.00, 0.00, 0.00, 0.00
109, 4338.45, 73811.45, 5841.99, 31140.67, -23055.11, -2397.40, 7771.54, -58367.13, -10159.02, 39200.53, 11036.75, -8163.71, 0.00, 0.00, 0.00, 0.00, 0.01, 0.47, 0.91
110, 4338.45, 73811.45, 5841.99, 31140.67, -23055.11, -2397.40, 7771.54, -58367.13, -10161.19, 39175.70, 11010.38, -8128.06, 0.00, 0.00, 0.00, 0.00, 0.00, 0.00, 0.00
111, 4345.29, 73824.77, 5851.28, 31152.90, -23045.94, -2387.52, 7787.03, -58351.60, -10161.19, 39175.70, 11010.38, -8128.06, 0.00, 0.00, 0.00, 0.00, 0.00, 0.00, 0.00
112, 4345.29, 73824.77, 5851.28, 31152.90, -23045.94, -2387.52, 7787.03, -58351.60, -10153.41, 39208.87, 11036.58, -8166.84, 0.00, 0.00, 0.00, 0.00, 0.00, 0.00, 0.00
113, 4338.92, 73811.00, 5841.87, 31140.65, -23056.90, -2395.73, 7772.60, -58362.48, -10153.41, 39208.87, 11036.58, -8166.84, 0.00, 0.00, 0.00, 0.00, 0.00, 0.00, 0.00
114, 4338.92, 73811.00, 5841.87, 31140.65, -23056.90, -2395.73, 7772.60, -58362.48, -10162.53, 39171.05, 11003.65, -8124.81, 0.00, 0.00, 0.00, 0.00, 0.00, 0.00, 0.00
115, 4345.60, 73822.35, 5850.32, 31147.89, -23047.75, -2391.59, 7783.86, -58353.09, -10162.53, 39171.05, 11003.65, -8124.81, 0.00, 0.00, 0.00, 0.00, 0.00, 0.00, 0.00
116, 4345.60, 73822.35, 5850.32, 31147.89, -23047.75, -2391.59, 7783.86, -58353.09, -10149.01, 39209.94, 11042.54, -8164.09, 0.00, 0.00, 0.00, 0.00, 0.00, 0.00, 0.00
117, 4343.26, 73819.56, 5844.67, 31144.09, -23051.93, -2393.83, 7780.53, -58354.95, -10149.01, 39209.94, 11042.54, -8164.09, 0.00, 0.00, 0.00, 0.00, 0.00, 0.00, 0.00
118, 4343.26, 73819.56, 5844.67, 31144.09, -23051.93, -2393.83, 7780.53, -58354.95, -10164.54, 39174.71, 10998.76, -8116.70, 0.00, 0.00, 0.00, 0.00, 0.00, 0.46, 0.91
119, 4329.44, 73810.06, 5836.31, 31132.36, -23058.53, -2400.18, 7776.57, -58358.37, -10164.54, 39174.71, 10998.76, -8116.70, 0.00, 0.00, 0.00, 0.00, 0.00, 0.00, 0.00
120, 4329.44, 73810.06, 5836.31, 31132.36, -23058.53, -2400.18, 7776.57, -58358.37, -10148.85, 39213.90, 11037.60, -8165.65, 0.00, 0.00, 0.00, 0.00, 0.00, 0.00, 0.00
121, 4335.50, 73818.47, 5843.01, 31139.96, -23054.08, -2395.57, 7781.09, -58354.84, -10148.85, 39213.90, 11037.60, -8165.65, 0.00, 0.00, 0.00, 0.00, 0.00, 0.00, 0.00
122, 4335.50, 73818.47, 5843.01, 31139.96, -23054.08, -2395.57, 7781.09, -58354.84, -10157.59, 39172.32, 11001.24, -8125.80, 0.00, 0.00, 0.00, 0.00, 0.00, 0.00, 0.00
123, 4329.47, 73806.89, 5836.26, 31134.57, -23060.61, -2400.24, 7774.90, -58361.43, -10157.59, 39172.32, 11001.24, -8125.80, 0.00, 0.00, 0.00, 0.00, 0.00, 0.00, 0.00
124, 4329.47, 73806.89, 5836.26, 31134.57, -23060.61, -2400.24, 7774.90, -58361.43, -10146.86, 39206.14, 11035.53, -8165.81, 0.00, 0.00, 0.00, 0.00, 0.00, 0.00, 0.00
125, 4338.70, 73814.63, 5846.14, 31146.02, -23051.15, -2389.38, 7787.33, -58351.77, -10146.86, 39206.14, 11035.53, -8165.81, 0.00, 0.00, 0.00, 0.00, 0.00, 0.00, 0.00
126, 4338.70, 73814.63, 5846.14, 31146.02, -23051.15, -2389.38, 7787.33, -58351.77, -10152.61, 39178.96, 11009.93, -8120.19, 0.00, 0.00, 0.00, 0.00, 0.00, 0.00, 0.00
127, 4331.28, 73805.46, 5836.80, 31133.83, -23057.90, -2400.09, 7778.81, -58359.35, -10152.61, 39178.96, 11009.93, -8120.19, 0.00, 0.00, 0.00, 0.00, 0.00, 0.00, 0.00
128, 4331.28, 73805.46, 5836.80, 31133.83, -23057.90, -2400.09, 7778.81, -58359.35, -10146.13, 39207.93, 11031.93, -8159.75, 0.00, 0.00, 0.00, 0.00, 0.00, 0.46, 0.91
129, 4345.96, 73822.78, 5851.87, 31149.32, -23048.94, -2387.86, 7792.60, -58348.63, -10146.13, 39207.93, 11031.93, -8159.75, 0.00, 0.00, 0.00, 0.00, 0.00, 0.00, 0.00
130, 4345.96, 73822.78, 5851.87, 31149.32, -23048.94, -2387.86, 7792.60, -58348.63, -10151.13, 39180.30, 11014.13, -8122.53, 0.00, 0.00, 0.00, 0.00, 0.00, 0.00, 0.00
131, 4339.68, 73810.48, 5843.35, 31140.54, -23058.37, -2397.18, 7778.90, -58361.14, -10151.13, 39180.30, 11014.13, -8122.53, 0.00, 0.00, 0.00, 0.00, 0.00, 0.00, 0.00
132, 4339.68, 73810.48, 5843.35, 31140.54, -23058.37, -2397.18, 7778.90, -58361.14, -10145.95, 39205.34, 11035.77, -8156.82, 0.00, 0.00, 0.00, 0.00, 0.00, 0.00, 0.00
133, 4357.36, 73837.78, 5864.90, 31158.20, -23039.84, -2381.31, 7802.32, -58339.06, -10145.95, 39205.34, 11035.77, -8156.82, 0.00, 0.00, 0.00, 0.00, 0.00, 0.00, 0.00
134, 4357.36, 73837.78, 5864.90, 31158.20, -23039.84, -2381.31, 7802.32, -58339.06, -10146.02, 39189.54, 11028.22, -8119.34, 0.00, 0.00, 0.00, 0.00, 0.00, 0.00, 0.00
135, 4347.73, 73823.48, 5851.75, 31142.06, -23051.46, -2397.92, 7781.96, -58359.66, -10146.02, 39189.54, 11028.22, -8119.34, 0.00, 0.00, 0.00, 0.00, 0.00, 0.00, 0.00
136, 4347.73, 73823.48, 5851.75, 31142.06, -23051.46, -2397.92, 7781.96, -58359.66, -10142.35, 39204.98, 11039.01, -8150.63, 0.00, 0.00, 0.00, 0.00, 0.00, 0.00, 0.00
137, 4359.06, 73836.88, 5867.87, 31164.46, -23035.57, -2378.40, 7807.29, -58336.13, -10142.35, 39204.98, 11039.01, -8150.63, 0.00, 0.00, 0.00, 0.00, 0.00, 0.00, 0.00
138, 4359.06, 73836.88, 5867.87, 31164.46, -23035.57, -2378.40, 7807.29, -58336.13, -10144.79, 39195.30, 11029.92, -8130.47, 0.00, 0.00, 0.00, 0.00, 0.00, 0.47, 0.90
139, 4337.31, 73812.90, 5845.99, 31137.05, -23054.19, -2399.30, 7781.67, -58357.41, -10144.79, 39195.30, 11029.92, -8130.47, 0.00, 0.00, 0.00, 0.00, 0.00, 0.00, 0.00
140, 4337.31, 73812.90, 5845.99, 31137.05, -23054.19, -2399.30, 7781.67, -58357.41, -10142.10, 39201.07, 11033.29, -8142.58, 0.00, 0.00, 0.00, 0.00, 0.00, 0.00, 0.00
141, 4355.24, 73838.05, 5868.70, 31163.99, -23031.30, -2376.97, 7809.48, -58333.65, -10142.10, 39201.07, 11033.29, -8142.58, 0.00, 0.00, 0.00, 0.00, 0.00, 0.00, 0.00
142, 4355.24, 73838.05, 5868.70, 31163.99, -23031.30, -2376.97, 7809.48, -58333.65, -10137.19, 39203.59, 11036.67, -8127.54, 0.00, 0.00, 0.00, 0.00, 0.00, 0.00, 0.00
143, 4337.98, 73808.30, 5844.20, 31137.57, -23054.24, -2400.98, 7782.21, -58359.78, -10137.19, 39203.59, 11036.67, -8127.54, 0.00, 0.00, 0.00, 0.00, 0.00, 0.00, 0.00
144, 4337.98, 73808.30, 5844.20, 31137.57, -23054.24, -2400.98, 7782.21, -58359.78, -10136.16, 39197.98, 11027.50, -8133.46, 0.00, 0.00, 0.00, 0.00, 0.00, 0.00, 0.00
145, 4348.69, 73829.62, 5858.82, 31157.12, -23037.83, -2384.39, 7806.39, -58339.93, -10136.16, 39197.98, 11027.50, -8133.46, 0.00, 0.00, 0.00, 0.00, 0.00, 0.00, 0.00
146, 4348.69, 73829.62, 5858.82, 31157.12, -23037.83, -2384.39, 7806.39, -58339.93, -10135.93, 39204.27, 11032.46, -8134.56, 0.00, 0.00, 0.00, 0.00, 0.00, 0.00, 0.00
147, 4334.85, 73804.92, 5838.95, 31133.99, -23054.48, -2402.25, 7783.48, -58360.63, -10135.93, 39204.27, 11032.46, -8134.56, 0.00, 0.00, 0.00, 0.00, 0.00, 0.00, 0.00
148, 4334.85, 73804.92, 5838.95, 31133.99, -23054.48, -2402.25, 7783.48, -58360.63, -10137.45, 39197.11, 11012.23, -8118.56, 0.00, 0.00, 0.00, 0.00, 0.00, 0.47, 0.91
149, 4348.69, 73824.68, 5854.59, 31151.83, -23038.14, -2386.76, 7807.53, -58337.25, -10137.45, 39197.11, 11012.23, -8118.56, 0.00, 0.00, 0.00, 0.00, 0.00, 0.00, 0.00
150, 4348.69, 73824.68, 5854.59, 31151.83, -23038.14, -2386.76, 7807.53, -58337.25, -10137.90, 39209.56, 11029.87, -8140.28, 0.00, 0.00, 0.00, 0.00, 0.00, 0.00, 0.00
151, 4339.19, 73811.31, 5841.18, 31132.67, -23050.53, -2401.90, 7783.75, -58359.89, -10137.90, 39209.56, 11029.87, -8140.28, 0.00, 0.00, 0.00, 0.00, 0.00, 0.00, 0.00
152, 4339.19, 73811.31, 5841.18, 31132.67, -23050.53, -2401.90, 7783.75, -58359.89, -10137.39, 39187.86, 11015.63, -8122.76, 0.00, 0.00, 0.00, 0.00, 0.00, 0.00, 0.00
153, 4349.67, 73827.12, 5856.56, 31153.95, -23037.16, -2386.61, 7804.04, -58343.59, -10137.39, 39187.86, 11015.63, -8122.76, 0.00, 0.00, 0.00, 0.00, 0.00, 0.00, 0.00
154, 4349.67, 73827.12, 5856.56, 31153.95, -23037.16, -2386.61, 7804.04, -58343.59, -10138.88, 39206.16, 11028.84, -8158.43, 0.00, 0.00, 0.00, 0.00, 0.00, 0.00, 0.00
155, 4337.69, 73803.63, 5838.52, 31135.04, -23051.22, -2401.99, 7783.99, -58362.48, -10138.88, 39206.16, 11028.84, -8158.43, 0.00, 0.00, 0.00, 0.00, 0.00, 0.00, 0.00
156, 4337.69, 73803.63, 5838.52, 31135.04, -23051.22, -2401.99, 7783.99, -58362.48, -10144.99, 39178.83, 11002.09, -8121.01, 0.00, 0.00, 0.00, 0.00, 0.00, 0.00, 0.00
157, 4347.68, 73820.99, 5851.71, 31149.35, -23037.96, -2390.92, 7803.49, -58344.36, -10144.99, 39178.83, 11002.09, -8121.01, 0.00, 0.00, 0.00, 0.00, 0.00, 0.46, 0.91
158, 4347.68, 73820.99, 5851.71, 31149.35, -23037.96, -2390.92, 7803.49, -58344.36, -10135.64, 39212.11, 11033.09, -8149.38, 0.00, 0.00, 0.00, 0.00, 0.00, 0.00, 0.00
159, 4342.50, 73815.88, 5844.89, 31138.44, -23043.91, -2400.38, 7792.04, -58358.08, -10135.64, 39212.11, 11033.09, -8149.38, 0.00, 0.00, 0.00, 0.00, 0.00, 0.00, 0.00
160, 4342.50, 73815.88, 5844.89, 31138.44, -23043.91, -2400.38, 7792.04, -58358.08, -10142.04, 39181.11, 11004.55, -8109.03, 0.00, 0.00, 0.00, 0.00, 0.00, 0.00, 0.00
161, 4345.27, 73821.59, 5850.93, 31145.39, -23036.56, -2392.37, 7802.93, -58344.67, -10142.04, 39181.11, 11004.55, -8109.03, 0.00, 0.00, 0.00, 0.00, 0.00, 0.00, 0.00
162, 4345.27, 73821.59, 5850.93, 31145.39, -23036.56, -2392.37, 7802.93, -58344.67, -10133.50, 39218.95, 11034.45, -8153.65, 0.00, 0.00, 0.00, 0.00, 0.00, 0.00, 0.00
163, 4345.36, 73816.03, 5847.10, 31142.95, -23037.65, -2395.01, 7797.34, -58351.73, -10133.50, 39218.95, 11034.45, -8153.65, 0.00, 0.00, 0.00, 0.00, 0.00, 0.00, 0.00
164, 4345.36, 73816.03, 5847.10, 31142.95, -23037.65, -2395.01, 7797.34, -58351.73, -10144.58, 39177.67, 11004.12, -8119.74, 0.00, 0.00, 0.00, 0.00, 0.00, 0.00, 0.00
165, 4339.79, 73816.81, 5846.88, 31141.03, -23036.87, -2397.56, 7798.84, -58347.08, -10144.58, 39177.67, 11004.12, -8119.74, 0.00, 0.00, 0.00, 0.00, 0.00, 0.00, 0.00
166, 4339.79, 73816.81, 5846.88, 31141.03, -23036.87, -2397.56, 7798.84, -58347.08, -10134.42, 39218.88, 11034.52, -8147.75, 0.00, 0.00, 0.00, 0.00, 0.00, 0.00, 0.00
167, 4340.98, 73821.88, 5848.51, 31142.44, -23030.97, -2393.94, 7801.79, -58345.67, -10134.42, 39218.88, 11034.52, -8147.75, 0.00, 0.00, 0.00, 0.00, 0.00, 0.46, 0.91
168, 4340.98, 73821.88, 5848.51, 31142.44, -23030.97, -2393.94, 7801.79, -58345.67, -10135.17, 39179.77, 11012.03, -8107.56, 0.00, 0.00, 0.00, 0.00, 0.00, 0.00, 0.00
169, 4334.34, 73811.41, 5843.89, 31141.07, -23030.39, -2397.27, 7800.83, -58348.33, -10135.17, 39179.77, 11012.03, -8107.56, 0.00, 0.00, 0.00, 0.00, 0.00, 0.00, 0.00
170, 4334.34, 73811.41, 5843.89, 31141.07, -23030.39, -2397.27, 7800.83, -58348.33, -10128.54, 39215.98, 11038.59, -8157.94, 0.00, 0.00, 0.00, 0.00, 0.00, 0.00, 0.00
171, 4338.41, 73815.67, 5847.64, 31143.45, -23025.45, -2393.85, 7805.03, -58345.38, -10128.54, 39215.98, 11038.59, -8157.94, 0.00, 0.00, 0.00, 0.00, 0.00, 0.00, 0.00
172, 4338.41, 73815.67, 5847.64, 31143.45, -23025.45, -2393.85, 7805.03, -58345.38, -10141.30, 39175.77, 11008.81, -8112.99, 0.00, 0.00, 0.00, 0.00, 0.00, 0.00, 0.00
173, 4327.30, 73802.87, 5837.49, 31135.85, -23032.58, -2403.13, 7791.86, -58357.90, -10141.30, 39175.77, 11008.81, -8112.99, 0.00, 0.00, 0.00, 0.00, 0.00, 0.00, 0.00
174, 4327.30, 73802.87, 5837.49, 31135.85, -23032.58, -2403.13, 7791.86, -58357.90, -10132.87, 39211.04, 11036.06, -8167.98, 0.00, 0.00, 0.00, 0.00, 0.00, 0.00, 0.00
175, 4338.27, 73814.80, 5849.99, 31149.55, -23017.94, -2390.09, 7809.52, -58342.75, -10132.87, 39211.04, 11036.06, -8167.98, 0.00, 0.00, 0.00, 0.00, 0.00, 0.00, 0.00
176, 4338.27, 73814.80, 5849.99, 31149.55, -23017.94, -2390.09, 7809.52, -58342.75, -10138.95, 39181.80, 11012.48, -8104.47, 0.00, 0.00, 0.00, 0.00, 0.00, 0.00, 0.00
177, 4325.91, 73802.04, 5837.11, 31134.66, -23028.82, -2403.97, 7795.42, -58353.03, -10138.95, 39181.80, 11012.48, -8104.47, 0.00, 0.00, 0.00, 0.00, 0.00, 0.46, 0.91
178, 4325.91, 73802.04, 5837.11, 31134.66, -23028.82, -2403.97, 7795.42, -58353.03, -10130.64, 39213.41, 11031.48, -8147.43, 0.00, 0.00, 0.00, 0.00, 0.00, 0.00, 0.00
179, 4335.28, 73813.55, 5848.98, 31147.65, -23011.88, -2391.97, 7812.90, -58338.66, -10130.64, 39213.41, 11031.48, -8147.43, 0.00, 0.00, 0.00, 0.00, 0.00, 0.00, 0.00
180, 4335.28, 73813.55, 5848.98, 31147.65, -23011.88, -2391.97, 7812.90, -58338.66, -10140.09, 39185.47, 11011.72, -8113.62, 0.00, 0.00, 0.00, 0.00, 0.00, 0.00, 0.00
181, 4319.14, 73792.94, 5829.27, 31127.75, -23032.13, -2407.69, 7789.83, -58361.43, -10140.09, 39185.47, 11011.72, -8113.62, 0.00, 0.00, 0.00, 0.00, 0.00, 0.00, 0.00
182, 4319.14, 73792.94, 5829.27, 31127.75, -23032.13, -2407.69, 7789.83, -58361.43, -10135.98, 39205.14, 11022.34, -8156.33, 0.00, 0.00, 0.00, 0.00, 0.00, 0.00, 0.00
183, 4340.91, 73819.31, 5851.02, 31151.67, -23012.62, -2389.49, 7812.23, -58340.00, -10135.98, 39205.14, 11022.34, -8156.33, 0.00, 0.00, 0.00, 0.00, 0.00, 0.00, 0.00
184, 4340.91, 73819.31, 5851.02, 31151.67, -23012.62, -2389.49, 7812.23, -58340.00, -10137.07, 39188.33, 11016.93, -8115.47, 0.00, 0.00, 0.00, 0.00, 0.00, 0.00, 0.00
185, 4330.31, 73803.02, 5836.42, 31131.06, -23024.40, -2408.98, 7791.17, -58360.78, -10137.07, 39188.33, 11016.93, -8115.47, 0.00, 0.00, 0.00, 0.00, 0.00, 0.00, 0.00
186, 4330.31, 73803.02, 5836.42, 31131.06, -23024.40, -2408.98, 7791.17, -58360.78, -10133.83, 39201.16, 11024.10, -8144.35, 0.00, 0.00, 0.00, 0.00, 0.00, 0.00, 0.00
187, 4346.39, 73823.38, 5855.44, 31154.96, -23005.51, -2389.69, 7814.53, -58338.72, -10133.83, 39201.16, 11024.10, -8144.35, 0.00, 0.00, 0.00, 0.00, 0.01, 0.46, 0.91
188, 4346.39, 73823.38, 5855.44, 31154.96, -23005.51, -2389.69, 7814.53, -58338.72, -10139.69, 39188.66, 11016.19, -8132.08, 0.00, 0.00, 0.00, 0.00, 0.00, 0.00, 0.00
189, 4327.61, 73797.61, 5828.80, 31126.75, -23029.27, -2412.56, 7783.82, -58365.99, -10139.69, 39188.66, 11016.19, -8132.08, 0.00, 0.00, 0.00, 0.00, 0.00, 0.00, 0.00
190, 4327.61, 73797.61, 5828.80, 31126.75, -23029.27, -2412.56, 7783.82, -58365.99, -10138.15, 39192.29, 11009.35, -8143.70, 0.00, 0.00, 0.00, 0.00, 0.00, 0.00, 0.00
191, 4345.54, 73824.79, 5850.48, 31151.87, -23007.10, -2392.04, 7810.30, -58339.93, -10138.15, 39192.29, 11009.35, -8143.70, 0.00, 0.00, 0.00, 0.00, 0.00, 0.00, 0.00
192, 4345.54, 73824.79, 5850.48, 31151.87, -23007.10, -2392.04, 7810.30, -58339.93, -10135.42, 39199.95, 11019.77, -8127.27, 0.00, 0.00, 0.00, 0.00, 0.00, 0.00, 0.00
193, 4328.91, 73802.84, 5831.03, 31126.28, -23021.98, -2413.54, 7782.88, -58360.45, -10135.42, 39199.95, 11019.77, -8127.27, 0.00, 0.00, 0.00, 0.00, 0.00, 0.00, 0.00
194, 4328.91, 73802.84, 5831.03, 31126.28, -23021.98, -2413.54, 7782.88, -58360.45, -10139.18, 39184.64, 11009.75, -8134.94, 0.00, 0.00, 0.00, 0.00, 0.00, 0.00, 0.00
195, 4346.36, 73825.95, 5854.06, 31151.71, -23001.69, -2393.42, 7809.95, -58339.04, -10139.18, 39184.64, 11009.75, -8134.94, 0.00, 0.00, 0.00, 0.00, 0.00, 0.00, 0.00
196, 4346.36, 73825.95, 5854.06, 31151.71, -23001.69, -2393.42, 7809.95, -58339.04, -10131.49, 39200.24, 11029.83, -8143.34, 0.00, 0.00, 0.00, 0.00, 0.00, 0.46, 0.91
197, 4332.28, 73802.13, 5836.22, 31129.90, -23017.83, -2408.89, 7785.65, -58360.87, -10131.49, 39200.24, 11029.83, -8143.34, 0.00, 0.00, 0.00, 0.00, 0.00, 0.00, 0.00
198, 4332.28, 73802.13, 5836.22, 31129.90, -23017.83, -2408.89, 7785.65, -58360.87, -10134.82, 39184.86, 11008.59, -8125.42, 0.00, 0.00, 0.00, 0.00, 0.00, 0.00, 0.00
199, 4345.69, 73823.34, 5852.96, 31149.32, -22999.92, -2393.38, 7808.09, -58338.23, -10134.82, 39184.86, 11008.59, -8125.42, 0.00, 0.00, 0.00, 0.00, 0.00, 0.00, 0.00
200, 4345.69, 73823.34, 5852.96, 31149.32, -22999.92, -2393.38, 7808.09, -58338.23, -10129.99, 39204.29, 11028.15, -8143.88, 0.00, 0.00, 0.00, 0.00, 0.00, 0.00, 0.00
201, 4332.01, 73804.09, 5837.92, 31131.26, -23014.52, -2408.20, 7785.74, -58359.15, -10129.99, 39204.29, 11028.15, -8143.88, 0.00, 0.00, 0.00, 0.00, 0.00, 0.00, 0.00
202, 4332.01, 73804.09, 5837.92, 31131.26, -23014.52, -2408.20, 7785.74, -58359.15, -10141.77, 39177.18, 11002.40, -8124.46, 0.00, 0.00, 0.00, 0.00, 0.00, 0.00, 0.00
203, 4342.90, 73818.20, 5849.47, 31147.63, -23000.71, -2395.08, 7805.83, -58338.12, -10141.77, 39177.18, 11002.40, -8124.46, 0.00, 0.00, 0.00, 0.00, 0.00, 0.00, 0.00
204, 4342.90, 73818.20, 5849.47, 31147.63, -23000.71, -2395.08, 7805.83, -58338.12, -10131.20, 39210.50, 11031.39, -8151.75, 0.00, 0.00, 0.00, 0.00, 0.00, 0.00, 0.00
205, 4333.33, 73806.77, 5838.72, 31131.66, -23011.77, -2406.25, 7789.65, -58359.29, -10131.20, 39210.50, 11031.39, -8151.75, 0.00, 0.00, 0.00, 0.00, 0.00, 0.00, 0.00
206, 4333.33, 73806.77, 5838.72, 31131.66, -23011.77, -2406.25, 7789.65, -58359.29, -10141.03, 39175.48, 11005.95, -8120.23, 0.00, 0.00, 0.00, 0.00, 0.01, 0.46, 0.90
207, 4342.05, 73819.80, 5851.24, 31146.24, -22999.01, -2394.39, 7804.94, -58343.04, -10141.03, 39175.48, 11005.95, -8120.23, 0.00, 0.00, 0.00, 0.00, 0.00, 0.00, 0.00
208, 4342.05, 73819.80, 5851.24, 31146.24, -22999.01, -2394.39, 7804.94, -58343.04, -10133.77, 39206.95, 11032.84, -8152.13, 0.00, 0.00, 0.00, 0.00, 0.00, 0.00, 0.00
209, 4338.21, 73808.50, 5845.09, 31141.25, -23002.31, -2401.02, 7796.40, -58353.92, -10133.77, 39206.95, 11032.84, -8152.13, 0.00, 0.00, 0.00, 0.00, 0.00, 0.00, 0.00
210, 4338.21, 73808.50, 5845.09, 31141.25, -23002.31, -2401.02, 7796.40, -58353.92, -10135.11, 39177.45, 11005.37, -8113.15, 0.00, 0.00, 0.00, 0.00, 0.00, 0.00, 0.00
211, 4339.12, 73814.16, 5849.50, 31145.10, -23000.10, -2397.78, 7803.40, -58345.76, -10135.11, 39177.45, 11005.37, -8113.15, 0.00, 0.00, 0.00, 0.00, 0.00, 0.00, 0.00
