%OpenBCI Raw EEG Data
%
%Sample Rate = 250.0 Hz
%First Column = SampleIndex
%Other Columns = EEG data in microvolts followed by Accel Data (in G) interleaved with Aux Data
0, 0.00, 0.00, 0.00, 0.00, 0.00, 0.00, 0.00, 0.00, -22587.87, 31251.40, 5694.44, 10812.97, 0.00, 0.00, 0.00, 0.00, -0.07, 0.33, 0.95
1, 10191.63, 46002.97, 1587.58, 21022.66, -2469.38, 429.62, 11641.15, -50202.82, -22587.87, 31251.40, 5694.44, 10812.97, 0.00, 0.00, 0.00, 0.00, 0.00, 0.00, 0.00
2, 10191.63, 46002.97, 1587.58, 21022.66, -2469.38, 429.62, 11641.15, -50202.82, -22424.30, 31445.57, 5921.36, 10106.39, 0.00, 0.00, 0.00, 0.00, 0.00, 0.00, 0.00
3, 10194.27, 45998.88, 1577.56, 21006.15, -2478.32, 418.16, 11623.11, -50219.16, -22424.30, 31445.57, 5921.36, 10106.39, 0.00, 0.00, 0.00, 0.00, 0.00, 0.00, 0.00
4, 10194.27, 45998.88, 1577.56, 21006.15, -2478.32, 418.16, 11623.11, -50219.16, -22422.91, 31427.67, 5915.68, 10169.75, 0.00, 0.00, 0.00, 0.00, 0.00, 0.00, 0.00
5, 10214.01, 46015.13, 1590.30, 21030.93, -2465.55, 434.34, 11642.84, -50204.41, -22422.91, 31427.67, 5915.68, 10169.75, 0.00, 0.00, 0.00, 0.00, 0.00, 0.00, 0.00
6, 10214.01, 46015.13, 1590.30, 21030.93, -2465.55, 434.34, 11642.84, -50204.41, -22434.45, 31443.47, 5933.05, 10129.14, 0.00, 0.00, 0.00, 0.00, 0.00, 0.00, 0.00
7, 10207.37, 46026.93, 1593.68, 21022.80, -2475.28, 427.07, 11630.77, -50219.88, -22434.45, 31443.47, 5933.05, 10129.14, 0.00, 0.00, 0.00, 0.00, -0.06, 0.32, 0.96
8, 10207.37, 46026.93, 1593.68, 21022.80, -2475.28, 427.07, 11630.77, -50219.88, -22436.88, 31424.52, 5926.70, 10129.61, 0.00, 0.00, 0.00, 0.00, 0.00, 0.00, 0.00
9, 10208.09, 46037.51, 1600.18, 21027.87, -2472.89, 427.70, 11634.91, -50213.80, -22436.88, 31424.52, 5926.70, 10129.61, 0.00, 0.00, 0.00, 0.00, 0.00, 0.00, 0.00
10, 10208.09, 46037.51, 1600.18, 21027.87, -2472.89, 427.70, 11634.91, -50213.80, -22430.15, 31450.89, 5943.19, 10170.20, 0.00, 0.00, 0.00, 0.00, 0.00, 0.00, 0.00
11, 10235.29, 46018.95, 1594.15, 21025.95, -2466.78, 430.74, 11635.49, -50211.05, -22430.15, 31450.89, 5943.19, 10170.20, 0.00, 0.00, 0.00, 0.00, 0.00, 0.00, 0.00
12, 10235.29, 46018.95, 1594.15, 21025.95, -2466.78, 430.74, 11635.49, -50211.05, -22432.10, 31425.54, 5932.31, 10135.02, 0.00, 0.00, 0.00, 0.00, 0.00, 0.00, 0.00
13, 10213.61, 46016.54, 1603.36, 21028.07, -2470.02, 429.60, 11636.54, -50213.80, -22432.10, 31425.54, 5932.31, 10135.02, 0.00, 0.00, 0.00, 0.00, 0.00, 0.00, 0.00
14, 10213.61, 46016.54, 1603.36, 21028.07, -2470.02, 429.60, 11636.54, -50213.80, -22440.14, 31447.56, 5948.60, 10124.63, 0.00, 0.00, 0.00, 0.00, 0.00, 0.00, 0.00
15, 10222.12, 46029.44, 1603.98, 21024.90, -2469.13, 427.90, 11633.37, -50213.17, -22440.14, 31447.56, 5948.60, 10124.63, 0.00, 0.00, 0.00, 0.00, 0.00, 0.00, 0.00
16, 10222.12, 46029.44, 1603.98, 21024.90, -2469.13, 427.90, 11633.37, -50213.17, -22445.55, 31425.75, 5933.45, 10168.48, 0.00, 0.00, 0.00, 0.00, -0.06, 0.32, 0.94
17, 10212.60, 46020.43, 1603.13, 21023.40, -2477.82, 425.96, 11628.92, -50221.62, -22445.55, 31425.75, 5933.45, 10168.48, 0.00, 0.00, 0.00, 0.00, 0.00, 0.00, 0.00
18, 10212.60, 46020.43, 1603.13, 21023.40, -2477.82, 425.96, 11628.92, -50221.62, -22457.33, 31439.47, 5939.17, 10127.13, 0.00, 0.00, 0.00, 0.00, 0.00, 0.00, 0.00
19, 10229.66, 46019.00, 1597.48, 21027.27, -2475.37, 428.24, 11632.81, -50216.75, -22457.33, 31439.47, 5939.17, 10127.13, 0.00, 0.00, 0.00, 0.00, 0.00, 0.00, 0.00
20, 10229.66, 46019.00, 1597.48, 21027.27, -2475.37, 428.24, 11632.81, -50216.75, -22448.24, 31437.71, 5935.86, 10182.85, 0.00, 0.00, 0.00, 0.00, 0.00, 0.00, 0.00
21, 10238.55, 46036.86, 1604.12, 21032.37, -2469.42, 433.38, 11638.44, -50210.29, -22448.24, 31437.71, 5935.86, 10182.85, 0.00, 0.00, 0.00, 0.00, 0.00, 0.00, 0.00
22, 10238.55, 46036.86, 1604.12, 21032.37, -2469.42, 433.38, 11638.44, -50210.29, -22447.54, 31455.10, 5957.23, 10167.65, 0.00, 0.00, 0.00, 0.00, 0.00, 0.00, 0.00
23, 10229.79, 46036.50, 1617.53, 21042.42, -2461.62, 439.68, 11645.82, -50203.78, -22447.54, 31455.10, 5957.23, 10167.65, 0.00, 0.00, 0.00, 0.00, 0.00, 0.00, 0.00
24, 10229.79, 46036.50, 1617.53, 21042.42, -2461.62, 439.68, 11645.82, -50203.78, -22445.64, 31450.80, 5946.66, 10124.42, 0.00, 0.00, 0.00, 0.00, 0.00, 0.00, 0.00
25, 10234.37, 46037.26, 1612.97, 21032.63, -2472.75, 433.78, 11634.19, -50215.20, -22445.64, 31450.80, 5946.66, 10124.42, 0.00, 0.00, 0.00, 0.00, 0.00, 0.00, 0.00
26, 10234.37, 46037.26, 1612.97, 21032.63, -2472.75, 433.78, 11634.19, -50215.20, -22458.70, 31462.05, 5954.50, 10204.29, 0.00, 0.00, 0.00, 0.00, -0.07, 0.32, 0.95
27, 10256.92, 46065.51, 1628.62, 21054.65, -2459.47, 447.37, 11648.63, -50203.07, -22458.70, 31462.05, 5954.50, 10204.29, 0.00, 0.00, 0.00, 0.00, 0.00, 0.00, 0.00
28, 10256.92, 46065.51, 1628.62, 21054.65, -2459.47, 447.37, 11648.63, -50203.07, -22460.82, 31444.01, 5954.10, 10192.86, 0.00, 0.00, 0.00, 0.00, 0.00, 0.00, 0.00
29, 10235.98, 46022.55, 1619.67, 21038.62, -2476.24, 431.08, 11631.91, -50222.00, -22460.82, 31444.01, 5954.10, 10192.86, 0.00, 0.00, 0.00, 0.00, 0.00, 0.00, 0.00
30, 10235.98, 46022.55, 1619.67, 21038.62, -2476.24, 431.08, 11631.91, -50222.00, -22465.63, 31453.98, 5966.48, 10141.59, 0.00, 0.00, 0.00, 0.00, 0.00, 0.00, 0.00
31, 10251.38, 46053.13, 1632.64, 21063.90, -2452.41, 447.33, 11650.18, -50203.16, -22465.63, 31453.98, 5966.48, 10141.59, 0.00, 0.00, 0.00, 0.00, 0.00, 0.00, 0.00
32, 10251.38, 46053.13, 1632.64, 21063.90, -2452.41, 447.33, 11650.18, -50203.16, -22465.00, 31447.83, 5962.91, 10146.55, 0.00, 0.00, 0.00, 0.00, 0.00, 0.00, 0.00
33, 10242.15, 46048.79, 1627.77, 21045.44, -2467.72, 436.95, 11636.07, -50216.81, -22465.00, 31447.83, 5962.91, 10146.55, 0.00, 0.00, 0.00, 0.00, 0.00, 0.00, 0.00
34, 10242.15, 46048.79, 1627.77, 21045.44, -2467.72, 436.95, 11636.07, -50216.81, -22465.02, 31465.00, 5971.02, 10184.15, 0.00, 0.00, 0.00, 0.00, 0.00, 0.00, 0.00
35, 10272.30, 46077.52, 1630.29, 21066.83, -2454.80, 453.36, 11656.86, -50196.90, -22465.02, 31465.00, 5971.02, 10184.15, 0.00, 0.00, 0.00, 0.00, 0.00, 0.00, 0.00
36, 10272.30, 46077.52, 1630.29, 21066.83, -2454.80, 453.36, 11656.86, -50196.90, -22467.37, 31463.54, 5970.06, 10165.75, 0.00, 0.00, 0.00, 0.00, -0.08, 0.33, 0.96
37, 10235.27, 46055.39, 1623.59, 21048.23, -2472.39, 438.94, 11636.97, -50214.76, -22467.37, 31463.54, 5970.06, 10165.75, 0.00, 0.00, 0.00, 0.00, 0.00, 0.00, 0.00
38, 10235.27, 46055.39, 1623.59, 21048.23, -2472.39, 438.94, 11636.97, -50214.76, -22479.73, 31455.07, 5960.96, 10180.64, 0.00, 0.00, 0.00, 0.00, 0.00, 0.00, 0.00
39, 10262.69, 46065.54, 1633.96, 21065.76, -2457.62, 452.91, 11653.35, -50204.83, -22479.73, 31455.07, 5960.96, 10180.64, 0.00, 0.00, 0.00, 0.00, 0.00, 0.00, 0.00
40, 10262.69, 46065.54, 1633.96, 21065.76, -2457.62, 452.91, 11653.35, -50204.83, -22481.72, 31458.43, 5968.90, 10152.27, 0.00, 0.00, 0.00, 0.00, 0.00, 0.00, 0.00
41, 10246.06, 46044.12, 1626.69, 21050.47, -2469.69, 436.89, 11633.79, -50222.78, -22481.72, 31458.43, 5968.90, 10152.27, 0.00, 0.00, 0.00, 0.00, 0.00, 0.00, 0.00
42, 10246.06, 46044.12, 1626.69, 21050.47, -2469.69, 436.89, 11633.79, -50222.78, -22479.89, 31455.25, 5972.05, 10237.95, 0.00, 0.00, 0.00, 0.00, 0.00, 0.00, 0.00
43, 10252.43, 46063.88, 1629.11, 21065.58, -2465.20, 450.70, 11655.88, -50203.34, -22479.89, 31455.25, 5972.05, 10237.95, 0.00, 0.00, 0.00, 0.00, 0.00, 0.00, 0.00
44, 10252.43, 46063.88, 1629.11, 21065.58, -2465.20, 450.70, 11655.88, -50203.34, -22484.63, 31464.64, 5974.84, 10147.54, 0.00, 0.00, 0.00, 0.00, 0.00, 0.00, 0.00
45, 10248.50, 46035.88, 1628.48, 21049.42, -2466.65, 440.13, 11639.63, -50215.61, -22484.63, 31464.64, 5974.84, 10147.54, 0.00, 0.00, 0.00, 0.00, 0.00, 0.00, 0.00
46, 10248.50, 46035.88, 1628.48, 21049.42, -2466.65, 440.13, 11639.63, -50215.61, -22480.89, 31457.24, 5974.38, 10175.65, 0.00, 0.00, 0.00, 0.00, -0.08, 0.33, 0.96
47, 10264.35, 46062.59, 1628.91, 21064.42, -2455.61, 452.24, 11659.12, -50197.68, -22480.89, 31457.24, 5974.38, 10175.65, 0.00, 0.00, 0.00, 0.00, 0.00, 0.00, 0.00
48, 10264.35, 46062.59, 1628.91, 21064.42, -2455.61, 452.24, 11659.12, -50197.68, -22483.80, 31475.66, 5991.52, 10138.19, 0.00, 0.00, 0.00, 0.00, 0.00, 0.00, 0.00
49, 10247.02, 46073.49, 1632.10, 21044.97, -2470.58, 438.85, 11641.26, -50214.78, -22483.80, 31475.66, 5991.52, 10138.19, 0.00, 0.00, 0.00, 0.00, 0.00, 0.00, 0.00
50, 10247.02, 46073.49, 1632.10, 21044.97, -2470.58, 438.85, 11641.26, -50214.78, -22491.13, 31453.93, 5977.21, 10177.53, 0.00, 0.00, 0.00, 0.00, 0.00, 0.00, 0.00
51, 10261.55, 46076.06, 1633.40, 21068.20, -2452.46, 453.29, 11659.68, -50201.23, -22491.13, 31453.93, 5977.21, 10177.53, 0.00, 0.00, 0.00, 0.00, 0.00, 0.00, 0.00
52, 10261.55, 46076.06, 1633.40, 21068.20, -2452.46, 453.29, 11659.68, -50201.23, -22492.52, 31473.94, 5991.65, 10213.54, 0.00, 0.00, 0.00, 0.00, 0.00, 0.00, 0.00
53, 10248.61, 46068.29, 1640.69, 21056.71, -2463.01, 448.20, 11650.13, -50212.75, -22492.52, 31473.94, 5991.65, 10213.54, 0.00, 0.00, 0.00, 0.00, 0.00, 0.00, 0.00
54, 10248.61, 46068.29, 1640.69, 21056.71, -2463.01, 448.20, 11650.13, -50212.75, -22481.50, 31459.52, 5984.52, 10204.62, 0.00, 0.00, 0.00, 0.00, 0.00, 0.00, 0.00
55, 10267.00, 46064.78, 1645.27, 21068.96, -2452.12, 458.08, 11663.45, -50197.75, -22481.50, 31459.52, 5984.52, 10204.62, 0.00, 0.00, 0.00, 0.00, -0.08, 0.33, 0.95
56, 10267.00, 46064.78, 1645.27, 21068.96, -2452.12, 458.08, 11663.45, -50197.75, -22491.08, 31483.28, 6000.53, 10150.64, 0.00, 0.00, 0.00, 0.00, 0.00, 0.00, 0.00
57, 10250.89, 46059.95, 1643.01, 21058.31, -2454.33, 448.29, 11657.91, -50204.16, -22491.08, 31483.28, 6000.53, 10150.64, 0.00, 0.00, 0.00, 0.00, 0.00, 0.00, 0.00
58, 10250.89, 46059.95, 1643.01, 21058.31, -2454.33, 448.29, 11657.91, -50204.16, -22483.33, 31464.24, 5982.65, 10200.06, 0.00, 0.00, 0.00, 0.00, 0.00, 0.00, 0.00
59, 10264.35, 46082.97, 1637.22, 21062.96, -2455.50, 453.43, 11663.81, -50199.63, -22483.33, 31464.24, 5982.65, 10200.06, 0.00, 0.00, 0.00, 0.00, 0.00, 0.00, 0.00
60, 10264.35, 46082.97, 1637.22, 21062.96, -2455.50, 453.43, 11663.81, -50199.63, -22497.16, 31485.29, 6002.23, 10213.14, 0.00, 0.00, 0.00, 0.00, 0.00, 0.00, 0.00
61, 10251.85, 46062.03, 1645.80, 21064.22, -2458.69, 455.82, 11662.76, -50200.23, -22497.16, 31485.29, 6002.23, 10213.14, 0.00, 0.00, 0.00, 0.00, 0.00, 0.00, 0.00
62, 10251.85, 46062.03, 1645.80, 21064.22, -2458.69, 455.82, 11662.76, -50200.23, -22484.49, 31458.11, 5996.64, 10205.85, 0.00, 0.00, 0.00, 0.00, 0.00, 0.00, 0.00
63, 10243.83, 46070.70, 1643.34, 21062.58, -2451.83, 453.90, 11664.37, -50199.80, -22484.49, 31458.11, 5996.64, 10205.85, 0.00, 0.00, 0.00, 0.00, 0.00, 0.00, 0.00
64, 10243.83, 46070.70, 1643.34, 21062.58, -2451.83, 453.90, 11664.37, -50199.80, -22494.41, 31483.39, 6004.59, 10187.81, 0.00, 0.00, 0.00, 0.00, 0.00, 0.00, 0.00
65, 10269.60, 46077.70, 1631.61, 21066.61, -2451.90, 458.17, 11667.86, -50195.78, -22494.41, 31483.39, 6004.59, 10187.81, 0.00, 0.00, 0.00, 0.00, -0.08, 0.33, 0.95
66, 10269.60, 46077.70, 1631.61, 21066.61, -2451.90, 458.17, 11667.86, -50195.78, -22489.21, 31461.96, 5996.12, 10191.70, 0.00, 0.00, 0.00, 0.00, 0.00, 0.00, 0.00
67, 10255.61, 46075.21, 1634.81, 21060.69, -2456.48, 450.59, 11662.36, -50201.14, -22489.21, 31461.96, 5996.12, 10191.70, 0.00, 0.00, 0.00, 0.00, 0.00, 0.00, 0.00
68, 10255.61, 46075.21, 1634.81, 21060.69, -2456.48, 450.59, 11662.36, -50201.14, -22497.52, 31477.56, 6004.08, 10178.09, 0.00, 0.00, 0.00, 0.00, 0.00, 0.00, 0.00
69, 10249.21, 46074.95, 1633.44, 21066.68, -2451.67, 460.09, 11670.99, -50195.58, -22497.52, 31477.56, 6004.08, 10178.09, 0.00, 0.00, 0.00, 0.00, 0.00, 0.00, 0.00
70, 10249.21, 46074.95, 1633.44, 21066.68, -2451.67, 460.09, 11670.99, -50195.58, -22488.45, 31463.10, 5994.80, 10158.33, 0.00, 0.00, 0.00, 0.00, 0.00, 0.00, 0.00
71, 10235.36, 46082.46, 1628.08, 21053.69, -2461.91, 449.67, 11659.70, -50200.83, -22488.45, 31463.10, 5994.80, 10158.33, 0.00, 0.00, 0.00, 0.00, 0.00, 0.00, 0.00
72, 10235.36, 46082.46, 1628.08, 21053.69, -2461.91, 449.67, 11659.70, -50200.83, -22487.75, 31488.98, 6009.51, 10193.45, 0.00, 0.00, 0.00, 0.00, 0.00, 0.00, 0.00
73, 10271.59, 46097.95, 1630.56, 21074.45, -2439.22, 467.26, 11682.16, -50180.60, -22487.75, 31488.98, 6009.51, 10193.45, 0.00, 0.00, 0.00, 0.00, 0.00, 0.00, 0.00
74, 10271.59, 46097.95, 1630.56, 21074.45, -2439.22, 467.26, 11682.16, -50180.60, -22481.03, 31472.89, 6004.95, 10197.49, 0.00, 0.00, 0.00, 0.00, 0.00, 0.00, 0.00
75, 10240.90, 46064.89, 1628.70, 21050.04, -2463.48, 448.93, 11659.09, -50202.87, -22481.03, 31472.89, 6004.95, 10197.49, 0.00, 0.00, 0.00, 0.00, -0.07, 0.33, 0.95
76, 10240.90, 46064.89, 1628.70, 21050.04, -2463.48, 448.93, 11659.09, -50202.87, -22491.49, 31477.29, 6009.96, 10194.12, 0.00, 0.00, 0.00, 0.00, 0.00, 0.00, 0.00
77, 10272.21, 46077.34, 1638.05, 21077.89, -2441.10, 471.47, 11686.72, -50181.86, -22491.49, 31477.29, 6009.96, 10194.12, 0.00, 0.00, 0.00, 0.00, 0.00, 0.00, 0.00
78, 10272.21, 46077.34, 1638.05, 21077.89, -2441.10, 471.47, 11686.72, -50181.86, -22485.59, 31475.01, 6007.46, 10192.10, 0.00, 0.00, 0.00, 0.00, 0.00, 0.00, 0.00
79, 10243.38, 46064.62, 1621.37, 21046.31, -2463.05, 448.06, 11659.81, -50202.57, -22485.59, 31475.01, 6007.46, 10192.10, 0.00, 0.00, 0.00, 0.00, 0.00, 0.00, 0.00
80, 10243.38, 46064.62, 1621.37, 21046.31, -2463.05, 448.06, 11659.81, -50202.57, -22495.33, 31476.87, 6001.80, 10173.44, 0.00, 0.00, 0.00, 0.00, 0.00, 0.00, 0.00
81, 10251.43, 46082.86, 1634.09, 21068.78, -2447.76, 463.46, 11683.19, -50185.03, -22495.33, 31476.87, 6001.80, 10173.44, 0.00, 0.00, 0.00, 0.00, 0.00, 0.00, 0.00
82, 10251.43, 46082.86, 1634.09, 21068.78, -2447.76, 463.46, 11683.19, -50185.03, -22495.87, 31465.02, 5998.25, 10254.56, 0.00, 0.00, 0.00, 0.00, 0.00, 0.00, 0.00
83, 10243.80, 46071.84, 1614.62, 21044.21, -2467.48, 443.70, 11660.61, -50203.43, -22495.87, 31465.02, 5998.25, 10254.56, 0.00, 0.00, 0.00, 0.00, 0.00, 0.00, 0.00
84, 10243.80, 46071.84, 1614.62, 21044.21, -2467.48, 443.70, 11660.61, -50203.43, -22488.83, 31478.92, 5997.69, 10175.85, 0.00, 0.00, 0.00, 0.00, 0.00, 0.00, 0.00
85, 10256.03, 46095.73, 1632.17, 21073.27, -2443.63, 468.76, 11692.87, -50173.29, -22488.83, 31478.92, 5997.69, 10175.85, 0.00, 0.00, 0.00, 0.00, -0.08, 0.33, 0.96
86, 10256.03, 46095.73, 1632.17, 21073.27, -2443.63, 468.76, 11692.87, -50173.29, -22482.46, 31486.90, 6009.87, 10199.08, 0.00, 0.00, 0.00, 0.00, 0.00, 0.00, 0.00
87, 10251.05, 46057.71, 1615.07, 21050.02, -2462.45, 452.69, 11668.75, -50193.43, -22482.46, 31486.90, 6009.87, 10199.08, 0.00, 0.00, 0.00, 0.00, 0.00, 0.00, 0.00
88, 10251.05, 46057.71, 1615.07, 21050.02, -2462.45, 452.69, 11668.75, -50193.43, -22486.75, 31474.29, 6003.50, 10241.39, 0.00, 0.00, 0.00, 0.00, 0.00, 0.00, 0.00
89, 10253.88, 46089.43, 1632.35, 21074.68, -2444.05, 468.63, 11690.36, -50177.45, -22486.75, 31474.29, 6003.50, 10241.39, 0.00, 0.00, 0.00, 0.00, 0.00, 0.00, 0.00
90, 10253.88, 46089.43, 1632.35, 21074.68, -2444.05, 468.63, 11690.36, -50177.45, -22491.62, 31479.39, 6007.88, 10192.01, 0.00, 0.00, 0.00, 0.00, 0.00, 0.00, 0.00
91, 10229.16, 46067.03, 1615.79, 21047.72, -2470.09, 444.93, 11662.56, -50201.79, -22491.62, 31479.39, 6007.88, 10192.01, 0.00, 0.00, 0.00, 0.00, 0.00, 0.00, 0.00
92, 10229.16, 46067.03, 1615.79, 21047.72, -2470.09, 444.93, 11662.56, -50201.79, -22500.58, 31462.78, 5991.81, 10208.38, 0.00, 0.00, 0.00, 0.00, 0.00, 0.00, 0.00
93, 10264.95, 46083.08, 1620.86, 21068.24, -2464.03, 461.83, 11679.01, -50190.41, -22500.58, 31462.78, 5991.81, 10208.38, 0.00, 0.00, 0.00, 0.00, 0.00, 0.00, 0.00
94, 10264.95, 46083.08, 1620.86, 21068.24, -2464.03, 461.83, 11679.01, -50190.41, -22510.26, 31471.50, 6000.88, 10231.04, 0.00, 0.00, 0.00, 0.00, -0.07, 0.34, 0.95
95, 10254.00, 46069.45, 1613.01, 21050.69, -2467.30, 446.97, 11662.49, -50202.91, -22510.26, 31471.50, 6000.88, 10231.04, 0.00, 0.00, 0.00, 0.00, 0.00, 0.00, 0.00
96, 10254.00, 46069.45, 1613.01, 21050.69, -2467.30, 446.97, 11662.49, -50202.91, -22499.36, 31464.86, 5996.59, 10168.17, 0.00, 0.00, 0.00, 0.00, 0.00, 0.00, 0.00
97, 10251.14, 46077.38, 1633.17, 21073.51, -2454.15, 467.35, 11690.16, -50178.84, -22499.36, 31464.86, 5996.59, 10168.17, 0.00, 0.00, 0.00, 0.00, 0.00, 0.00, 0.00
98, 10251.14, 46077.38, 1633.17, 21073.51, -2454.15, 467.35, 11690.16, -50178.84, -22505.81, 31483.12, 6004.89, 10186.87, 0.00, 0.00, 0.00, 0.00, 0.00, 0.00, 0.00
99, 10238.64, 46052.77, 1615.94, 21054.25, -2470.92, 450.34, 11665.60, -50202.93, -22505.81, 31483.12, 6004.89, 10186.87, 0.00, 0.00, 0.00, 0.00, 0.00, 0.00, 0.00
100, 10238.64, 46052.77, 1615.94, 21054.25, -2470.92, 450.34, 11665.60, -50202.93, -22508.14, 31456.73, 5986.27, 10241.30, 0.00, 0.00, 0.00, 0.00, 0.00, 0.00, 0.00
101, 10256.01, 46073.58, 1620.05, 21068.29, -2463.32, 461.94, 11682.43, -50189.54, -22508.14, 31456.73, 5986.27, 10241.30, 0.00, 0.00, 0.00, 0.00, 0.00, 0.00, 0.00
102, 10256.01, 46073.58, 1620.05, 21068.29, -2463.32, 461.94, 11682.43, -50189.54, -22521.42, 31469.76, 5996.50, 10180.35, 0.00, 0.00, 0.00, 0.00, 0.00, 0.00, 0.00
103, 10242.22, 46064.24, 1605.55, 21049.93, -2482.23, 448.04, 11664.08, -50206.78, -22521.42, 31469.76, 5996.50, 10180.35, 0.00, 0.00, 0.00, 0.00, 0.00, 0.00, 0.00
104, 10242.22, 46064.24, 1605.55, 21049.93, -2482.23, 448.04, 11664.08, -50206.78, -22515.43, 31450.69, 5979.72, 10206.45, 0.00, 0.00, 0.00, 0.00, -0.07, 0.33, 0.95
105, 10252.03, 46072.84, 1612.48, 21058.96, -2475.21, 457.12, 11676.66, -50192.45, -22515.43, 31450.69, 5979.72, 10206.45, 0.00, 0.00, 0.00, 0.00, 0.00, 0.00, 0.00
106, 10252.03, 46072.84, 1612.48, 21058.96, -2475.21, 457.12, 11676.66, -50192.45, -22520.90, 31473.02, 5995.68, 10251.05, 0.00, 0.00, 0.00, 0.00, 0.00, 0.00, 0.00
107, 10246.67, 46066.92, 1610.44, 21054.05, -2471.37, 451.42, 11670.40, -50197.95, -22520.90, 31473.02, 5995.68, 10251.05, 0.00, 0.00, 0.00, 0.00, 0.00, 0.00, 0.00
108, 10246.67, 46066.92, 1610.44, 21054.05, -2471.37, 451.42, 11670.40, -50197.95, -22516.19, 31455.05, 5987.12, 10155.74, 0.00, 0.00, 0.00, 0.00, 0.00, 0.00, 0.00
109, 10241.35, 46063.90, 1620.93, 21060.64, -2471.59, 458.05, 11679.14, -50190.75, -22516.19, 31455.05, 5987.12, 10155.74, 0.00, 0.00, 0.00, 0.00, 0.00, 0.00, 0.00
110, 10241.35, 46063.90, 1620.93, 21060.64, -2471.59, 458.05, 11679.14, -50190.75, -22522.91, 31475.52, 6002.52, 10252.68, 0.00, 0.00, 0.00, 0.00, 0.00, 0.00, 0.00
111, 10254.09, 46075.97, 1618.91, 21066.43, -2468.19, 461.61, 11681.00, -50189.01, -22522.91, 31475.52, 6002.52, 10252.68, 0.00, 0.00, 0.00, 0.00, 0.00, 0.00, 0.00
112, 10254.09, 46075.97, 1618.91, 21066.43, -2468.19, 461.61, 11681.00, -50189.01, -22509.35, 31461.60, 5992.88, 10247.56, 0.00, 0.00, 0.00, 0.00, 0.00, 0.00, 0.00
113, 10252.34, 46087.30, 1623.79, 21066.76, -2469.53, 461.97, 11683.73, -50186.15, -22509.35, 31461.60, 5992.88, 10247.56, 0.00, 0.00, 0.00, 0.00, 0.00, 0.00, 0.00
114, 10252.34, 46087.30, 1623.79, 21066.76, -2469.53, 461.97, 11683.73, -50186.15, -22516.77, 31484.49, 6006.70, 10196.02, 0.00, 0.00, 0.00, 0.00, -0.07, 0.33, 0.95
115, 10253.68, 46066.36, 1616.05, 21065.02, -2472.57, 462.14, 11683.68, -50189.03, -22516.77, 31484.49, 6006.70, 10196.02, 0.00, 0.00, 0.00, 0.00, 0.00, 0.00, 0.00
116, 10253.68, 46066.36, 1616.05, 21065.02, -2472.57, 462.14, 11683.68, -50189.03, -22519.36, 31455.21, 5985.57, 10196.51, 0.00, 0.00, 0.00, 0.00, 0.00, 0.00, 0.00
117, 10235.96, 46051.27, 1607.94, 21051.99, -2475.25, 451.26, 11673.22, -50198.60, -22519.36, 31455.21, 5985.57, 10196.51, 0.00, 0.00, 0.00, 0.00, 0.00, 0.00, 0.00
118, 10235.96, 46051.27, 1607.94, 21051.99, -2475.25, 451.26, 11673.22, -50198.60, -22521.08, 31474.21, 5999.45, 10256.34, 0.00, 0.00, 0.00, 0.00, 0.00, 0.00, 0.00
119, 10247.74, 46070.18, 1617.17, 21066.59, -2467.48, 463.17, 11690.68, -50182.01, -22521.08, 31474.21, 5999.45, 10256.34, 0.00, 0.00, 0.00, 0.00, 0.00, 0.00, 0.00
120, 10247.74, 46070.18, 1617.17, 21066.59, -2467.48, 463.17, 11690.68, -50182.01, -22515.18, 31457.44, 5985.08, 10202.72, 0.00, 0.00, 0.00, 0.00, 0.00, 0.00, 0.00
121, 10228.22, 46061.33, 1600.52, 21046.92, -2482.92, 449.02, 11672.26, -50198.64, -22515.18, 31457.44, 5985.08, 10202.72, 0.00, 0.00, 0.00, 0.00, 0.00, 0.00, 0.00
122, 10228.22, 46061.33, 1600.52, 21046.92, -2482.92, 449.02, 11672.26, -50198.64, -22517.66, 31481.65, 5997.78, 10202.63, 0.00, 0.00, 0.00, 0.00, 0.00, 0.00, 0.00
123, 10241.28, 46066.09, 1619.83, 21065.07, -2463.05, 464.34, 11691.15, -50177.90, -22517.66, 31481.65, 5997.78, 10202.63, 0.00, 0.00, 0.00, 0.00, 0.00, 0.00, 0.00
124, 10241.28, 46066.09, 1619.83, 21065.07, -2463.05, 464.34, 11691.15, -50177.90, -22518.42, 31456.39, 5994.09, 10250.02, 0.00, 0.00, 0.00, 0.00, -0.07, 0.34, 0.95
125, 10226.95, 46057.38, 1602.89, 21042.98, -2485.76, 445.85, 11668.39, -50200.65, -22518.42, 31456.39, 5994.09, 10250.02, 0.00, 0.00, 0.00, 0.00, 0.00, 0.00, 0.00
126, 10226.95, 46057.38, 1602.89, 21042.98, -2485.76, 445.85, 11668.39, -50200.65, -22517.37, 31473.47, 5998.96, 10246.33, 0.00, 0.00, 0.00, 0.00, 0.00, 0.00, 0.00
127, 10263.34, 46078.21, 1621.37, 21067.88, -2462.16, 466.64, 11697.43, -50171.44, -22517.37, 31473.47, 5998.96, 10246.33, 0.00, 0.00, 0.00, 0.00, 0.00, 0.00, 0.00
128, 10263.34, 46078.21, 1621.37, 21067.88, -2462.16, 466.64, 11697.43, -50171.44, -22511.98, 31464.42, 5998.69, 10161.75, 0.00, 0.00, 0.00, 0.00, 0.00, 0.00, 0.00
129, 10237.37, 46071.14, 1599.18, 21041.51, -2485.25, 445.16, 11670.43, -50197.46, -22511.98, 31464.42, 5998.69, 10161.75, 0.00, 0.00, 0.00, 0.00, 0.00, 0.00, 0.00
130, 10237.37, 46071.14, 1599.18, 21041.51, -2485.25, 445.16, 11670.43, -50197.46, -22508.90, 31468.86, 6005.11, 10286.70, 0.00, 0.00, 0.00, 0.00, 0.00, 0.00, 0.00
131, 10249.46, 46083.55, 1630.25, 21073.02, -2460.23, 469.68, 11699.98, -50170.99, -22508.90, 31468.86, 6005.11, 10286.70, 0.00, 0.00, 0.00, 0.00, 0.00, 0.00, 0.00
132, 10249.46, 46083.55, 1630.25, 21073.02, -2460.23, 469.68, 11699.98, -50170.99, -22506.75, 31472.60, 6002.11, 10251.54, 0.00, 0.00, 0.00, 0.00, 0.00, 0.00, 0.00
133, 10216.87, 46068.20, 1607.36, 21042.96, -2481.51, 448.06, 11672.04, -50193.25, -22506.75, 31472.60, 6002.11, 10251.54, 0.00, 0.00, 0.00, 0.00, -0.07, 0.33, 0.95
134, 10216.87, 46068.20, 1607.36, 21042.96, -2481.51, 448.06, 11672.04, -50193.25, -22505.14, 31479.01, 6002.29, 10187.25, 0.00, 0.00, 0.00, 0.00, 0.00, 0.00, 0.00
135, 10261.22, 46070.16, 1628.88, 21077.22, -2455.58, 470.59, 11704.20, -50166.23, -22505.14, 31479.01, 6002.29, 10187.25, 0.00, 0.00, 0.00, 0.00, 0.00, 0.00, 0.00
136, 10261.22, 46070.16, 1628.88, 21077.22, -2455.58, 470.59, 11704.20, -50166.23, -22508.05, 31464.97, 6008.33, 10276.93, 0.00, 0.00, 0.00, 0.00, 0.00, 0.00, 0.00
137, 10245.82, 46056.53, 1608.14, 21050.87, -2484.98, 452.22, 11674.70, -50197.88, -22508.05, 31464.97, 6008.33, 10276.93, 0.00, 0.00, 0.00, 0.00, 0.00, 0.00, 0.00
138, 10245.82, 46056.53, 1608.14, 21050.87, -2484.98, 452.22, 11674.70, -50197.88, -22506.13, 31467.28, 6000.93, 10257.91, 0.00, 0.00, 0.00, 0.00, 0.00, 0.00, 0.00
139, 10269.98, 46103.98, 1636.17, 21081.63, -2457.80, 474.64, 11705.34, -50167.91, -22506.13, 31467.28, 6000.93, 10257.91, 0.00, 0.00, 0.00, 0.00, 0.00, 0.00, 0.00
140, 10269.98, 46103.98, 1636.17, 21081.63, -2457.80, 474.64, 11705.34, -50167.91, -22511.13, 31473.00, 6012.78, 10220.07, 0.00, 0.00, 0.00, 0.00, 0.00, 0.00, 0.00
141, 10245.21, 46062.65, 1608.19, 21048.84, -2486.12, 448.69, 11672.62, -50200.81, -22511.13, 31473.00, 6012.78, 10220.07, 0.00, 0.00, 0.00, 0.00, 0.00, 0.00, 0.00
142, 10245.21, 46062.65, 1608.19, 21048.84, -2486.12, 448.69, 11672.62, -50200.81, -22513.59, 31459.48, 5993.91, 10233.72, 0.00, 0.00, 0.00, 0.00, 0.00, 0.00, 0.00
143, 10253.53, 46075.21, 1621.37, 21074.59, -2465.46, 471.11, 11703.13, -50168.49, -22513.59, 31459.48, 5993.91, 10233.72, 0.00, 0.00, 0.00, 0.00, -0.07, 0.33, 0.95
144, 10253.53, 46075.21, 1621.37, 21074.59, -2465.46, 471.11, 11703.13, -50168.49, -22511.40, 31480.38, 6002.43, 10187.08, 0.00, 0.00, 0.00, 0.00, 0.00, 0.00, 0.00
145, 10237.46, 46061.13, 1606.71, 21052.41, -2482.70, 450.66, 11677.85, -50190.86, -22511.40, 31480.38, 6002.43, 10187.08, 0.00, 0.00, 0.00, 0.00, 0.00, 0.00, 0.00
146, 10237.46, 46061.13, 1606.71, 21052.41, -2482.70, 450.66, 11677.85, -50190.86, -22501.75, 31462.16, 5994.36, 10261.78, 0.00, 0.00, 0.00, 0.00, 0.00, 0.00, 0.00
147, 10255.52, 46116.05, 1624.64, 21077.25, -2466.89, 467.49, 11700.58, -50175.15, -22501.75, 31462.16, 5994.36, 10261.78, 0.00, 0.00, 0.00, 0.00, 0.00, 0.00, 0.00
148, 10255.52, 46116.05, 1624.64, 21077.25, -2466.89, 467.49, 11700.58, -50175.15, -22515.56, 31470.29, 6004.68, 10267.77, 0.00, 0.00, 0.00, 0.00, 0.00, 0.00, 0.00
149, 10248.27, 46056.04, 1611.67, 21058.58, -2478.43, 453.65, 11681.98, -50191.27, -22515.56, 31470.29, 6004.68, 10267.77, 0.00, 0.00, 0.00, 0.00, 0.00, 0.00, 0.00
150, 10248.27, 46056.04, 1611.67, 21058.58, -2478.43, 453.65, 11681.98, -50191.27, -22506.57, 31459.12, 5994.58, 10206.77, 0.00, 0.00, 0.00, 0.00, 0.00, 0.00, 0.00
151, 10248.88, 46085.03, 1618.24, 21075.48, -2468.97, 466.86, 11699.86, -50174.30, -22506.57, 31459.12, 5994.58, 10206.77, 0.00, 0.00, 0.00, 0.00, 0.00, 0.00, 0.00
152, 10248.88, 46085.03, 1618.24, 21075.48, -2468.97, 466.86, 11699.86, -50174.30, -22513.12, 31478.99, 6003.41, 10235.02, 0.00, 0.00, 0.00, 0.00, 0.00, 0.00, 0.00
153, 10246.53, 46063.30, 1603.92, 21054.56, -2482.14, 454.86, 11681.04, -50190.08, -22513.12, 31478.99, 6003.41, 10235.02, 0.00, 0.00, 0.00, 0.00, -0.06, 0.33, 0.95
154, 10246.53, 46063.30, 1603.92, 21054.56, -2482.14, 454.86, 11681.04, -50190.08, -22508.00, 31459.16, 5980.77, 10269.58, 0.00, 0.00, 0.00, 0.00, 0.00, 0.00, 0.00
155, 10234.37, 46069.22, 1608.61, 21062.09, -2477.49, 460.47, 11693.74, -50180.00, -22508.00, 31459.16, 5980.77, 10269.58, 0.00, 0.00, 0.00, 0.00, 0.00, 0.00, 0.00
156, 10234.37, 46069.22, 1608.61, 21062.09, -2477.49, 460.47, 11693.74, -50180.00, -22512.81, 31483.59, 5995.61, 10257.08, 0.00, 0.00, 0.00, 0.00, 0.00, 0.00, 0.00
157, 10238.73, 46064.17, 1601.79, 21062.49, -2481.94, 458.23, 11686.52, -50184.65, -22512.81, 31483.59, 5995.61, 10257.08, 0.00, 0.00, 0.00, 0.00, 0.00, 0.00, 0.00
158, 10238.73, 46064.17, 1601.79, 21062.49, -2481.94, 458.23, 11686.52, -50184.65, -22509.03, 31451.59, 5981.95, 10240.50, 0.00, 0.00, 0.00, 0.00, 0.00, 0.00, 0.00
159, 10237.97, 46063.97, 1604.70, 21062.61, -2482.16, 457.65, 11689.47, -50185.48, -22509.03, 31451.59, 5981.95, 10240.50, 0.00, 0.00, 0.00, 0.00, 0.00, 0.00, 0.00
160, 10237.97, 46063.97, 1604.70, 21062.61, -2482.16, 457.65, 11689.47, -50185.48, -22515.02, 31474.90, 5994.69, 10246.35, 0.00, 0.00, 0.00, 0.00, 0.00, 0.00, 0.00
161, 10226.86, 46058.20, 1600.61, 21062.83, -2485.54, 458.10, 11688.20, -50189.21, -22515.02, 31474.90, 5994.69, 10246.35, 0.00, 0.00, 0.00, 0.00, 0.00, 0.00, 0.00
162, 10226.86, 46058.20, 1600.61, 21062.83, -2485.54, 458.10, 11688.20, -50189.21, -22513.66, 31450.76, 5967.20, 10268.64, 0.00, 0.00, 0.00, 0.00, 0.00, 0.00, 0.00
163, 10231.49, 46055.48, 1592.43, 21059.48, -2490.21, 453.70, 11682.79, -50190.95, -22513.66, 31450.76, 5967.20, 10268.64, 0.00, 0.00, 0.00, 0.00, -0.07, 0.33, 0.95
164, 10231.49, 46055.48, 1592.43, 21059.48, -2490.21, 453.70, 11682.79, -50190.95, -22515.94, 31471.03, 5983.11, 10244.45, 0.00, 0.00, 0.00, 0.00, 0.00, 0.00, 0.00
165, 10241.39, 46062.43, 1601.41, 21067.75, -2487.21, 461.38, 11689.76, -50188.34, -22515.94, 31471.03, 5983.11, 10244.45, 0.00, 0.00, 0.00, 0.00, 0.00, 0.00, 0.00
166, 10241.39, 46062.43, 1601.41, 21067.75, -2487.21, 461.38, 11689.76, -50188.34, -22514.98, 31444.37, 5969.66, 10256.75, 0.00, 0.00, 0.00, 0.00, 0.00, 0.00, 0.00
167, 10228.87, 46051.07, 1596.07, 21059.90, -2496.33, 452.04, 11680.93, -50197.32, -22514.98, 31444.37, 5969.66, 10256.75, 0.00, 0.00, 0.00, 0.00, 0.00, 0.00, 0.00
168, 10228.87, 46051.07, 1596.07, 21059.90, -2496.33, 452.04, 11680.93, -50197.32, -22518.17, 31467.90, 5986.67, 10256.66, 0.00, 0.00, 0.00, 0.00, 0.00, 0.00, 0.00
169, 10234.62, 46058.02, 1604.32, 21073.87, -2475.48, 465.14, 11697.38, -50181.52, -22518.17, 31467.90, 5986.67, 10256.66, 0.00, 0.00, 0.00, 0.00, 0.00, 0.00, 0.00
170, 10234.62, 46058.02, 1604.32, 21073.87, -2475.48, 465.14, 11697.38, -50181.52, -22512.21, 31456.53, 5977.88, 10201.92, 0.00, 0.00, 0.00, 0.00, 0.00, 0.00, 0.00
171, 10229.48, 46055.48, 1600.07, 21063.21, -2490.92, 454.30, 11682.83, -50192.07, -22512.21, 31456.53, 5977.88, 10201.92, 0.00, 0.00, 0.00, 0.00, 0.00, 0.00, 0.00
172, 10229.48, 46055.48, 1600.07, 21063.21, -2490.92, 454.30, 11682.83, -50192.07, -22515.04, 31470.61, 5990.67, 10193.83, 0.00, 0.00, 0.00, 0.00, -0.07, 0.33, 0.95
173, 10240.72, 46075.26, 1610.00, 21080.82, -2478.56, 468.78, 11702.28, -50177.77, -22515.04, 31470.61, 5990.67, 10193.83, 0.00, 0.00, 0.00, 0.00, 0.00, 0.00, 0.00
174, 10240.72, 46075.26, 1610.00, 21080.82, -2478.56, 468.78, 11702.28, -50177.77, -22515.07, 31452.30, 5980.23, 10312.38, 0.00, 0.00, 0.00, 0.00, 0.00, 0.00, 0.00
175, 10237.50, 46034.24, 1594.19, 21057.62, -2496.02, 451.19, 11681.49, -50196.52, -22515.07, 31452.30, 5980.23, 10312.38, 0.00, 0.00, 0.00, 0.00, 0.00, 0.00, 0.00
176, 10237.50, 46034.24, 1594.19, 21057.62, -2496.02, 451.19, 11681.49, -50196.52, -22516.28, 31468.95, 5985.98, 10252.01, 0.00, 0.00, 0.00, 0.00, 0.00, 0.00, 0.00
177, 10239.65, 46062.72, 1612.50, 21081.11, -2474.03, 472.94, 11706.10, -50173.79, -22516.28, 31468.95, 5985.98, 10252.01, 0.00, 0.00, 0.00, 0.00, 0.00, 0.00, 0.00
178, 10239.65, 46062.72, 1612.50, 21081.11, -2474.03, 472.94, 11706.10, -50173.79, -22514.13, 31457.67, 5983.23, 10241.88, 0.00, 0.00, 0.00, 0.00, 0.00, 0.00, 0.00
179, 10220.56, 46053.89, 1597.84, 21057.71, -2494.12, 451.95, 11679.17, -50197.32, -22514.13, 31457.67, 5983.23, 10241.88, 0.00, 0.00, 0.00, 0.00, 0.00, 0.00, 0.00
180, 10220.56, 46053.89, 1597.84, 21057.71, -2494.12, 451.95, 11679.17, -50197.32, -22503.24, 31474.56, 5990.09, 10296.93, 0.00, 0.00, 0.00, 0.00, 0.00, 0.00, 0.00
181, 10245.17, 46092.92, 1611.25, 21082.52, -2475.10, 471.64, 11710.82, -50166.84, -22503.24, 31474.56, 5990.09, 10296.93, 0.00, 0.00, 0.00, 0.00, 0.00, 0.00, 0.00
182, 10245.17, 46092.92, 1611.25, 21082.52, -2475.10, 471.64, 11710.82, -50166.84, -22514.15, 31455.54, 5989.82, 10260.05, 0.00, 0.00, 0.00, 0.00, -0.07, 0.33, 0.95
183, 10227.96, 46044.32, 1593.19, 21059.70, -2493.29, 452.33, 11679.84, -50199.20, -22514.15, 31455.54, 5989.82, 10260.05, 0.00, 0.00, 0.00, 0.00, 0.00, 0.00, 0.00
184, 10227.96, 46044.32, 1593.19, 21059.70, -2493.29, 452.33, 11679.84, -50199.20, -22512.52, 31457.84, 5980.28, 10213.90, 0.00, 0.00, 0.00, 0.00, 0.00, 0.00, 0.00
185, 10249.59, 46081.27, 1617.17, 21088.07, -2470.25, 475.71, 11713.79, -50167.15, -22512.52, 31457.84, 5980.28, 10213.90, 0.00, 0.00, 0.00, 0.00, 0.00, 0.00, 0.00
186, 10249.59, 46081.27, 1617.17, 21088.07, -2470.25, 475.71, 11713.79, -50167.15, -22509.77, 31476.42, 5996.12, 10273.69, 0.00, 0.00, 0.00, 0.00, 0.00, 0.00, 0.00
187, 10202.50, 46020.32, 1595.71, 21054.56, -2502.12, 448.73, 11678.12, -50197.14, -22509.77, 31476.42, 5996.12, 10273.69, 0.00, 0.00, 0.00, 0.00, 0.00, 0.00, 0.00
188, 10202.50, 46020.32, 1595.71, 21054.56, -2502.12, 448.73, 11678.12, -50197.14, -22504.96, 31459.81, 5983.74, 10310.95, 0.00, 0.00, 0.00, 0.00, 0.00, 0.00, 0.00
189, 10244.18, 46073.36, 1608.97, 21083.15, -2469.04, 472.99, 11710.70, -50169.65, -22504.96, 31459.81, 5983.74, 10310.95, 0.00, 0.00, 0.00, 0.00, 0.00, 0.00, 0.00
190, 10244.18, 46073.36, 1608.97, 21083.15, -2469.04, 472.99, 11710.70, -50169.65, -22502.93, 31476.11, 5994.47, 10252.61, 0.00, 0.00, 0.00, 0.00, 0.00, 0.00, 0.00
191, 10233.68, 46072.22, 1598.02, 21061.29, -2490.16, 458.43, 11691.30, -50185.18, -22502.93, 31476.11, 5994.47, 10252.61, 0.00, 0.00, 0.00, 0.00, 0.00, 0.00, 0.00
192, 10233.68, 46072.22, 1598.02, 21061.29, -2490.16, 458.43, 11691.30, -50185.18, -22499.76, 31464.28, 5988.32, 10242.44, 0.00, 0.00, 0.00, 0.00, -0.07, 0.33, 0.95
193, 10239.04, 46085.16, 1615.81, 21086.46, -2473.04, 475.69, 11712.18, -50169.45, -22499.76, 31464.28, 5988.32, 10242.44, 0.00, 0.00, 0.00, 0.00, 0.00, 0.00, 0.00
194, 10239.04, 46085.16, 1615.81, 21086.46, -2473.04, 475.69, 11712.18, -50169.45, -22511.40, 31467.43, 5992.79, 10265.04, 0.00, 0.00, 0.00, 0.00, 0.00, 0.00, 0.00
195, 10222.30, 46040.95, 1588.61, 21058.07, -2495.55, 453.38, 11683.97, -50195.49, -22511.40, 31467.43, 5992.79, 10265.04, 0.00, 0.00, 0.00, 0.00, 0.00, 0.00, 0.00
196, 10222.30, 46040.95, 1588.61, 21058.07, -2495.55, 453.38, 11683.97, -50195.49, -22503.89, 31453.04, 5978.76, 10249.03, 0.00, 0.00, 0.00, 0.00, 0.00, 0.00, 0.00
197, 10238.48, 46062.77, 1600.14, 21076.26, -2480.19, 467.93, 11708.47, -50172.11, -22503.89, 31453.04, 5978.76, 10249.03, 0.00, 0.00, 0.00, 0.00, 0.00, 0.00, 0.00
198, 10238.48, 46062.77, 1600.14, 21076.26, -2480.19, 467.93, 11708.47, -50172.11, -22513.12, 31472.42, 5988.28, 10241.93, 0.00, 0.00, 0.00, 0.00, 0.00, 0.00, 0.00
199, 10216.92, 46051.90, 1593.05, 21060.86, -2493.07, 455.53, 11687.15, -50193.34, -22513.12, 31472.42, 5988.28, 10241.93, 0.00, 0.00, 0.00, 0.00, 0.00, 0.00, 0.00
200, 10216.92, 46051.90, 1593.05, 21060.86, -2493.07, 455.53, 11687.15, -50193.34, -22499.31, 31455.70, 5984.30, 10307.82, 0.00, 0.00, 0.00, 0.00, 0.00, 0.00, 0.00
201, 10234.98, 46081.67, 1601.19, 21074.21, -2481.02, 465.61, 11707.89, -50172.80, -22499.31, 31455.70, 5984.30, 10307.82, 0.00, 0.00, 0.00, 0.00, 0.00, 0.00, 0.00
202, 10234.98, 46081.67, 1601.19, 21074.21, -2481.02, 465.61, 11707.89, -50172.80, -22509.05, 31475.90, 5994.51, 10262.38, 0.00, 0.00, 0.00, 0.00, -0.07, 0.33, 0.95
203, 10231.82, 46044.52, 1598.89, 21063.37, -2488.24, 457.52, 11693.05, -50186.39, -22509.05, 31475.90, 5994.51, 10262.38, 0.00, 0.00, 0.00, 0.00, 0.00, 0.00, 0.00
204, 10231.82, 46044.52, 1598.89, 21063.37, -2488.24, 457.52, 11693.05, -50186.39, -22496.20, 31457.46, 5984.95, 10280.48, 0.00, 0.00, 0.00, 0.00, 0.00, 0.00, 0.00
205, 10229.79, 46055.30, 1598.93, 21072.69, -2484.13, 466.44, 11702.50, -50176.54, -22496.20, 31457.46, 5984.95, 10280.48, 0.00, 0.00, 0.00, 0.00, 0.00, 0.00, 0.00
206, 10229.79, 46055.30, 1598.93, 21072.69, -2484.13, 466.44, 11702.50, -50176.54, -22509.97, 31472.26, 5989.46, 10257.46, 0.00, 0.00, 0.00, 0.00, 0.00, 0.00, 0.00
207, 10208.29, 46042.38, 1602.13, 21066.56, -2491.01, 459.82, 11697.41, -50183.11, -22509.97, 31472.26, 5989.46, 10257.46, 0.00, 0.00, 0.00, 0.00, 0.00, 0.00, 0.00
208, 10208.29, 46042.38, 1602.13, 21066.56, -2491.01, 459.82, 11697.41, -50183.11, -22501.28, 31451.59, 5975.96, 10217.12, 0.00, 0.00, 0.00, 0.00, 0.00, 0.00, 0.00
209, 10219.53, 46057.33, 1596.54, 21063.34, -2490.30, 454.17, 11692.22, -50184.11, -22501.28, 31451.59, 5975.96, 10217.12, 0.00, 0.00, 0.00, 0.00, 0.00, 0.00, 0.00
210, 10219.53, 46057.33, 1596.54, 21063.34, -2490.30, 454.17, 11692.22, -50184.11, -22508.43, 31470.88, 5987.94, 10317.56, 0.00, 0.00, 0.00, 0.00, 0.00, 0.00, 0.00
211, 10225.90, 46076.18, 1598.62, 21071.99, -2485.49, 462.10, 11701.76, -50179.57, -22508.43, 31470.88, 5987.94, 10317.56, 0.00, 0.00, 0.00, 0.00, -0.07, 0.32, 0.95
212, 10225.90, 46076.18, 1598.62, 21071.99, -2485.49, 462.10, 11701.76, -50179.57, -22500.45, 31455.16, 5974.82, 10274.27, 0.00, 0.00, 0.00, 0.00, 0.00, 0.00, 0.00
213, 10232.67, 46048.97, 1591.18, 21061.15, -2492.69, 455.33, 11693.76, -50184.20, -22500.45, 31455.16, 5974.82, 10274.27, 0.00, 0.00, 0.00, 0.00, 0.00, 0.00, 0.00
214, 10232.67, 46048.97, 1591.18, 21061.15, -2492.69, 455.33, 11693.76, -50184.20, -22505.86, 31473.15, 5991.76, 10248.41, 0.00, 0.00, 0.00, 0.00, 0.00, 0.00, 0.00
215, 10235.11, 46077.80, 1616.81, 21080.29, -2479.68, 470.86, 11710.35, -50170.99, -22505.86, 31473.15, 5991.76, 10248.41, 0.00, 0.00, 0.00, 0.00, 0.00, 0.00, 0.00
216, 10235.11, 46077.80, 1616.81, 21080.29, -2479.68, 470.86, 11710.35, -50170.99, -22501.30, 31455.32, 5981.77, 10261.10, 0.00, 0.00, 0.00, 0.00, 0.00, 0.00, 0.00
217, 10212.31, 46036.37, 1592.20, 21057.31, -2498.03, 450.81, 11688.82, -50190.10, -22501.30, 31455.32, 5981.77, 10261.10, 0.00, 0.00, 0.00, 0.00, 0.00, 0.00, 0.00
218, 10212.31, 46036.37, 1592.20, 21057.31, -2498.03, 450.81, 11688.82, -50190.10, -22511.07, 31466.70, 5980.86, 10287.30, 0.00, 0.00, 0.00, 0.00, 0.00, 0.00, 0.00
219, 10236.27, 46075.59, 1608.63, 21080.02, -2483.97, 468.16, 11708.09, -50173.05, -22511.07, 31466.70, 5980.86, 10287.30, 0.00, 0.00, 0.00, 0.00, 0.00, 0.00, 0.00
220, 10236.27, 46075.59, 1608.63, 21080.02, -2483.97, 468.16, 11708.09, -50173.05, -22506.17, 31455.81, 5973.24, 10258.02, 0.00, 0.00, 0.00, 0.00, 0.00, 0.00, 0.00
221, 10202.90, 46048.62, 1587.44, 21053.60, -2503.42, 449.25, 11687.64, -50191.29, -22506.17, 31455.81, 5973.24, 10258.02, 0.00, 0.00, 0.00, 0.00, -0.08, 0.33, 0.95
222, 10202.90, 46048.62, 1587.44, 21053.60, -2503.42, 449.25, 11687.64, -50191.29, -22502.19, 31465.33, 5984.72, 10279.95, 0.00, 0.00, 0.00, 0.00, 0.00, 0.00, 0.00
223, 10233.88, 46065.13, 1604.97, 21080.73, -2477.96, 470.46, 11712.92, -50168.04, -22502.19, 31465.33, 5984.72, 10279.95, 0.00, 0.00, 0.00, 0.00, 0.00, 0.00, 0.00
224, 10233.88, 46065.13, 1604.97, 21080.73, -2477.96, 470.46, 11712.92, -50168.04, -22499.53, 31457.26, 5979.31, 10249.79, 0.00, 0.00, 0.00, 0.00, 0.00, 0.00, 0.00
225, 10216.02, 46050.18, 1592.18, 21060.10, -2495.82, 450.83, 11689.38, -50189.95, -22499.53, 31457.26, 5979.31, 10249.79, 0.00, 0.00, 0.00, 0.00, 0.00, 0.00, 0.00
226, 10216.02, 46050.18, 1592.18, 21060.10, -2495.82, 450.83, 11689.38, -50189.95, -22506.33, 31460.39, 5980.90, 10270.54, 0.00, 0.00, 0.00, 0.00, 0.00, 0.00, 0.00
227, 10225.74, 46062.29, 1599.94, 21075.01, -2481.76, 465.43, 11711.73, -50170.30, -22506.33, 31460.39, 5980.90, 10270.54, 0.00, 0.00, 0.00, 0.00, 0.00, 0.00, 0.00
228, 10225.74, 46062.29, 1599.94, 21075.01, -2481.76, 465.43, 11711.73, -50170.30, -22507.04, 31458.00, 5971.54, 10292.80, 0.00, 0.00, 0.00, 0.00, 0.00, 0.00, 0.00
229, 10210.54, 46034.00, 1591.18, 21057.02, -2507.91, 449.85, 11688.67, -50192.20, -22507.04, 31458.00, 5971.54, 10292.80, 0.00, 0.00, 0.00, 0.00, 0.00, 0.00, 0.00
230, 10210.54, 46034.00, 1591.18, 21057.02, -2507.91, 449.85, 11688.67, -50192.20, -22506.08, 31456.50, 5972.05, 10281.06, 0.00, 0.00, 0.00, 0.00, 0.00, 0.00, 0.00
231, 10228.54, 46066.72, 1605.95, 21076.67, -2482.54, 469.27, 11709.52, -50172.64, -22506.08, 31456.50, 5972.05, 10281.06, 0.00, 0.00, 0.00, 0.00, -0.07, 0.33, 0.95
232, 10228.54, 46066.72, 1605.95, 21076.67, -2482.54, 469.27, 11709.52, -50172.64, -22502.73, 31461.98, 5975.58, 10286.38, 0.00, 0.00, 0.00, 0.00, 0.00, 0.00, 0.00
233, 10214.93, 46057.94, 1582.95, 21061.15, -2495.10, 455.13, 11693.38, -50183.42, -22502.73, 31461.98, 5975.58, 10286.38, 0.00, 0.00, 0.00, 0.00, 0.00, 0.00, 0.00
234, 10214.93, 46057.94, 1582.95, 21061.15, -2495.10, 455.13, 11693.38, -50183.42, -22496.56, 31465.44, 5976.99, 10281.96, 0.00, 0.00, 0.00, 0.00, 0.00, 0.00, 0.00
235, 10226.93, 46059.95, 1612.03, 21081.52, -2477.44, 472.09, 11718.71, -50161.14, -22496.56, 31465.44, 5976.99, 10281.96, 0.00, 0.00, 0.00, 0.00, 0.00, 0.00, 0.00
236, 10226.93, 46059.95, 1612.03, 21081.52, -2477.44, 472.09, 11718.71, -50161.14, -22498.46, 31468.48, 5991.76, 10293.34, 0.00, 0.00, 0.00, 0.00, 0.00, 0.00, 0.00
237, 10222.21, 46058.61, 1594.91, 21060.51, -2489.96, 454.01, 11698.61, -50178.19, -22498.46, 31468.48, 5991.76, 10293.34, 0.00, 0.00, 0.00, 0.00, 0.00, 0.00, 0.00
238, 10222.21, 46058.61, 1594.91, 21060.51, -2489.96, 454.01, 11698.61, -50178.19, -22498.91, 31465.20, 5985.26, 10232.83, 0.00, 0.00, 0.00, 0.00, 0.00, 0.00, 0.00
239, 10233.66, 46074.25, 1606.35, 21079.95, -2481.24, 471.93, 11719.51, -50160.40, -22498.91, 31465.20, 5985.26, 10232.83, 0.00, 0.00, 0.00, 0.00, 0.00, 0.00, 0.00
240, 10233.66, 46074.25, 1606.35, 21079.95, -2481.24, 471.93, 11719.51, -50160.40, -22499.15, 31476.15, 5991.05, 10288.08, 0.00, 0.00, 0.00, 0.00, 0.00, 0.00, 0.00
241, 10227.89, 46055.48, 1598.95, 21063.10, -2486.85, 456.36, 11700.13, -50175.02, -22499.15, 31476.15, 5991.05, 10288.08, 0.00, 0.00, 0.00, 0.00, -0.07, 0.33, 0.96
242, 10227.89, 46055.48, 1598.95, 21063.10, -2486.85, 456.36, 11700.13, -50175.02, -22496.85, 31458.63, 5981.64, 10290.85, 0.00, 0.00, 0.00, 0.00, 0.00, 0.00, 0.00
243, 10229.63, 46075.57, 1612.75, 21079.88, -2477.62, 470.73, 11714.66, -50167.80, -22496.85, 31458.63, 5981.64, 10290.85, 0.00, 0.00, 0.00, 0.00, 0.00, 0.00, 0.00
244, 10229.63, 46075.57, 1612.75, 21079.88, -2477.62, 470.73, 11714.66, -50167.80, -22506.44, 31463.92, 5985.01, 10258.82, 0.00, 0.00, 0.00, 0.00, 0.00, 0.00, 0.00
245, 10220.00, 46076.02, 1595.89, 21061.60, -2493.69, 457.14, 11697.79, -50181.68, -22506.44, 31463.92, 5985.01, 10258.82, 0.00, 0.00, 0.00, 0.00, 0.00, 0.00, 0.00
246, 10220.00, 46076.02, 1595.89, 21061.60, -2493.69, 457.14, 11697.79, -50181.68, -22497.97, 31459.61, 5975.54, 10333.73, 0.00, 0.00, 0.00, 0.00, 0.00, 0.00, 0.00
247, 10229.99, 46068.44, 1599.22, 21074.97, -2488.06, 466.53, 11713.72, -50165.32, -22497.97, 31459.61, 5975.54, 10333.73, 0.00, 0.00, 0.00, 0.00, 0.00, 0.00, 0.00
248, 10229.99, 46068.44, 1599.22, 21074.97, -2488.06, 466.53, 11713.72, -50165.32, -22503.80, 31472.17, 5984.01, 10269.06, 0.00, 0.00, 0.00, 0.00, 0.00, 0.00, 0.00
249, 10213.96, 46031.05, 1593.81, 21062.21, -2488.82, 458.08, 11701.00, -50175.73, -22503.80, 31472.17, 5984.01, 10269.06, 0.00, 0.00, 0.00, 0.00, 0.00, 0.00, 0.00
250, 10213.96, 46031.05, 1593.81, 21062.21, -2488.82, 458.08, 11701.00, -50175.73, -22492.07, 31459.48, 5977.57, 10251.56, 0.00, 0.00, 0.00, 0.00, -0.07, 0.33, 0.95
251, 10212.02, 46060.35, 1611.38, 21076.22, -2479.01, 466.95, 11715.40, -50163.53, -22492.07, 31459.48, 5977.57, 10251.56, 0.00, 0.00, 0.00, 0.00, 0.00, 0.00, 0.00
252, 10212.02, 46060.35, 1611.38, 21076.22, -2479.01, 466.95, 11715.40, -50163.53, -22498.46, 31471.93, 5990.58, 10328.63, 0.00, 0.00, 0.00, 0.00, 0.00, 0.00, 0.00
253, 10227.98, 46063.41, 1597.28, 21067.10, -2488.49, 462.59, 11702.81, -50174.81, -22498.46, 31471.93, 5990.58, 10328.63, 0.00, 0.00, 0.00, 0.00, 0.00, 0.00, 0.00
254, 10227.98, 46063.41, 1597.28, 21067.10, -2488.49, 462.59, 11702.81, -50174.81, -22491.02, 31459.63, 5978.85, 10310.95, 0.00, 0.00, 0.00, 0.00, 0.00, 0.00, 0.00
255, 10216.87, 46071.08, 1602.82, 21071.90, -2488.64, 464.38, 11712.78, -50166.34, -22491.02, 31459.63, 5978.85, 10310.95, 0.00, 0.00, 0.00, 0.00, 0.00, 0.00, 0.00
0, 10216.87, 46071.08, 1602.82, 21071.90, -2488.64, 464.38, 11712.78, -50166.34, -22497.30, 31472.91, 5990.02, 10270.92, 0.00, 0.00, 0.00, 0.00, 0.00, 0.00, 0.00
1, 10223.53, 46067.86, 1594.93, 21069.31, -2481.76, 463.93, 11707.87, -50172.98, -22497.30, 31472.91, 5990.02, 10270.92, 0.00, 0.00, 0.00, 0.00, 0.00, 0.00, 0.00
2, 10223.53, 46067.86, 1594.93, 21069.31, -2481.76, 463.93, 11707.87, -50172.98, -22496.81, 31453.08, 5974.31, 10287.61, 0.00, 0.00, 0.00, 0.00, 0.00, 0.00, 0.00
3, 10214.70, 46050.92, 1597.23, 21067.57, -2490.30, 459.80, 11705.92, -50172.87, -22496.81, 31453.08, 5974.31, 10287.61, 0.00, 0.00, 0.00, 0.00, 0.00, 0.00, 0.00
4, 10214.70, 46050.92, 1597.23, 21067.57, -2490.30, 459.80, 11705.92, -50172.87, -22500.94, 31467.30, 5987.61, 10325.57, 0.00, 0.00, 0.00, 0.00, -0.07, 0.32, 0.95
5, 10214.86, 46045.55, 1599.80, 21066.14, -2489.18, 459.22, 11705.61, -50172.69, -22500.94, 31467.30, 5987.61, 10325.57, 0.00, 0.00, 0.00, 0.00, 0.00, 0.00, 0.00
6, 10214.86, 46045.55, 1599.80, 21066.14, -2489.18, 459.22, 11705.61, -50172.69, -22498.37, 31452.52, 5973.50, 10287.03, 0.00, 0.00, 0.00, 0.00, 0.00, 0.00, 0.00
7, 10212.91, 46063.86, 1602.84, 21064.55, -2491.28, 457.34, 11701.92, -50173.94, -22498.37, 31452.52, 5973.50, 10287.03, 0.00, 0.00, 0.00, 0.00, 0.00, 0.00, 0.00
8, 10212.91, 46063.86, 1602.84, 21064.55, -2491.28, 457.34, 11701.92, -50173.94, -22500.74, 31469.13, 5983.38, 10250.60, 0.00, 0.00, 0.00, 0.00, 0.00, 0.00, 0.00
9, 10222.48, 46068.98, 1592.94, 21074.72, -2485.47, 466.41, 11711.98, -50170.72, -22500.74, 31469.13, 5983.38, 10250.60, 0.00, 0.00, 0.00, 0.00, 0.00, 0.00, 0.00
10, 10222.48, 46068.98, 1592.94, 21074.72, -2485.47, 466.41, 11711.98, -50170.72, -22497.72, 31457.67, 5974.35, 10312.36, 0.00, 0.00, 0.00, 0.00, 0.00, 0.00, 0.00
11, 10215.84, 46048.10, 1586.59, 21061.56, -2495.75, 454.10, 11698.70, -50181.86, -22497.72, 31457.67, 5974.35, 10312.36, 0.00, 0.00, 0.00, 0.00, 0.00, 0.00, 0.00
12, 10215.84, 46048.10, 1586.59, 21061.56, -2495.75, 454.10, 11698.70, -50181.86, -22500.70, 31462.34, 5983.49, 10304.04, 0.00, 0.00, 0.00, 0.00, 0.00, 0.00, 0.00
13, 10227.76, 46077.79, 1605.48, 21076.55, -2485.02, 463.51, 11713.43, -50168.71, -22500.70, 31462.34, 5983.49, 10304.04, 0.00, 0.00, 0.00, 0.00, 0.00, 0.00, 0.00
14, 10227.76, 46077.79, 1605.48, 21076.55, -2485.02, 463.51, 11713.43, -50168.71, -22494.26, 31456.90, 5978.58, 10287.37, 0.00, 0.00, 0.00, 0.00, -0.08, 0.33, 0.95
15, 10210.81, 46063.01, 1594.51, 21063.14, -2492.47, 454.08, 11698.92, -50180.56, -22494.26, 31456.90, 5978.58, 10287.37, 0.00, 0.00, 0.00, 0.00, 0.00, 0.00, 0.00
16, 10210.81, 46063.01, 1594.51, 21063.14, -2492.47, 454.08, 11698.92, -50180.56, -22491.62, 31474.63, 5987.16, 10312.47, 0.00, 0.00, 0.00, 0.00, 0.00, 0.00, 0.00
17, 10230.13, 46057.51, 1604.16, 21079.53, -2481.83, 466.86, 11718.17, -50162.10, -22491.62, 31474.63, 5987.16, 10312.47, 0.00, 0.00, 0.00, 0.00, 0.00, 0.00, 0.00
18, 10230.13, 46057.51, 1604.16, 21079.53, -2481.83, 466.86, 11718.17, -50162.10, -22494.33, 31453.46, 5977.12, 10334.78, 0.00, 0.00, 0.00, 0.00, 0.00, 0.00, 0.00
19, 10211.26, 46058.92, 1589.07, 21059.86, -2496.53, 453.05, 11697.05, -50182.68, -22494.33, 31453.46, 5977.12, 10334.78, 0.00, 0.00, 0.00, 0.00, 0.00, 0.00, 0.00
20, 10211.26, 46058.92, 1589.07, 21059.86, -2496.53, 453.05, 11697.05, -50182.68, -22494.73, 31460.01, 5976.32, 10282.99, 0.00, 0.00, 0.00, 0.00, 0.00, 0.00, 0.00
21, 10226.50, 46064.66, 1604.48, 21076.64, -2484.08, 466.08, 11717.01, -50165.34, -22494.73, 31460.01, 5976.32, 10282.99, 0.00, 0.00, 0.00, 0.00, 0.00, 0.00, 0.00
22, 10226.50, 46064.66, 1604.48, 21076.64, -2484.08, 466.08, 11717.01, -50165.34, -22493.83, 31458.83, 5973.44, 10301.61, 0.00, 0.00, 0.00, 0.00, 0.00, 0.00, 0.00
23, 10205.34, 46043.39, 1594.48, 21056.39, -2498.25, 449.36, 11695.68, -50182.53, -22493.83, 31458.83, 5973.44, 10301.61, 0.00, 0.00, 0.00, 0.00, 0.00, 0.00, 0.00
24, 10205.34, 46043.39, 1594.48, 21056.39, -2498.25, 449.36, 11695.68, -50182.53, -22488.51, 31457.96, 5984.05, 10332.18, 0.00, 0.00, 0.00, 0.00, -0.07, 0.33, 0.95
25, 10226.48, 46077.58, 1601.41, 21079.24, -2481.16, 465.39, 11717.66, -50165.52, -22488.51, 31457.96, 5984.05, 10332.18, 0.00, 0.00, 0.00, 0.00, 0.00, 0.00, 0.00
26, 10226.48, 46077.58, 1601.41, 21079.24, -2481.16, 465.39, 11717.66, -50165.52, -22488.11, 31464.82, 5983.61, 10292.49, 0.00, 0.00, 0.00, 0.00, 0.00, 0.00, 0.00
27, 10209.34, 46058.02, 1591.85, 21059.97, -2499.26, 450.88, 11697.56, -50180.02, -22488.11, 31464.82, 5983.61, 10292.49, 0.00, 0.00, 0.00, 0.00, 0.00, 0.00, 0.00
28, 10209.34, 46058.02, 1591.85, 21059.97, -2499.26, 450.88, 11697.56, -50180.02, -22488.56, 31460.77, 5973.01, 10219.31, 0.00, 0.00, 0.00, 0.00, 0.00, 0.00, 0.00
29, 10212.15, 46071.79, 1603.27, 21076.02, -2482.72, 464.63, 11715.06, -50164.58, -22488.56, 31460.77, 5973.01, 10219.31, 0.00, 0.00, 0.00, 0.00, 0.00, 0.00, 0.00
30, 10212.15, 46071.79, 1603.27, 21076.02, -2482.72, 464.63, 11715.06, -50164.58, -22490.44, 31461.17, 5979.69, 10372.35, 0.00, 0.00, 0.00, 0.00, 0.00, 0.00, 0.00
31, 10219.96, 46053.98, 1587.02, 21060.62, -2497.45, 450.23, 11697.32, -50182.32, -22490.44, 31461.17, 5979.69, 10372.35, 0.00, 0.00, 0.00, 0.00, 0.00, 0.00, 0.00
32, 10219.96, 46053.98, 1587.02, 21060.62, -2497.45, 450.23, 11697.32, -50182.32, -22491.73, 31458.76, 5972.77, 10281.44, 0.00, 0.00, 0.00, 0.00, 0.00, 0.00, 0.00
33, 10227.55, 46055.63, 1598.80, 21078.07, -2488.24, 465.36, 11714.86, -50167.10, -22491.73, 31458.76, 5972.77, 10281.44, 0.00, 0.00, 0.00, 0.00, -0.07, 0.33, 0.95
34, 10227.55, 46055.63, 1598.80, 21078.07, -2488.24, 465.36, 11714.86, -50167.10, -22490.01, 31465.15, 5982.62, 10305.96, 0.00, 0.00, 0.00, 0.00, 0.00, 0.00, 0.00
35, 10205.40, 46060.20, 1592.05, 21060.48, -2498.37, 451.95, 11700.67, -50179.06, -22490.01, 31465.15, 5982.62, 10305.96, 0.00, 0.00, 0.00, 0.00, 0.00, 0.00, 0.00
36, 10205.40, 46060.20, 1592.05, 21060.48, -2498.37, 451.95, 11700.67, -50179.06, -22482.43, 31463.52, 5975.14, 10329.75, 0.00, 0.00, 0.00, 0.00, 0.00, 0.00, 0.00
37, 10219.11, 46065.36, 1608.10, 21077.74, -2484.20, 463.82, 11719.06, -50161.52, -22482.43, 31463.52, 5975.14, 10329.75, 0.00, 0.00, 0.00, 0.00, 0.00, 0.00, 0.00
38, 10219.11, 46065.36, 1608.10, 21077.74, -2484.20, 463.82, 11719.06, -50161.52, -22485.23, 31469.02, 5984.52, 10321.83, 0.00, 0.00, 0.00, 0.00, 0.00, 0.00, 0.00
39, 10215.86, 46067.41, 1588.63, 21063.23, -2491.41, 452.80, 11700.00, -50179.31, -22485.23, 31469.02, 5984.52, 10321.83, 0.00, 0.00, 0.00, 0.00, 0.00, 0.00, 0.00
40, 10215.86, 46067.41, 1588.63, 21063.23, -2491.41, 452.80, 11700.00, -50179.31, -22484.87, 31453.91, 5973.17, 10280.59, 0.00, 0.00, 0.00, 0.00, 0.00, 0.00, 0.00
41, 10215.33, 46070.99, 1602.46, 21077.69, -2488.42, 463.73, 11712.47, -50167.44, -22484.87, 31453.91, 5973.17, 10280.59, 0.00, 0.00, 0.00, 0.00, 0.00, 0.00, 0.00
42, 10215.33, 46070.99, 1602.46, 21077.69, -2488.42, 463.73, 11712.47, -50167.44, -22489.97, 31469.80, 5988.41, 10301.74, 0.00, 0.00, 0.00, 0.00, 0.00, 0.00, 0.00
43, 10214.08, 46051.32, 1597.90, 21066.63, -2494.23, 455.51, 11705.63, -50173.74, -22489.97, 31469.80, 5988.41, 10301.74, 0.00, 0.00, 0.00, 0.00, -0.07, 0.33, 0.96
44, 10214.08, 46051.32, 1597.90, 21066.63, -2494.23, 455.51, 11705.63, -50173.74, -22482.66, 31454.42, 5976.97, 10286.45, 0.00, 0.00, 0.00, 0.00, 0.00, 0.00, 0.00
45, 10226.39, 46064.33, 1604.48, 21076.29, -2481.71, 463.11, 11714.77, -50161.83, -22482.66, 31454.42, 5976.97, 10286.45, 0.00, 0.00, 0.00, 0.00, 0.00, 0.00, 0.00
46, 10226.39, 46064.33, 1604.48, 21076.29, -2481.71, 463.11, 11714.77, -50161.83, -22482.28, 31474.32, 5993.53, 10336.45, 0.00, 0.00, 0.00, 0.00, 0.00, 0.00, 0.00
47, 10215.84, 46058.85, 1592.45, 21068.08, -2487.66, 457.88, 11706.68, -50171.04, -22482.28, 31474.32, 5993.53, 10336.45, 0.00, 0.00, 0.00, 0.00, 0.00, 0.00, 0.00
48, 10215.84, 46058.85, 1592.45, 21068.08, -2487.66, 457.88, 11706.68, -50171.04, -22491.13, 31447.07, 5971.34, 10301.67, 0.00, 0.00, 0.00, 0.00, 0.00, 0.00, 0.00
49, 10214.03, 46077.16, 1597.21, 21068.91, -2495.08, 455.53, 11705.94, -50172.89, -22491.13, 31447.07, 5971.34, 10301.67, 0.00, 0.00, 0.00, 0.00, 0.00, 0.00, 0.00
50, 10214.03, 46077.16, 1597.21, 21068.91, -2495.08, 455.53, 11705.94, -50172.89, -22489.38, 31467.63, 5983.11, 10302.88, 0.00, 0.00, 0.00, 0.00, 0.00, 0.00, 0.00
51, 10216.49, 46070.48, 1599.85, 21073.63, -2486.97, 461.18, 11711.60, -50166.05, -22489.38, 31467.63, 5983.11, 10302.88, 0.00, 0.00, 0.00, 0.00, 0.00, 0.00, 0.00
52, 10216.49, 46070.48, 1599.85, 21073.63, -2486.97, 461.18, 11711.60, -50166.05, -22485.12, 31455.21, 5972.34, 10317.65, 0.00, 0.00, 0.00, 0.00, 0.00, 0.00, 0.00
53, 10216.24, 46048.88, 1589.75, 21069.20, -2492.40, 456.98, 11705.45, -50172.82, -22485.12, 31455.21, 5972.34, 10317.65, 0.00, 0.00, 0.00, 0.00, -0.07, 0.33, 0.96
54, 10216.24, 46048.88, 1589.75, 21069.20, -2492.40, 456.98, 11705.45, -50172.82, -22488.13, 31465.73, 5981.39, 10287.32, 0.00, 0.00, 0.00, 0.00, 0.00, 0.00, 0.00
55, 10219.66, 46074.97, 1600.41, 21075.12, -2487.30, 466.35, 11711.04, -50170.84, -22488.13, 31465.73, 5981.39, 10287.32, 0.00, 0.00, 0.00, 0.00, 0.00, 0.00, 0.00
56, 10219.66, 46074.97, 1600.41, 21075.12, -2487.30, 466.35, 11711.04, -50170.84, -22484.11, 31452.90, 5972.39, 10333.48, 0.00, 0.00, 0.00, 0.00, 0.00, 0.00, 0.00
57, 10206.10, 46056.91, 1593.81, 21065.89, -2495.77, 453.27, 11705.90, -50173.85, -22484.11, 31452.90, 5972.39, 10333.48, 0.00, 0.00, 0.00, 0.00, 0.00, 0.00, 0.00
58, 10206.10, 46056.91, 1593.81, 21065.89, -2495.77, 453.27, 11705.90, -50173.85, -22487.11, 31467.92, 5978.51, 10284.28, 0.00, 0.00, 0.00, 0.00, 0.00, 0.00, 0.00
59, 10224.27, 46061.20, 1594.46, 21076.35, -2486.34, 461.88, 11716.02, -50164.13, -22487.11, 31467.92, 5978.51, 10284.28, 0.00, 0.00, 0.00, 0.00, 0.00, 0.00, 0.00
60, 10224.27, 46061.20, 1594.46, 21076.35, -2486.34, 461.88, 11716.02, -50164.13, -22484.89, 31447.34, 5971.04, 10290.72, 0.00, 0.00, 0.00, 0.00, 0.00, 0.00, 0.00
61, 10194.47, 46046.34, 1593.68, 21062.27, -2501.36, 449.52, 11696.11, -50183.17, -22484.89, 31447.34, 5971.04, 10290.72, 0.00, 0.00, 0.00, 0.00, 0.00, 0.00, 0.00
62, 10194.47, 46046.34, 1593.68, 21062.27, -2501.36, 449.52, 11696.11, -50183.17, -22488.54, 31461.26, 5979.07, 10334.19, 0.00, 0.00, 0.00, 0.00, 0.00, 0.00, 0.00
63, 10220.94, 46073.94, 1597.61, 21077.69, -2487.64, 463.78, 11717.57, -50164.31, -22488.54, 31461.26, 5979.07, 10334.19, 0.00, 0.00, 0.00, 0.00, -0.08, 0.33, 0.96
64, 10220.94, 46073.94, 1597.61, 21077.69, -2487.64, 463.78, 11717.57, -50164.31, -22482.46, 31455.34, 5973.03, 10338.82, 0.00, 0.00, 0.00, 0.00, 0.00, 0.00, 0.00
65, 10208.26, 46066.23, 1595.80, 21062.07, -2490.95, 454.75, 11702.99, -50177.16, -22482.46, 31455.34, 5973.03, 10338.82, 0.00, 0.00, 0.00, 0.00, 0.00, 0.00, 0.00
66, 10208.26, 46066.23, 1595.80, 21062.07, -2490.95, 454.75, 11702.99, -50177.16, -22481.21, 31467.25, 5975.25, 10280.42, 0.00, 0.00, 0.00, 0.00, 0.00, 0.00, 0.00
67, 10227.55, 46070.54, 1596.45, 21080.35, -2486.54, 469.88, 11716.58, -50162.16, -22481.21, 31467.25, 5975.25, 10280.42, 0.00, 0.00, 0.00, 0.00, 0.00, 0.00, 0.00
68, 10227.55, 46070.54, 1596.45, 21080.35, -2486.54, 469.88, 11716.58, -50162.16, -22483.84, 31456.79, 5971.27, 10278.14, 0.00, 0.00, 0.00, 0.00, 0.00, 0.00, 0.00
69, 10199.64, 46045.84, 1588.25, 21062.18, -2497.23, 452.27, 11702.10, -50173.76, -22483.84, 31456.79, 5971.27, 10278.14, 0.00, 0.00, 0.00, 0.00, 0.00, 0.00, 0.00
70, 10199.64, 46045.84, 1588.25, 21062.18, -2497.23, 452.27, 11702.10, -50173.76, -22479.48, 31467.46, 5976.59, 10287.12, 0.00, 0.00, 0.00, 0.00, 0.00, 0.00, 0.00
71, 10215.93, 46074.75, 1601.39, 21086.75, -2478.61, 475.13, 11721.41, -50159.14, -22479.48, 31467.46, 5976.59, 10287.12, 0.00, 0.00, 0.00, 0.00, 0.00, 0.00, 0.00
72, 10215.93, 46074.75, 1601.39, 21086.75, -2478.61, 475.13, 11721.41, -50159.14, -22479.19, 31461.35, 5977.24, 10332.90, 0.00, 0.00, 0.00, 0.00, -0.08, 0.33, 0.95
73, 10205.20, 46067.86, 1591.33, 21065.11, -2497.09, 455.44, 11697.09, -50174.64, -22479.19, 31461.35, 5977.24, 10332.90, 0.00, 0.00, 0.00, 0.00, 0.00, 0.00, 0.00
74, 10205.20, 46067.86, 1591.33, 21065.11, -2497.09, 455.44, 11697.09, -50174.64, -22489.72, 31458.85, 5972.74, 10291.28, 0.00, 0.00, 0.00, 0.00, 0.00, 0.00, 0.00
75, 10232.92, 46052.19, 1596.56, 21084.40, -2482.99, 461.63, 11731.31, -50152.69, -22489.72, 31458.85, 5972.74, 10291.28, 0.00, 0.00, 0.00, 0.00, 0.00, 0.00, 0.00
76, 10232.92, 46052.19, 1596.56, 21084.40, -2482.99, 461.63, 11731.31, -50152.69, -22486.50, 31464.97, 5979.78, 10309.70, 0.00, 0.00, 0.00, 0.00, 0.00, 0.00, 0.00
77, 10210.68, 46067.12, 1603.29, 21067.75, -2489.81, 457.54, 11708.02, -50170.86, -22486.50, 31464.97, 5979.78, 10309.70, 0.00, 0.00, 0.00, 0.00, 0.00, 0.00, 0.00
78, 10210.68, 46067.12, 1603.29, 21067.75, -2489.81, 457.54, 11708.02, -50170.86, -22480.60, 31453.40, 5974.06, 10318.77, 0.00, 0.00, 0.00, 0.00, 0.00, 0.00, 0.00
79, 10226.03, 46087.82, 1601.41, 21086.70, -2480.22, 468.74, 11722.08, -50163.84, -22480.60, 31453.40, 5974.06, 10318.77, 0.00, 0.00, 0.00, 0.00, 0.00, 0.00, 0.00
80, 10226.03, 46087.82, 1601.41, 21086.70, -2480.22, 468.74, 11722.08, -50163.84, -22485.85, 31465.51, 5979.99, 10358.60, 0.00, 0.00, 0.00, 0.00, 0.00, 0.00, 0.00
81, 10216.96, 46059.55, 1594.89, 21066.96, -2495.04, 453.09, 11707.37, -50170.43, -22485.85, 31465.51, 5979.99, 10358.60, 0.00, 0.00, 0.00, 0.00, 0.00, 0.00, 0.00
82, 10216.96, 46059.55, 1594.89, 21066.96, -2495.04, 453.09, 11707.37, -50170.43, -22484.85, 31458.34, 5976.59, 10270.54, 0.00, 0.00, 0.00, 0.00, -0.08, 0.32, 0.95
83, 10233.77, 46083.73, 1602.64, 21089.18, -2482.12, 474.30, 11723.09, -50160.46, -22484.85, 31458.34, 5976.59, 10270.54, 0.00, 0.00, 0.00, 0.00, 0.00, 0.00, 0.00
84, 10233.77, 46083.73, 1602.64, 21089.18, -2482.12, 474.30, 11723.09, -50160.46, -22491.20, 31459.36, 5976.90, 10361.93, 0.00, 0.00, 0.00, 0.00, 0.00, 0.00, 0.00
85, 10218.64, 46076.60, 1598.31, 21073.09, -2487.57, 455.93, 11708.18, -50174.05, -22491.20, 31459.36, 5976.90, 10361.93, 0.00, 0.00, 0.00, 0.00, 0.00, 0.00, 0.00
86, 10218.64, 46076.60, 1598.31, 21073.09, -2487.57, 455.93, 11708.18, -50174.05, -22484.40, 31448.95, 5973.86, 10322.86, 0.00, 0.00, 0.00, 0.00, 0.00, 0.00, 0.00
87, 10221.59, 46064.15, 1601.32, 21082.48, -2484.13, 464.22, 11719.40, -50164.46, -22484.40, 31448.95, 5973.86, 10322.86, 0.00, 0.00, 0.00, 0.00, 0.00, 0.00, 0.00
88, 10221.59, 46064.15, 1601.32, 21082.48, -2484.13, 464.22, 11719.40, -50164.46, -22489.47, 31458.58, 5981.71, 10288.35, 0.00, 0.00, 0.00, 0.00, 0.00, 0.00, 0.00
89, 10208.22, 46065.96, 1596.50, 21070.94, -2500.29, 455.89, 11704.25, -50180.87, -22489.47, 31458.58, 5981.71, 10288.35, 0.00, 0.00, 0.00, 0.00, 0.00, 0.00, 0.00
90, 10208.22, 46065.96, 1596.50, 21070.94, -2500.29, 455.89, 11704.25, -50180.87, -22486.57, 31445.82, 5965.48, 10338.91, 0.00, 0.00, 0.00, 0.00, 0.00, 0.00, 0.00
91, 10206.77, 46060.37, 1600.85, 21078.97, -2487.82, 462.99, 11715.08, -50166.63, -22486.57, 31445.82, 5965.48, 10338.91, 0.00, 0.00, 0.00, 0.00, 0.00, 0.00, 0.00
92, 10206.77, 46060.37, 1600.85, 21078.97, -2487.82, 462.99, 11715.08, -50166.63, -22485.07, 31468.30, 5979.61, 10326.48, 0.00, 0.00, 0.00, 0.00, -0.08, 0.33, 0.95
93, 10220.54, 46078.63, 1596.29, 21075.50, -2486.41, 459.06, 11712.31, -50169.94, -22485.07, 31468.30, 5979.61, 10326.48, 0.00, 0.00, 0.00, 0.00, 0.00, 0.00, 0.00
94, 10220.54, 46078.63, 1596.29, 21075.50, -2486.41, 459.06, 11712.31, -50169.94, -22481.96, 31445.10, 5965.46, 10303.89, 0.00, 0.00, 0.00, 0.00, 0.00, 0.00, 0.00
95, 10218.97, 46039.59, 1591.44, 21079.53, -2494.37, 461.25, 11712.72, -50174.43, -22481.96, 31445.10, 5965.46, 10303.89, 0.00, 0.00, 0.00, 0.00, 0.00, 0.00, 0.00
96, 10218.97, 46039.59, 1591.44, 21079.53, -2494.37, 461.25, 11712.72, -50174.43, -22485.25, 31463.81, 5973.03, 10296.29, 0.00, 0.00, 0.00, 0.00, 0.00, 0.00, 0.00
97, 10201.16, 46056.04, 1597.55, 21077.18, -2486.56, 461.83, 11714.57, -50166.19, -22485.25, 31463.81, 5973.03, 10296.29, 0.00, 0.00, 0.00, 0.00, 0.00, 0.00, 0.00
98, 10201.16, 46056.04, 1597.55, 21077.18, -2486.56, 461.83, 11714.57, -50166.19, -22476.29, 31451.72, 5965.64, 10366.81, 0.00, 0.00, 0.00, 0.00, 0.00, 0.00, 0.00
99, 10207.55, 46066.92, 1589.21, 21078.52, -2488.04, 462.52, 11711.22, -50172.36, -22476.29, 31451.72, 5965.64, 10366.81, 0.00, 0.00, 0.00, 0.00, 0.00, 0.00, 0.00
100, 10207.55, 46066.92, 1589.21, 21078.52, -2488.04, 462.52, 11711.22, -50172.36, -22480.54, 31464.46, 5969.46, 10307.69, 0.00, 0.00, 0.00, 0.00, 0.00, 0.00, 0.00
101, 10212.58, 46076.82, 1584.20, 21077.07, -2487.91, 458.72, 11715.67, -50169.38, -22480.54, 31464.46, 5969.46, 10307.69, 0.00, 0.00, 0.00, 0.00, 0.00, 0.00, 0.00
102, 10212.58, 46076.82, 1584.20, 21077.07, -2487.91, 458.72, 11715.67, -50169.38, -22485.85, 31443.72, 5953.54, 10294.12, 0.00, 0.00, 0.00, 0.00, -0.08, 0.33, 0.95
103, 10193.78, 46041.29, 1590.06, 21075.10, -2496.18, 456.09, 11711.60, -50173.96, -22485.85, 31443.72, 5953.54, 10294.12, 0.00, 0.00, 0.00, 0.00, 0.00, 0.00, 0.00
104, 10193.78, 46041.29, 1590.06, 21075.10, -2496.18, 456.09, 11711.60, -50173.96, -22484.69, 31465.76, 5963.31, 10345.33, 0.00, 0.00, 0.00, 0.00, 0.00, 0.00, 0.00
105, 10199.95, 46056.01, 1593.70, 21086.23, -2485.87, 472.34, 11723.51, -50163.08, -22484.69, 31465.76, 5963.31, 10345.33, 0.00, 0.00, 0.00, 0.00, 0.00, 0.00, 0.00
106, 10199.95, 46056.01, 1593.70, 21086.23, -2485.87, 472.34, 11723.51, -50163.08, -22472.98, 31460.26, 5952.29, 10325.23, 0.00, 0.00, 0.00, 0.00, 0.00, 0.00, 0.00
107, 10203.68, 46057.18, 1573.56, 21077.81, -2484.89, 461.21, 11715.06, -50165.92, -22472.98, 31460.26, 5952.29, 10325.23, 0.00, 0.00, 0.00, 0.00, 0.00, 0.00, 0.00
108, 10203.68, 46057.18, 1573.56, 21077.81, -2484.89, 461.21, 11715.06, -50165.92, -22477.20, 31478.01, 5961.08, 10327.56, 0.00, 0.00, 0.00, 0.00, 0.00, 0.00, 0.00
109, 10203.46, 46066.96, 1592.70, 21090.59, -2477.31, 465.18, 11728.38, -50155.61, -22477.20, 31478.01, 5961.08, 10327.56, 0.00, 0.00, 0.00, 0.00, 0.00, 0.00, 0.00
110, 10203.46, 46066.96, 1592.70, 21090.59, -2477.31, 465.18, 11728.38, -50155.61, -22479.08, 31450.20, 5947.60, 10346.60, 0.00, 0.00, 0.00, 0.00, 0.00, 0.00, 0.00
111, 10189.71, 46049.87, 1574.35, 21076.15, -2496.13, 456.27, 11708.11, -50176.18, -22479.08, 31450.20, 5947.60, 10346.60, 0.00, 0.00, 0.00, 0.00, 0.00, 0.00, 0.00
112, 10189.71, 46049.87, 1574.35, 21076.15, -2496.13, 456.27, 11708.11, -50176.18, -22482.32, 31462.31, 5949.25, 10333.08, 0.00, 0.00, 0.00, 0.00, -0.07, 0.33, 0.95
113, 10199.59, 46049.66, 1583.46, 21089.56, -2490.81, 470.97, 11722.55, -50160.69, -22482.32, 31462.31, 5949.25, 10333.08, 0.00, 0.00, 0.00, 0.00, 0.00, 0.00, 0.00
114, 10199.59, 46049.66, 1583.46, 21089.56, -2490.81, 470.97, 11722.55, -50160.69, -22481.94, 31452.95, 5941.09, 10292.91, 0.00, 0.00, 0.00, 0.00, 0.00, 0.00, 0.00
115, 10183.57, 46047.79, 1576.00, 21076.93, -2495.08, 449.87, 11706.84, -50179.89, -22481.94, 31452.95, 5941.09, 10292.91, 0.00, 0.00, 0.00, 0.00, 0.00, 0.00, 0.00
116, 10183.57, 46047.79, 1576.00, 21076.93, -2495.08, 449.87, 11706.84, -50179.89, -22487.38, 31451.65, 5945.38, 10340.74, 0.00, 0.00, 0.00, 0.00, 0.00, 0.00, 0.00
117, 10209.65, 46066.52, 1595.11, 21100.67, -2471.70, 476.49, 11735.13, -50154.50, -22487.38, 31451.65, 5945.38, 10340.74, 0.00, 0.00, 0.00, 0.00, 0.00, 0.00, 0.00
118, 10209.65, 46066.52, 1595.11, 21100.67, -2471.70, 476.49, 11735.13, -50154.50, -22471.97, 31461.62, 5967.78, 10353.28, 0.00, 0.00, 0.00, 0.00, 0.00, 0.00, 0.00
119, 10198.68, 46046.69, 1593.41, 21088.33, -2477.06, 463.13, 11722.82, -50165.72, -22471.97, 31461.62, 5967.78, 10353.28, 0.00, 0.00, 0.00, 0.00, 0.00, 0.00, 0.00
120, 10198.68, 46046.69, 1593.41, 21088.33, -2477.06, 463.13, 11722.82, -50165.72, -22476.47, 31463.54, 5957.79, 10343.69, 0.00, 0.00, 0.00, 0.00, 0.00, 0.00, 0.00
121, 10200.02, 46062.18, 1575.95, 21072.64, -2489.56, 457.12, 11717.39, -50169.34, -22476.47, 31463.54, 5957.79, 10343.69, 0.00, 0.00, 0.00, 0.00, -0.07, 0.32, 0.96
122, 10200.02, 46062.18, 1575.95, 21072.64, -2489.56, 457.12, 11717.39, -50169.34, -22487.24, 31440.79, 5949.01, 10322.84, 0.00, 0.00, 0.00, 0.00, 0.00, 0.00, 0.00
123, 10187.83, 46048.01, 1582.17, 21061.24, -2506.68, 450.77, 11702.79, -50185.77, -22487.24, 31440.79, 5949.01, 10322.84, 0.00, 0.00, 0.00, 0.00, 0.00, 0.00, 0.00
124, 10187.83, 46048.01, 1582.17, 21061.24, -2506.68, 450.77, 11702.79, -50185.77, -22471.66, 31457.02, 5952.72, 10283.28, 0.00, 0.00, 0.00, 0.00, 0.00, 0.00, 0.00
125, 10182.02, 46057.18, 1580.02, 21072.93, -2488.93, 463.42, 11714.30, -50178.95, -22471.66, 31457.02, 5952.72, 10283.28, 0.00, 0.00, 0.00, 0.00, 0.00, 0.00, 0.00
126, 10182.02, 46057.18, 1580.02, 21072.93, -2488.93, 463.42, 11714.30, -50178.95, -22459.37, 31451.45, 5922.50, 10337.97, 0.00, 0.00, 0.00, 0.00, 0.00, 0.00, 0.00
127, 10170.45, 46026.62, 1547.63, 21065.94, -2496.80, 456.04, 11699.64, -50205.05, -22459.37, 31451.45, 5922.50, 10337.97, 0.00, 0.00, 0.00, 0.00, 0.00, 0.00, 0.00
128, 10170.45, 46026.62, 1547.63, 21065.94, -2496.80, 456.04, 11699.64, -50205.05, -22484.13, 31455.23, 5912.60, 10331.47, 0.00, 0.00, 0.00, 0.00, 0.00, 0.00, 0.00
129, 10183.63, 46053.00, 1579.73, 21107.15, -2470.25, 463.26, 11752.57, -50124.14, -22484.13, 31455.23, 5912.60, 10331.47, 0.00, 0.00, 0.00, 0.00, 0.00, 0.00, 0.00
130, 10183.63, 46053.00, 1579.73, 21107.15, -2470.25, 463.26, 11752.57, -50124.14, -22477.74, 31470.58, 5906.02, 10297.49, 0.00, 0.00, 0.00, 0.00, 0.00, 0.00, 0.00
131, 10151.85, 46029.68, 1550.63, 21087.48, -2480.35, 456.47, 11723.98, -50162.10, -22477.74, 31470.58, 5906.02, 10297.49, 0.00, 0.00, 0.00, 0.00, -0.07, 0.32, 0.96
132, 10151.85, 46029.68, 1550.63, 21087.48, -2480.35, 456.47, 11723.98, -50162.10, -22477.29, 31449.24, 5885.08, 10339.80, 0.00, 0.00, 0.00, 0.00, 0.00, 0.00, 0.00
133, 10162.11, 46041.64, 1575.60, 21107.06, -2469.80, 474.95, 11739.83, -50156.26, -22477.29, 31449.24, 5885.08, 10339.80, 0.00, 0.00, 0.00, 0.00, 0.00, 0.00, 0.00
134, 10162.11, 46041.64, 1575.60, 21107.06, -2469.80, 474.95, 11739.83, -50156.26, -22474.41, 31469.00, 5919.77, 10309.65, 0.00, 0.00, 0.00, 0.00, 0.00, 0.00, 0.00
135, 10166.27, 46042.22, 1566.19, 21092.60, -2479.70, 466.03, 11724.05, -50172.40, -22474.41, 31469.00, 5919.77, 10309.65, 0.00, 0.00, 0.00, 0.00, 0.00, 0.00, 0.00
136, 10166.27, 46042.22, 1566.19, 21092.60, -2479.70, 466.03, 11724.05, -50172.40, -22477.36, 31449.02, 5889.84, 10315.17, 0.00, 0.00, 0.00, 0.00, 0.00, 0.00, 0.00
137, 10156.86, 46033.93, 1547.61, 21056.86, -2502.26, 448.73, 11712.87, -50178.03, -22477.36, 31449.02, 5889.84, 10315.17, 0.00, 0.00, 0.00, 0.00, 0.00, 0.00, 0.00
138, 10156.86, 46033.93, 1547.61, 21056.86, -2502.26, 448.73, 11712.87, -50178.03, -22478.75, 31455.59, 5937.32, 10357.57, 0.00, 0.00, 0.00, 0.00, 0.00, 0.00, 0.00
139, 10177.46, 46045.78, 1584.52, 21061.20, -2494.59, 447.21, 11711.35, -50182.86, -22478.75, 31455.59, 5937.32, 10357.57, 0.00, 0.00, 0.00, 0.00, 0.00, 0.00, 0.00
140, 10177.46, 46045.78, 1584.52, 21061.20, -2494.59, 447.21, 11711.35, -50182.86, -22476.60, 31447.54, 5940.83, 10322.13, 0.00, 0.00, 0.00, 0.00, 0.00, 0.00, 0.00
141, 10181.46, 46074.39, 1567.93, 21055.81, -2500.98, 448.76, 11717.01, -50176.40, -22476.60, 31447.54, 5940.83, 10322.13, 0.00, 0.00, 0.00, 0.00, -0.07, 0.32, 0.96
142, 10181.46, 46074.39, 1567.93, 21055.81, -2500.98, 448.76, 11717.01, -50176.40, -22486.37, 31456.79, 5938.57, 10296.35, 0.00, 0.00, 0.00, 0.00, 0.00, 0.00, 0.00
143, 10180.10, 46042.65, 1569.74, 21054.25, -2499.98, 450.41, 11716.52, -50182.28, -22486.37, 31456.79, 5938.57, 10296.35, 0.00, 0.00, 0.00, 0.00, 0.00, 0.00, 0.00
144, 10180.10, 46042.65, 1569.74, 21054.25, -2499.98, 450.41, 11716.52, -50182.28, -22476.98, 31447.25, 5918.12, 10346.09, 0.00, 0.00, 0.00, 0.00, 0.00, 0.00, 0.00
145, 10168.61, 46051.61, 1571.77, 21063.57, -2490.52, 456.27, 11721.39, -50174.28, -22476.98, 31447.25, 5918.12, 10346.09, 0.00, 0.00, 0.00, 0.00, 0.00, 0.00, 0.00
146, 10168.61, 46051.61, 1571.77, 21063.57, -2490.52, 456.27, 11721.39, -50174.28, -22482.41, 31457.80, 5919.59, 10303.39, 0.00, 0.00, 0.00, 0.00, 0.00, 0.00, 0.00
147, 10166.51, 46051.99, 1568.60, 21069.83, -2491.19, 451.04, 11720.34, -50176.22, -22482.41, 31457.80, 5919.59, 10303.39, 0.00, 0.00, 0.00, 0.00, 0.00, 0.00, 0.00
148, 10166.51, 46051.99, 1568.60, 21069.83, -2491.19, 451.04, 11720.34, -50176.22, -22476.64, 31443.72, 5887.00, 10257.84, 0.00, 0.00, 0.00, 0.00, 0.00, 0.00, 0.00
149, 10150.08, 46043.81, 1561.16, 21073.49, -2493.45, 452.00, 11720.49, -50175.66, -22476.64, 31443.72, 5887.00, 10257.84, 0.00, 0.00, 0.00, 0.00, 0.00, 0.00, 0.00
150, 10150.08, 46043.81, 1561.16, 21073.49, -2493.45, 452.00, 11720.49, -50175.66, -22475.59, 31463.39, 5885.42, 10301.56, 0.00, 0.00, 0.00, 0.00, 0.00, 0.00, 0.00
151, 10151.51, 46032.05, 1559.88, 21082.88, -2492.24, 464.07, 11726.28, -50173.09, -22475.59, 31463.39, 5885.42, 10301.56, 0.00, 0.00, 0.00, 0.00, -0.07, 0.32, 0.94
152, 10151.51, 46032.05, 1559.88, 21082.88, -2492.24, 464.07, 11726.28, -50173.09, -22476.94, 31438.58, 5870.69, 10324.09, 0.00, 0.00, 0.00, 0.00, 0.00, 0.00, 0.00
153, 10136.72, 46017.75, 1550.27, 21075.79, -2492.55, 453.79, 11718.24, -50181.43, -22476.94, 31438.58, 5870.69, 10324.09, 0.00, 0.00, 0.00, 0.00, 0.00, 0.00, 0.00
154, 10136.72, 46017.75, 1550.27, 21075.79, -2492.55, 453.79, 11718.24, -50181.43, -22473.07, 31466.88, 5887.74, 10259.83, 0.00, 0.00, 0.00, 0.00, 0.00, 0.00, 0.00
155, 10142.19, 46051.77, 1563.44, 21087.78, -2481.02, 463.26, 11733.48, -50163.64, -22473.07, 31466.88, 5887.74, 10259.83, 0.00, 0.00, 0.00, 0.00, 0.00, 0.00, 0.00
156, 10142.19, 46051.77, 1563.44, 21087.78, -2481.02, 463.26, 11733.48, -50163.64, -22468.89, 31448.19, 5885.28, 10339.47, 0.00, 0.00, 0.00, 0.00, 0.00, 0.00, 0.00
157, 10148.70, 46027.34, 1546.36, 21071.39, -2494.48, 450.32, 11715.44, -50183.22, -22468.89, 31448.19, 5885.28, 10339.47, 0.00, 0.00, 0.00, 0.00, 0.00, 0.00, 0.00
158, 10148.70, 46027.34, 1546.36, 21071.39, -2494.48, 450.32, 11715.44, -50183.22, -22475.28, 31460.41, 5886.42, 10290.25, 0.00, 0.00, 0.00, 0.00, 0.00, 0.00, 0.00
159, 10147.42, 46051.61, 1559.15, 21088.76, -2489.18, 470.10, 11730.40, -50166.81, -22475.28, 31460.41, 5886.42, 10290.25, 0.00, 0.00, 0.00, 0.00, 0.00, 0.00, 0.00
160, 10147.42, 46051.61, 1559.15, 21088.76, -2489.18, 470.10, 11730.40, -50166.81, -22470.95, 31451.36, 5877.35, 10301.65, 0.00, 0.00, 0.00, 0.00, -0.07, 0.32, 0.95
161, 10144.96, 46024.79, 1547.66, 21068.31, -2497.00, 449.40, 11714.33, -50183.91, -22470.95, 31451.36, 5877.35, 10301.65, 0.00, 0.00, 0.00, 0.00, 0.00, 0.00, 0.00
162, 10144.96, 46024.79, 1547.66, 21068.31, -2497.00, 449.40, 11714.33, -50183.91, -22474.59, 31462.58, 5885.50, 10348.43, 0.00, 0.00, 0.00, 0.00, 0.00, 0.00, 0.00
163, 10168.37, 46035.94, 1555.88, 21090.05, -2474.76, 462.88, 11738.62, -50160.42, -22474.59, 31462.58, 5885.50, 10348.43, 0.00, 0.00, 0.00, 0.00, 0.00, 0.00, 0.00
164, 10168.37, 46035.94, 1555.88, 21090.05, -2474.76, 462.88, 11738.62, -50160.42, -22472.87, 31453.73, 5877.75, 10347.02, 0.00, 0.00, 0.00, 0.00, 0.00, 0.00, 0.00
165, 10140.65, 46030.51, 1545.06, 21071.99, -2497.78, 451.28, 11714.53, -50188.61, -22472.87, 31453.73, 5877.75, 10347.02, 0.00, 0.00, 0.00, 0.00, 0.00, 0.00, 0.00
166, 10140.65, 46030.51, 1545.06, 21071.99, -2497.78, 451.28, 11714.53, -50188.61, -22473.94, 31456.08, 5880.72, 10311.84, 0.00, 0.00, 0.00, 0.00, 0.00, 0.00, 0.00
167, 10148.70, 46060.57, 1590.48, 21109.26, -2466.43, 484.85, 11749.93, -50156.60, -22473.94, 31456.08, 5880.72, 10311.84, 0.00, 0.00, 0.00, 0.00, 0.00, 0.00, 0.00
168, 10148.70, 46060.57, 1590.48, 21109.26, -2466.43, 484.85, 11749.93, -50156.60, -22464.91, 31463.16, 5903.01, 10295.59, 0.00, 0.00, 0.00, 0.00, 0.00, 0.00, 0.00
169, 10125.07, 46019.78, 1560.64, 21051.28, -2496.58, 440.46, 11717.25, -50187.71, -22464.91, 31463.16, 5903.01, 10295.59, 0.00, 0.00, 0.00, 0.00, 0.00, 0.00, 0.00
170, 10125.07, 46019.78, 1560.64, 21051.28, -2496.58, 440.46, 11717.25, -50187.71, -22474.16, 31454.22, 5880.63, 10352.37, 0.00, 0.00, 0.00, 0.00, -0.07, 0.32, 0.95
171, 10162.40, 46045.06, 1545.73, 21041.73, -2497.34, 450.79, 11722.86, -50169.05, -22474.16, 31454.22, 5880.63, 10352.37, 0.00, 0.00, 0.00, 0.00, 0.00, 0.00, 0.00
172, 10162.40, 46045.06, 1545.73, 21041.73, -2497.34, 450.79, 11722.86, -50169.05, -22471.30, 31457.04, 5917.13, 10284.98, 0.00, 0.00, 0.00, 0.00, 0.00, 0.00, 0.00
173, 10156.16, 46049.66, 1579.73, 21046.25, -2494.32, 439.59, 11721.43, -50179.55, -22471.30, 31457.04, 5917.13, 10284.98, 0.00, 0.00, 0.00, 0.00, 0.00, 0.00, 0.00
174, 10156.16, 46049.66, 1579.73, 21046.25, -2494.32, 439.59, 11721.43, -50179.55, -22475.15, 31448.08, 5904.41, 10333.12, 0.00, 0.00, 0.00, 0.00, 0.00, 0.00, 0.00
175, 10145.90, 46078.41, 1581.74, 21037.66, -2494.70, 446.52, 11734.40, -50169.47, -22475.15, 31448.08, 5904.41, 10333.12, 0.00, 0.00, 0.00, 0.00, 0.00, 0.00, 0.00
176, 10145.90, 46078.41, 1581.74, 21037.66, -2494.70, 446.52, 11734.40, -50169.47, -22473.11, 31458.45, 5933.63, 10245.17, 0.00, 0.00, 0.00, 0.00, 0.00, 0.00, 0.00
177, 10146.46, 46057.45, 1566.19, 21010.77, -2497.16, 431.39, 11718.01, -50181.81, -22473.11, 31458.45, 5933.63, 10245.17, 0.00, 0.00, 0.00, 0.00, 0.00, 0.00, 0.00
178, 10146.46, 46057.45, 1566.19, 21010.77, -2497.16, 431.39, 11718.01, -50181.81, -22464.82, 31453.29, 5933.61, 10249.68, 0.00, 0.00, 0.00, 0.00, 0.00, 0.00, 0.00
179, 10178.96, 46076.78, 1588.67, 21045.37, -2478.72, 463.60, 11742.02, -50165.02, -22464.82, 31453.29, 5933.61, 10249.68, 0.00, 0.00, 0.00, 0.00, 0.00, 0.00, 0.00
180, 10178.96, 46076.78, 1588.67, 21045.37, -2478.72, 463.60, 11742.02, -50165.02, -22466.83, 31466.34, 5938.90, 10277.69, 0.00, 0.00, 0.00, 0.00, -0.07, 0.32, 0.95
181, 10148.76, 46028.43, 1572.53, 21022.69, -2499.57, 439.23, 11716.83, -50185.97, -22466.83, 31466.34, 5938.90, 10277.69, 0.00, 0.00, 0.00, 0.00, 0.00, 0.00, 0.00
182, 10148.76, 46028.43, 1572.53, 21022.69, -2499.57, 439.23, 11716.83, -50185.97, -22472.29, 31439.29, 5930.28, 10353.08, 0.00, 0.00, 0.00, 0.00, 0.00, 0.00, 0.00
183, 10152.59, 46063.32, 1584.07, 21038.51, -2492.38, 448.60, 11739.92, -50167.08, -22472.29, 31439.29, 5930.28, 10353.08, 0.00, 0.00, 0.00, 0.00, 0.00, 0.00, 0.00
184, 10152.59, 46063.32, 1584.07, 21038.51, -2492.38, 448.60, 11739.92, -50167.08, -22475.21, 31461.02, 5936.53, 10246.98, 0.00, 0.00, 0.00, 0.00, 0.00, 0.00, 0.00
185, 10150.46, 46074.63, 1584.22, 21028.39, -2496.06, 437.69, 11720.32, -50190.59, -22475.21, 31461.02, 5936.53, 10246.98, 0.00, 0.00, 0.00, 0.00, 0.00, 0.00, 0.00
186, 10150.46, 46074.63, 1584.22, 21028.39, -2496.06, 437.69, 11720.32, -50190.59, -22462.72, 31443.05, 5918.14, 10273.87, 0.00, 0.00, 0.00, 0.00, 0.00, 0.00, 0.00
187, 10164.72, 46075.50, 1569.03, 21039.00, -2489.13, 445.94, 11736.07, -50175.48, -22462.72, 31443.05, 5918.14, 10273.87, 0.00, 0.00, 0.00, 0.00, 0.00, 0.00, 0.00
188, 10164.72, 46075.50, 1569.03, 21039.00, -2489.13, 445.94, 11736.07, -50175.48, -22484.07, 31453.24, 5924.49, 10332.03, 0.00, 0.00, 0.00, 0.00, 0.00, 0.00, 0.00
189, 10152.92, 46029.48, 1563.82, 21028.19, -2505.38, 435.17, 11725.90, -50179.66, -22484.07, 31453.24, 5924.49, 10332.03, 0.00, 0.00, 0.00, 0.00, 0.00, 0.00, 0.00
190, 10152.92, 46029.48, 1563.82, 21028.19, -2505.38, 435.17, 11725.90, -50179.66, -22478.66, 31437.30, 5908.28, 10222.21, 0.00, 0.00, 0.00, 0.00, -0.08, 0.32, 0.95
191, 10140.03, 46061.89, 1573.63, 21039.94, -2495.71, 445.58, 11729.57, -50178.41, -22478.66, 31437.30, 5908.28, 10222.21, 0.00, 0.00, 0.00, 0.00, 0.00, 0.00, 0.00
192, 10140.03, 46061.89, 1573.63, 21039.94, -2495.71, 445.58, 11729.57, -50178.41, -22476.47, 31459.61, 5914.79, 10283.70, 0.00, 0.00, 0.00, 0.00, 0.00, 0.00, 0.00
193, 10138.30, 46044.59, 1568.02, 21035.11, -2493.99, 445.20, 11732.52, -50179.11, -22476.47, 31459.61, 5914.79, 10283.70, 0.00, 0.00, 0.00, 0.00, 0.00, 0.00, 0.00
194, 10138.30, 46044.59, 1568.02, 21035.11, -2493.99, 445.20, 11732.52, -50179.11, -22470.63, 31435.51, 5909.51, 10220.22, 0.00, 0.00, 0.00, 0.00, 0.00, 0.00, 0.00
195, 10155.40, 46039.88, 1564.22, 21034.38, -2495.08, 439.28, 11734.78, -50180.71, -22470.63, 31435.51, 5909.51, 10220.22, 0.00, 0.00, 0.00, 0.00, 0.00, 0.00, 0.00
196, 10155.40, 46039.88, 1564.22, 21034.38, -2495.08, 439.28, 11734.78, -50180.71, -22466.95, 31458.51, 5928.46, 10233.01, 0.00, 0.00, 0.00, 0.00, 0.00, 0.00, 0.00
197, 10141.63, 46066.16, 1594.91, 21042.36, -2484.08, 456.78, 11731.25, -50186.75, -22466.95, 31458.51, 5928.46, 10233.01, 0.00, 0.00, 0.00, 0.00, 0.00, 0.00, 0.00
198, 10141.63, 46066.16, 1594.91, 21042.36, -2484.08, 456.78, 11731.25, -50186.75, -22448.41, 31445.17, 5911.59, 10255.43, 0.00, 0.00, 0.00, 0.00, 0.00, 0.00, 0.00
199, 10143.04, 46060.89, 1566.41, 21036.75, -2498.57, 450.77, 11725.30, -50200.54, -22448.41, 31445.17, 5911.59, 10255.43, 0.00, 0.00, 0.00, 0.00, -0.08, 0.32, 0.95
200, 10143.04, 46060.89, 1566.41, 21036.75, -2498.57, 450.77, 11725.30, -50200.54, -22475.86, 31456.21, 5916.64, 10300.11, 0.00, 0.00, 0.00, 0.00, 0.00, 0.00, 0.00
201, 10167.72, 46052.50, 1571.62, 21039.96, -2478.29, 439.97, 11748.61, -50154.43, -22475.86, 31456.21, 5916.64, 10300.11, 0.00, 0.00, 0.00, 0.00, 0.00, 0.00, 0.00
202, 10167.72, 46052.50, 1571.62, 21039.96, -2478.29, 439.97, 11748.61, -50154.43, -22478.59, 31443.29, 5903.50, 10189.13, 0.00, 0.00, 0.00, 0.00, 0.00, 0.00, 0.00
203, 10126.93, 46027.02, 1557.65, 21029.26, -2502.39, 436.19, 11743.63, -50169.09, -22478.59, 31443.29, 5903.50, 10189.13, 0.00, 0.00, 0.00, 0.00, 0.00, 0.00, 0.00
204, 10126.93, 46027.02, 1557.65, 21029.26, -2502.39, 436.19, 11743.63, -50169.09, -22476.09, 31456.64, 5909.98, 10213.74, 0.00, 0.00, 0.00, 0.00, 0.00, 0.00, 0.00
205, 10142.77, 46063.08, 1568.47, 21046.36, -2474.76, 449.09, 11749.40, -50165.98, -22476.09, 31456.64, 5909.98, 10213.74, 0.00, 0.00, 0.00, 0.00, 0.00, 0.00, 0.00
206, 10142.77, 46063.08, 1568.47, 21046.36, -2474.76, 449.09, 11749.40, -50165.98, -22467.12, 31442.87, 5900.64, 10232.09, 0.00, 0.00, 0.00, 0.00, 0.00, 0.00, 0.00
207, 10147.65, 46039.88, 1547.23, 21038.60, -2493.87, 443.70, 11732.70, -50190.73, -22467.12, 31442.87, 5900.64, 10232.09, 0.00, 0.00, 0.00, 0.00, 0.00, 0.00, 0.00
208, 10147.65, 46039.88, 1547.23, 21038.60, -2493.87, 443.70, 11732.70, -50190.73, -22466.45, 31454.85, 5910.74, 10264.86, 0.00, 0.00, 0.00, 0.00, 0.00, 0.00, 0.00
209, 10160.70, 46068.26, 1569.41, 21058.18, -2476.39, 460.54, 11748.39, -50183.40, -22466.45, 31454.85, 5910.74, 10264.86, 0.00, 0.00, 0.00, 0.00, -0.07, 0.32, 0.95
210, 10160.70, 46068.26, 1569.41, 21058.18, -2476.39, 460.54, 11748.39, -50183.40, -22476.80, 31430.08, 5879.02, 10197.71, 0.00, 0.00, 0.00, 0.00, 0.00, 0.00, 0.00
211, 10129.50, 46032.48, 1528.99, 20992.42, -2531.45, 412.37, 11712.67, -50209.19, -22476.80, 31430.08, 5879.02, 10197.71, 0.00, 0.00, 0.00, 0.00, 0.00, 0.00, 0.00
212, 10129.50, 46032.48, 1528.99, 20992.42, -2531.45, 412.37, 11712.67, -50209.19, -22473.00, 31448.41, 5923.48, 10191.63, 0.00, 0.00, 0.00, 0.00, 0.00, 0.00, 0.00
213, 10183.39, 46074.14, 1582.75, 21058.67, -2471.52, 459.06, 11759.27, -50171.19, -22473.00, 31448.41, 5923.48, 10191.63, 0.00, 0.00, 0.00, 0.00, 0.00, 0.00, 0.00
214, 10183.39, 46074.14, 1582.75, 21058.67, -2471.52, 459.06, 11759.27, -50171.19, -22481.47, 31435.69, 5877.57, 10129.56, 0.00, 0.00, 0.00, 0.00, 0.00, 0.00, 0.00
215, 10115.48, 46019.83, 1544.01, 21000.31, -2506.14, 430.27, 11727.25, -50203.94, -22481.47, 31435.69, 5877.57, 10129.56, 0.00, 0.00, 0.00, 0.00, 0.00, 0.00, 0.00
216, 10115.48, 46019.83, 1544.01, 21000.31, -2506.14, 430.27, 11727.25, -50203.94, -22468.13, 31438.06, 5892.88, 10158.20, 0.00, 0.00, 0.00, 0.00, 0.00, 0.00, 0.00
217, 10132.47, 46058.52, 1570.66, 21036.70, -2477.71, 453.54, 11756.19, -50184.20, -22468.13, 31438.06, 5892.88, 10158.20, 0.00, 0.00, 0.00, 0.00, 0.00, 0.00, 0.00
218, 10132.47, 46058.52, 1570.66, 21036.70, -2477.71, 453.54, 11756.19, -50184.20, -22458.36, 31446.69, 5865.25, 10209.32, 0.00, 0.00, 0.00, 0.00, 0.00, 0.00, 0.00
219, 10136.85, 46023.85, 1530.25, 21021.23, -2497.78, 436.26, 11734.06, -50203.94, -22458.36, 31446.69, 5865.25, 10209.32, 0.00, 0.00, 0.00, 0.00, -0.07, 0.32, 0.95
220, 10136.85, 46023.85, 1530.25, 21021.23, -2497.78, 436.26, 11734.06, -50203.94, -22468.98, 31449.82, 5847.60, 10106.25, 0.00, 0.00, 0.00, 0.00, 0.00, 0.00, 0.00
221, 10120.60, 46039.47, 1540.64, 21045.20, -2476.48, 457.27, 11757.04, -50182.55, -22468.98, 31449.82, 5847.60, 10106.25, 0.00, 0.00, 0.00, 0.00, 0.00, 0.00, 0.00
222, 10120.60, 46039.47, 1540.64, 21045.20, -2476.48, 457.27, 11757.04, -50182.55, -22453.42, 31444.19, 5836.78, 10099.55, 0.00, 0.00, 0.00, 0.00, 0.00, 0.00, 0.00
223, 10102.43, 46025.86, 1539.81, 21035.88, -2495.55, 445.25, 11738.33, -50225.08, -22453.42, 31444.19, 5836.78, 10099.55, 0.00, 0.00, 0.00, 0.00, 0.00, 0.00, 0.00
224, 10102.43, 46025.86, 1539.81, 21035.88, -2495.55, 445.25, 11738.33, -50225.08, -22476.56, 31426.35, 5834.59, 10158.08, 0.00, 0.00, 0.00, 0.00, 0.00, 0.00, 0.00
225, 10123.95, 46057.60, 1550.83, 21056.24, -2471.61, 463.91, 11777.11, -50173.88, -22476.56, 31426.35, 5834.59, 10158.08, 0.00, 0.00, 0.00, 0.00, 0.00, 0.00, 0.00
226, 10123.95, 46057.60, 1550.83, 21056.24, -2471.61, 463.91, 11777.11, -50173.88, -22473.20, 31441.53, 5849.61, 10131.96, 0.00, 0.00, 0.00, 0.00, 0.00, 0.00, 0.00
227, 10118.48, 46021.41, 1535.77, 21038.13, -2488.55, 438.61, 11756.46, -50195.51, -22473.20, 31441.53, 5849.61, 10131.96, 0.00, 0.00, 0.00, 0.00, 0.00, 0.00, 0.00
228, 10118.48, 46021.41, 1535.77, 21038.13, -2488.55, 438.61, 11756.46, -50195.51, -22475.84, 31439.54, 5850.57, 10074.36, 0.00, 0.00, 0.00, 0.00, 0.00, 0.00, 0.00
229, 10122.41, 46023.13, 1545.53, 21057.09, -2484.08, 466.21, 11774.03, -50191.46, -22475.84, 31439.54, 5850.57, 10074.36, 0.00, 0.00, 0.00, 0.00, -0.07, 0.32, 0.95
230, 10122.41, 46023.13, 1545.53, 21057.09, -2484.08, 466.21, 11774.03, -50191.46, -22469.02, 31429.59, 5856.78, 10112.58, 0.00, 0.00, 0.00, 0.00, 0.00, 0.00, 0.00
231, 10104.31, 46013.19, 1547.57, 21037.80, -2493.25, 437.38, 11751.38, -50250.07, -22469.02, 31429.59, 5856.78, 10112.58, 0.00, 0.00, 0.00, 0.00, 0.00, 0.00, 0.00
232, 10104.31, 46013.19, 1547.57, 21037.80, -2493.25, 437.38, 11751.38, -50250.07, -22474.52, 31427.87, 5868.90, 10087.14, 0.00, 0.00, 0.00, 0.00, 0.00, 0.00, 0.00
233, 10127.51, 46035.00, 1530.13, 21037.26, -2479.21, 435.10, 11776.66, -50209.64, -22474.52, 31427.87, 5868.90, 10087.14, 0.00, 0.00, 0.00, 0.00, 0.00, 0.00, 0.00
234, 10127.51, 46035.00, 1530.13, 21037.26, -2479.21, 435.10, 11776.66, -50209.64, -22483.64, 31434.49, 5875.29, 10105.20, 0.00, 0.00, 0.00, 0.00, 0.00, 0.00, 0.00
235, 10151.87, 46027.07, 1524.93, 21029.91, -2493.85, 439.12, 11755.79, -50255.91, -22483.64, 31434.49, 5875.29, 10105.20, 0.00, 0.00, 0.00, 0.00, 0.00, 0.00, 0.00
236, 10151.87, 46027.07, 1524.93, 21029.91, -2493.85, 439.12, 11755.79, -50255.91, -22471.55, 31414.71, 5881.66, 10044.74, 0.00, 0.00, 0.00, 0.00, 0.00, 0.00, 0.00
237, 10128.96, 46068.91, 1538.49, 21026.17, -2486.63, 441.22, 11764.80, -50267.66, -22471.55, 31414.71, 5881.66, 10044.74, 0.00, 0.00, 0.00, 0.00, 0.00, 0.00, 0.00
238, 10128.96, 46068.91, 1538.49, 21026.17, -2486.63, 441.22, 11764.80, -50267.66, -22471.79, 31428.74, 5899.59, 10010.81, 0.00, 0.00, 0.00, 0.00, -0.07, 0.32, 0.95
239, 10106.14, 46026.42, 1535.81, 21009.21, -2502.86, 431.10, 11748.55, -50303.94, -22471.79, 31428.74, 5899.59, 10010.81, 0.00, 0.00, 0.00, 0.00, 0.00, 0.00, 0.00
240, 10106.14, 46026.42, 1535.81, 21009.21, -2502.86, 431.10, 11748.55, -50303.94, -22470.34, 31415.98, 5888.23, 10061.50, 0.00, 0.00, 0.00, 0.00, 0.00, 0.00, 0.00
241, 10156.39, 46036.99, 1541.33, 21024.47, -2500.13, 446.07, 11764.82, -50300.48, -22470.34, 31415.98, 5888.23, 10061.50, 0.00, 0.00, 0.00, 0.00, 0.00, 0.00, 0.00
242, 10156.39, 46036.99, 1541.33, 21024.47, -2500.13, 446.07, 11764.82, -50300.48, -22482.93, 31419.35, 5920.51, 10082.07, 0.00, 0.00, 0.00, 0.00, 0.00, 0.00, 0.00
243, 10135.33, 46062.43, 1543.99, 21011.22, -2492.35, 429.65, 11768.39, -50303.23, -22482.93, 31419.35, 5920.51, 10082.07, 0.00, 0.00, 0.00, 0.00, 0.00, 0.00, 0.00
244, 10135.33, 46062.43, 1543.99, 21011.22, -2492.35, 429.65, 11768.39, -50303.23, -22479.24, 31417.28, 5907.12, 9943.40, 0.00, 0.00, 0.00, 0.00, 0.00, 0.00, 0.00
245, 10153.93, 46048.21, 1545.33, 21017.52, -2484.80, 432.91, 11774.18, -50323.83, -22479.24, 31417.28, 5907.12, 9943.40, 0.00, 0.00, 0.00, 0.00, 0.00, 0.00, 0.00
246, 10153.93, 46048.21, 1545.33, 21017.52, -2484.80, 432.91, 11774.18, -50323.83, -22452.64, 31425.30, 5925.13, 10073.93, 0.00, 0.00, 0.00, 0.00, 0.00, 0.00, 0.00
247, 10123.62, 46055.59, 1553.49, 21016.27, -2481.13, 438.65, 11765.47, -50370.95, -22452.64, 31425.30, 5925.13, 10073.93, 0.00, 0.00, 0.00, 0.00, 0.00, 0.00, 0.00
248, 10123.62, 46055.59, 1553.49, 21016.27, -2481.13, 438.65, 11765.47, -50370.95, -22480.13, 31412.52, 5915.48, 9929.45, 0.00, 0.00, 0.00, 0.00, -0.07, 0.32, 0.96
249, 10129.47, 46060.30, 1525.37, 21022.26, -2492.26, 429.06, 11787.08, -50329.31, -22480.13, 31412.52, 5915.48, 9929.45, 0.00, 0.00, 0.00, 0.00, 0.00, 0.00, 0.00
250, 10129.47, 46060.30, 1525.37, 21022.26, -2492.26, 429.06, 11787.08, -50329.31, -22481.34, 31425.39, 5915.17, 10108.26, 0.00, 0.00, 0.00, 0.00, 0.00, 0.00, 0.00
251, 10152.45, 46079.26, 1529.37, 21033.97, -2483.30, 452.29, 11785.20, -50367.55, -22481.34, 31425.39, 5915.17, 10108.26, 0.00, 0.00, 0.00, 0.00, 0.00, 0.00, 0.00
252, 10152.45, 46079.26, 1529.37, 21033.97, -2483.30, 452.29, 11785.20, -50367.55, -22452.28, 31411.75, 5910.34, 9970.38, 0.00, 0.00, 0.00, 0.00, 0.00, 0.00, 0.00
253, 10140.32, 46048.53, 1536.37, 21018.98, -2477.98, 428.53, 11786.83, -50396.99, -22452.28, 31411.75, 5910.34, 9970.38, 0.00, 0.00, 0.00, 0.00, 0.00, 0.00, 0.00
254, 10140.32, 46048.53, 1536.37, 21018.98, -2477.98, 428.53, 11786.83, -50396.99, -22469.92, 31432.34, 5916.13, 9947.91, 0.00, 0.00, 0.00, 0.00, 0.00, 0.00, 0.00
255, 10143.58, 46059.88, 1545.42, 21038.09, -2476.01, 452.02, 11814.51, -50372.20, -22469.92, 31432.34, 5916.13, 9947.91, 0.00, 0.00, 0.00, 0.00, 0.00, 0.00, 0.00
0, 10143.58, 46059.88, 1545.42, 21038.09, -2476.01, 452.02, 11814.51, -50372.20, -22468.42, 31402.68, 5903.50, 10043.04, 0.00, 0.00, 0.00, 0.00, 0.00, 0.00, 0.00
1, 10121.79, 46055.37, 1536.37, 21019.65, -2485.54, 435.21, 11790.95, -50419.63, -22468.42, 31402.68, 5903.50, 10043.04, 0.00, 0.00, 0.00, 0.00, 0.00, 0.00, 0.00
2, 10121.79, 46055.37, 1536.37, 21019.65, -2485.54, 435.21, 11790.95, -50419.63, -22468.08, 31422.62, 5913.22, 9979.70, 0.00, 0.00, 0.00, 0.00, -0.07, 0.32, 0.96
3, 10128.58, 46064.46, 1518.53, 21030.55, -2471.99, 439.61, 11802.64, -50426.34, -22468.08, 31422.62, 5913.22, 9979.70, 0.00, 0.00, 0.00, 0.00, 0.00, 0.00, 0.00
4, 10128.58, 46064.46, 1518.53, 21030.55, -2471.99, 439.61, 11802.64, -50426.34, -22455.70, 31416.49, 5884.99, 9934.37, 0.00, 0.00, 0.00, 0.00, 0.00, 0.00, 0.00
5, 10120.51, 46026.13, 1489.72, 21008.83, -2497.58, 425.44, 11773.58, -50468.89, -22455.70, 31416.49, 5884.99, 9934.37, 0.00, 0.00, 0.00, 0.00, 0.00, 0.00, 0.00
6, 10120.51, 46026.13, 1489.72, 21008.83, -2497.58, 425.44, 11773.58, -50468.89, -22477.47, 31404.80, 5878.06, 9953.12, 0.00, 0.00, 0.00, 0.00, 0.00, 0.00, 0.00
7, 10109.31, 46034.38, 1504.25, 21028.72, -2495.51, 441.00, 11809.68, -50437.61, -22477.47, 31404.80, 5878.06, 9953.12, 0.00, 0.00, 0.00, 0.00, 0.00, 0.00, 0.00
8, 10109.31, 46034.38, 1504.25, 21028.72, -2495.51, 441.00, 11809.68, -50437.61, -22482.61, 31401.36, 5878.24, 9896.35, 0.00, 0.00, 0.00, 0.00, 0.00, 0.00, 0.00
9, 10099.39, 46036.39, 1493.90, 21008.81, -2502.93, 422.89, 11784.15, -50474.82, -22482.61, 31401.36, 5878.24, 9896.35, 0.00, 0.00, 0.00, 0.00, 0.00, 0.00, 0.00
10, 10099.39, 46036.39, 1493.90, 21008.81, -2502.93, 422.89, 11784.15, -50474.82, -22472.80, 31397.61, 5864.07, 10058.26, 0.00, 0.00, 0.00, 0.00, 0.00, 0.00, 0.00
11, 10127.17, 46040.28, 1482.26, 21028.79, -2493.63, 433.67, 11797.47, -50484.54, -22472.80, 31397.61, 5864.07, 10058.26, 0.00, 0.00, 0.00, 0.00, 0.00, 0.00, 0.00
12, 10127.17, 46040.28, 1482.26, 21028.79, -2493.63, 433.67, 11797.47, -50484.54, -22473.22, 31408.07, 5864.27, 9908.86, 0.00, 0.00, 0.00, 0.00, -0.07, 0.33, 0.95
13, 10117.56, 46009.54, 1469.40, 21006.88, -2506.90, 425.96, 11779.73, -50481.77, -22473.22, 31408.07, 5864.27, 9908.86, 0.00, 0.00, 0.00, 0.00, 0.00, 0.00, 0.00
14, 10117.56, 46009.54, 1469.40, 21006.88, -2506.90, 425.96, 11779.73, -50481.77, -22475.19, 31407.35, 5867.13, 9902.27, 0.00, 0.00, 0.00, 0.00, 0.00, 0.00, 0.00
15, 10120.76, 46038.22, 1491.31, 21032.63, -2486.07, 442.43, 11814.37, -50471.67, -22475.19, 31407.35, 5867.13, 9902.27, 0.00, 0.00, 0.00, 0.00, 0.00, 0.00, 0.00
16, 10120.76, 46038.22, 1491.31, 21032.63, -2486.07, 442.43, 11814.37, -50471.67, -22471.39, 31408.80, 5875.27, 9997.89, 0.00, 0.00, 0.00, 0.00, 0.00, 0.00, 0.00
17, 10097.06, 46029.88, 1481.16, 21014.21, -2505.99, 426.07, 11786.61, -50502.85, -22471.39, 31408.80, 5875.27, 9997.89, 0.00, 0.00, 0.00, 0.00, 0.00, 0.00, 0.00
18, 10097.06, 46029.88, 1481.16, 21014.21, -2505.99, 426.07, 11786.61, -50502.85, -22475.95, 31392.91, 5868.18, 9952.07, 0.00, 0.00, 0.00, 0.00, 0.00, 0.00, 0.00
19, 10133.86, 46051.41, 1477.41, 21034.31, -2477.74, 442.12, 11809.05, -50487.20, -22475.95, 31392.91, 5868.18, 9952.07, 0.00, 0.00, 0.00, 0.00, 0.00, 0.00, 0.00
20, 10133.86, 46051.41, 1477.41, 21034.31, -2477.74, 442.12, 11809.05, -50487.20, -22474.01, 31404.42, 5874.11, 9852.67, 0.00, 0.00, 0.00, 0.00, 0.00, 0.00, 0.00
21, 10122.93, 46032.30, 1469.31, 21022.44, -2499.60, 433.31, 11793.61, -50502.42, -22474.01, 31404.42, 5874.11, 9852.67, 0.00, 0.00, 0.00, 0.00, -0.07, 0.33, 0.95
22, 10122.93, 46032.30, 1469.31, 21022.44, -2499.60, 433.31, 11793.61, -50502.42, -22477.63, 31399.82, 5866.91, 9981.91, 0.00, 0.00, 0.00, 0.00, 0.00, 0.00, 0.00
23, 10121.45, 46062.56, 1503.09, 21041.10, -2481.92, 443.79, 11817.12, -50489.17, -22477.63, 31399.82, 5866.91, 9981.91, 0.00, 0.00, 0.00, 0.00, 0.00, 0.00, 0.00
24, 10121.45, 46062.56, 1503.09, 21041.10, -2481.92, 443.79, 11817.12, -50489.17, -22463.84, 31407.06, 5877.26, 9934.32, 0.00, 0.00, 0.00, 0.00, 0.00, 0.00, 0.00
25, 10141.19, 46036.93, 1470.79, 21022.53, -2485.27, 430.05, 11804.13, -50504.99, -22463.84, 31407.06, 5877.26, 9934.32, 0.00, 0.00, 0.00, 0.00, 0.00, 0.00, 0.00
26, 10141.19, 46036.93, 1470.79, 21022.53, -2485.27, 430.05, 11804.13, -50504.99, -22476.98, 31402.50, 5868.34, 9891.18, 0.00, 0.00, 0.00, 0.00, 0.00, 0.00, 0.00
27, 10143.24, 46062.27, 1498.26, 21043.43, -2477.76, 447.57, 11822.22, -50479.18, -22476.98, 31402.50, 5868.34, 9891.18, 0.00, 0.00, 0.00, 0.00, 0.00, 0.00, 0.00
28, 10143.24, 46062.27, 1498.26, 21043.43, -2477.76, 447.57, 11822.22, -50479.18, -22467.53, 31418.71, 5883.47, 10032.65, 0.00, 0.00, 0.00, 0.00, 0.00, 0.00, 0.00
29, 10111.46, 46030.62, 1491.82, 21029.37, -2485.33, 436.55, 11809.75, -50497.66, -22467.53, 31418.71, 5883.47, 10032.65, 0.00, 0.00, 0.00, 0.00, 0.00, 0.00, 0.00
30, 10111.46, 46030.62, 1491.82, 21029.37, -2485.33, 436.55, 11809.75, -50497.66, -22461.60, 31401.21, 5861.99, 9937.72, 0.00, 0.00, 0.00, 0.00, 0.00, 0.00, 0.00
31, 10139.51, 46033.77, 1449.78, 21033.08, -2481.67, 449.69, 11817.34, -50500.75, -22461.60, 31401.21, 5861.99, 9937.72, 0.00, 0.00, 0.00, 0.00, -0.07, 0.33, 0.96
32, 10139.51, 46033.77, 1449.78, 21033.08, -2481.67, 449.69, 11817.34, -50500.75, -22461.74, 31419.42, 5873.64, 9908.91, 0.00, 0.00, 0.00, 0.00, 0.00, 0.00, 0.00
33, 10118.21, 46035.14, 1478.10, 21023.45, -2491.28, 438.16, 11806.79, -50503.99, -22461.74, 31419.42, 5873.64, 9908.91, 0.00, 0.00, 0.00, 0.00, 0.00, 0.00, 0.00
34, 10118.21, 46035.14, 1478.10, 21023.45, -2491.28, 438.16, 11806.79, -50503.99, -22479.15, 31390.72, 5863.85, 9928.91, 0.00, 0.00, 0.00, 0.00, 0.00, 0.00, 0.00
35, 10113.99, 46022.93, 1460.69, 21026.49, -2492.51, 430.61, 11808.20, -50505.98, -22479.15, 31390.72, 5863.85, 9928.91, 0.00, 0.00, 0.00, 0.00, 0.00, 0.00, 0.00
36, 10113.99, 46022.93, 1460.69, 21026.49, -2492.51, 430.61, 11808.20, -50505.98, -22475.01, 31414.24, 5855.02, 9938.57, 0.00, 0.00, 0.00, 0.00, 0.00, 0.00, 0.00
37, 10113.20, 46006.37, 1429.95, 21020.52, -2500.62, 434.34, 11808.87, -50506.40, -22475.01, 31414.24, 5855.02, 9938.57, 0.00, 0.00, 0.00, 0.00, 0.00, 0.00, 0.00
38, 10113.20, 46006.37, 1429.95, 21020.52, -2500.62, 434.34, 11808.87, -50506.40, -22468.20, 31395.48, 5844.82, 9978.20, 0.00, 0.00, 0.00, 0.00, 0.00, 0.00, 0.00
39, 10083.81, 46035.65, 1474.90, 21016.88, -2496.67, 425.33, 11806.12, -50507.77, -22468.20, 31395.48, 5844.82, 9978.20, 0.00, 0.00, 0.00, 0.00, 0.00, 0.00, 0.00
40, 10083.81, 46035.65, 1474.90, 21016.88, -2496.67, 425.33, 11806.12, -50507.77, -22470.95, 31417.92, 5867.47, 9916.08, 0.00, 0.00, 0.00, 0.00, 0.00, 0.00, 0.00
41, 10139.60, 46029.06, 1428.32, 21025.35, -2486.21, 437.36, 11810.75, -50502.98, -22470.95, 31417.92, 5867.47, 9916.08, 0.00, 0.00, 0.00, 0.00, -0.07, 0.32, 0.95
42, 10139.60, 46029.06, 1428.32, 21025.35, -2486.21, 437.36, 11810.75, -50502.98, -22467.15, 31394.07, 5849.61, 9962.64, 0.00, 0.00, 0.00, 0.00, 0.00, 0.00, 0.00
43, 10114.86, 46016.05, 1439.61, 21020.12, -2497.11, 432.98, 11806.79, -50505.22, -22467.15, 31394.07, 5849.61, 9962.64, 0.00, 0.00, 0.00, 0.00, 0.00, 0.00, 0.00
44, 10114.86, 46016.05, 1439.61, 21020.12, -2497.11, 432.98, 11806.79, -50505.22, -22468.69, 31415.62, 5861.70, 9873.59, 0.00, 0.00, 0.00, 0.00, 0.00, 0.00, 0.00
45, 10098.09, 46032.37, 1459.26, 21026.89, -2498.03, 442.61, 11808.20, -50503.50, -22468.69, 31415.62, 5861.70, 9873.59, 0.00, 0.00, 0.00, 0.00, 0.00, 0.00, 0.00
46, 10098.09, 46032.37, 1459.26, 21026.89, -2498.03, 442.61, 11808.20, -50503.50, -22465.40, 31398.88, 5848.04, 9990.36, 0.00, 0.00, 0.00, 0.00, 0.00, 0.00, 0.00
47, 10098.23, 46005.68, 1431.32, 21009.70, -2501.43, 413.19, 11793.29, -50524.93, -22465.40, 31398.88, 5848.04, 9990.36, 0.00, 0.00, 0.00, 0.00, 0.00, 0.00, 0.00
48, 10098.23, 46005.68, 1431.32, 21009.70, -2501.43, 413.19, 11793.29, -50524.93, -22451.48, 31417.79, 5849.85, 9908.95, 0.00, 0.00, 0.00, 0.00, 0.00, 0.00, 0.00
49, 10124.25, 46029.46, 1448.68, 21036.41, -2487.08, 452.94, 11821.79, -50485.32, -22451.48, 31417.79, 5849.85, 9908.95, 0.00, 0.00, 0.00, 0.00, 0.00, 0.00, 0.00
50, 10124.25, 46029.46, 1448.68, 21036.41, -2487.08, 452.94, 11821.79, -50485.32, -22480.49, 31397.90, 5858.12, 10029.58, 0.00, 0.00, 0.00, 0.00, 0.00, 0.00, 0.00
51, 10090.45, 46023.61, 1450.40, 21025.95, -2496.60, 429.31, 11813.70, -50487.89, -22480.49, 31397.90, 5858.12, 10029.58, 0.00, 0.00, 0.00, 0.00, -0.07, 0.33, 0.95
52, 10090.45, 46023.61, 1450.40, 21025.95, -2496.60, 429.31, 11813.70, -50487.89, -22473.56, 31416.13, 5864.92, 9931.30, 0.00, 0.00, 0.00, 0.00, 0.00, 0.00, 0.00
53, 10144.67, 46027.23, 1432.46, 21037.17, -2478.12, 443.03, 11832.28, -50471.13, -22473.56, 31416.13, 5864.92, 9931.30, 0.00, 0.00, 0.00, 0.00, 0.00, 0.00, 0.00
54, 10144.67, 46027.23, 1432.46, 21037.17, -2478.12, 443.03, 11832.28, -50471.13, -22467.66, 31404.00, 5858.21, 9924.38, 0.00, 0.00, 0.00, 0.00, 0.00, 0.00, 0.00
55, 10110.48, 46022.64, 1444.28, 21024.41, -2493.29, 433.42, 11813.77, -50493.73, -22467.66, 31404.00, 5858.21, 9924.38, 0.00, 0.00, 0.00, 0.00, 0.00, 0.00, 0.00
56, 10110.48, 46022.64, 1444.28, 21024.41, -2493.29, 433.42, 11813.77, -50493.73, -22459.43, 31408.92, 5860.83, 9970.67, 0.00, 0.00, 0.00, 0.00, 0.00, 0.00, 0.00
57, 10094.54, 46029.77, 1451.99, 21039.21, -2487.48, 442.50, 11826.98, -50487.22, -22459.43, 31408.92, 5860.83, 9970.67, 0.00, 0.00, 0.00, 0.00, 0.00, 0.00, 0.00
58, 10094.54, 46029.77, 1451.99, 21039.21, -2487.48, 442.50, 11826.98, -50487.22, -22470.03, 31402.84, 5851.22, 9988.08, 0.00, 0.00, 0.00, 0.00, 0.00, 0.00, 0.00
59, 10122.08, 45996.54, 1426.24, 21021.52, -2492.53, 426.07, 11810.17, -50501.44, -22470.03, 31402.84, 5851.22, 9988.08, 0.00, 0.00, 0.00, 0.00, 0.00, 0.00, 0.00
60, 10122.08, 45996.54, 1426.24, 21021.52, -2492.53, 426.07, 11810.17, -50501.44, -22463.12, 31409.83, 5846.05, 9907.57, 0.00, 0.00, 0.00, 0.00, -0.07, 0.32, 0.95
61, 10110.65, 46020.18, 1432.61, 21035.67, -2496.15, 439.82, 11822.96, -50485.93, -22463.12, 31409.83, 5846.05, 9907.57, 0.00, 0.00, 0.00, 0.00, 0.00, 0.00, 0.00
62, 10110.65, 46020.18, 1432.61, 21035.67, -2496.15, 439.82, 11822.96, -50485.93, -22473.18, 31404.65, 5841.92, 9939.22, 0.00, 0.00, 0.00, 0.00, 0.00, 0.00, 0.00
63, 10096.35, 46008.58, 1415.65, 21016.03, -2503.86, 427.83, 11802.50, -50501.20, -22473.18, 31404.65, 5841.92, 9939.22, 0.00, 0.00, 0.00, 0.00, 0.00, 0.00, 0.00
64, 10096.35, 46008.58, 1415.65, 21016.03, -2503.86, 427.83, 11802.50, -50501.20, -22459.88, 31409.47, 5838.45, 9965.64, 0.00, 0.00, 0.00, 0.00, 0.00, 0.00, 0.00
65, 10099.23, 46013.05, 1427.34, 21032.10, -2486.97, 440.55, 11824.27, -50476.29, -22459.88, 31409.47, 5838.45, 9965.64, 0.00, 0.00, 0.00, 0.00, 0.00, 0.00, 0.00
66, 10099.23, 46013.05, 1427.34, 21032.10, -2486.97, 440.55, 11824.27, -50476.29, -22468.80, 31413.34, 5831.88, 9947.78, 0.00, 0.00, 0.00, 0.00, 0.00, 0.00, 0.00
67, 10087.14, 46004.43, 1407.80, 21004.65, -2513.52, 417.37, 11795.10, -50509.24, -22468.80, 31413.34, 5831.88, 9947.78, 0.00, 0.00, 0.00, 0.00, 0.00, 0.00, 0.00
68, 10087.14, 46004.43, 1407.80, 21004.65, -2513.52, 417.37, 11795.10, -50509.24, -22460.28, 31399.95, 5829.07, 9930.32, 0.00, 0.00, 0.00, 0.00, 0.00, 0.00, 0.00
69, 10108.67, 46020.96, 1429.64, 21033.15, -2498.77, 447.62, 11820.07, -50477.17, -22460.28, 31399.95, 5829.07, 9930.32, 0.00, 0.00, 0.00, 0.00, 0.00, 0.00, 0.00
70, 10108.67, 46020.96, 1429.64, 21033.15, -2498.77, 447.62, 11820.07, -50477.17, -22465.42, 31415.73, 5840.85, 9934.52, 0.00, 0.00, 0.00, 0.00, -0.07, 0.32, 0.95
71, 10095.77, 45990.16, 1403.15, 21008.45, -2498.59, 418.04, 11807.04, -50481.77, -22465.42, 31415.73, 5840.85, 9934.52, 0.00, 0.00, 0.00, 0.00, 0.00, 0.00, 0.00
72, 10095.77, 45990.16, 1403.15, 21008.45, -2498.59, 418.04, 11807.04, -50481.77, -22460.39, 31405.05, 5825.54, 10004.75, 0.00, 0.00, 0.00, 0.00, 0.00, 0.00, 0.00
73, 10098.25, 46013.28, 1414.64, 21023.69, -2490.68, 431.75, 11819.49, -50473.72, -22460.39, 31405.05, 5825.54, 10004.75, 0.00, 0.00, 0.00, 0.00, 0.00, 0.00, 0.00
74, 10098.25, 46013.28, 1414.64, 21023.69, -2490.68, 431.75, 11819.49, -50473.72, -22457.91, 31425.57, 5851.49, 9903.23, 0.00, 0.00, 0.00, 0.00, 0.00, 0.00, 0.00
75, 10104.82, 46020.90, 1427.18, 21013.10, -2502.55, 428.19, 11810.75, -50467.58, -22457.91, 31425.57, 5851.49, 9903.23, 0.00, 0.00, 0.00, 0.00, 0.00, 0.00, 0.00
76, 10104.82, 46020.90, 1427.18, 21013.10, -2502.55, 428.19, 11810.75, -50467.58, -22471.64, 31397.63, 5835.24, 9974.13, 0.00, 0.00, 0.00, 0.00, 0.00, 0.00, 0.00
77, 10111.82, 46022.93, 1410.95, 21030.91, -2493.87, 440.89, 11826.11, -50461.79, -22471.64, 31397.63, 5835.24, 9974.13, 0.00, 0.00, 0.00, 0.00, 0.00, 0.00, 0.00
78, 10111.82, 46022.93, 1410.95, 21030.91, -2493.87, 440.89, 11826.11, -50461.79, -22459.39, 31413.79, 5845.50, 9951.85, 0.00, 0.00, 0.00, 0.00, 0.00, 0.00, 0.00
79, 10113.72, 45991.82, 1414.95, 21018.98, -2494.79, 424.88, 11817.52, -50467.36, -22459.39, 31413.79, 5845.50, 9951.85, 0.00, 0.00, 0.00, 0.00, 0.00, 0.00, 0.00
80, 10113.72, 45991.82, 1414.95, 21018.98, -2494.79, 424.88, 11817.52, -50467.36, -22445.98, 31416.22, 5842.77, 9960.79, 0.00, 0.00, 0.00, 0.00, -0.07, 0.32, 0.95
81, 10097.42, 45995.51, 1430.44, 21028.36, -2494.37, 449.81, 11818.44, -50461.12, -22445.98, 31416.22, 5842.77, 9960.79, 0.00, 0.00, 0.00, 0.00, 0.00, 0.00, 0.00
82, 10097.42, 45995.51, 1430.44, 21028.36, -2494.37, 449.81, 11818.44, -50461.12, -22461.56, 31425.61, 5839.19, 9996.55, 0.00, 0.00, 0.00, 0.00, 0.00, 0.00, 0.00
83, 10085.87, 46018.42, 1417.79, 21032.43, -2488.17, 432.10, 11832.34, -50448.15, -22461.56, 31425.61, 5839.19, 9996.55, 0.00, 0.00, 0.00, 0.00, 0.00, 0.00, 0.00
84, 10085.87, 46018.42, 1417.79, 21032.43, -2488.17, 432.10, 11832.34, -50448.15, -22461.51, 31413.16, 5826.76, 9972.10, 0.00, 0.00, 0.00, 0.00, 0.00, 0.00, 0.00
85, 10117.58, 45989.63, 1396.18, 21020.88, -2491.84, 426.09, 11829.64, -50441.94, -22461.51, 31413.16, 5826.76, 9972.10, 0.00, 0.00, 0.00, 0.00, 0.00, 0.00, 0.00
86, 10117.58, 45989.63, 1396.18, 21020.88, -2491.84, 426.09, 11829.64, -50441.94, -22462.52, 31427.74, 5831.75, 9966.13, 0.00, 0.00, 0.00, 0.00, 0.00, 0.00, 0.00
87, 10086.31, 45987.10, 1418.26, 21023.02, -2494.23, 435.88, 11823.16, -50452.87, -22462.52, 31427.74, 5831.75, 9966.13, 0.00, 0.00, 0.00, 0.00, 0.00, 0.00, 0.00
88, 10086.31, 45987.10, 1418.26, 21023.02, -2494.23, 435.88, 11823.16, -50452.87, -22452.53, 31408.25, 5827.30, 9893.53, 0.00, 0.00, 0.00, 0.00, 0.00, 0.00, 0.00
89, 10070.85, 46011.63, 1414.13, 21017.93, -2507.53, 434.00, 11806.12, -50475.85, -22452.53, 31408.25, 5827.30, 9893.53, 0.00, 0.00, 0.00, 0.00, 0.00, 0.00, 0.00
90, 10070.85, 46011.63, 1414.13, 21017.93, -2507.53, 434.00, 11806.12, -50475.85, -22464.13, 31420.70, 5833.49, 10018.99, 0.00, 0.00, 0.00, 0.00, -0.07, 0.32, 0.95
91, 10114.30, 45995.53, 1387.48, 21015.91, -2493.14, 431.57, 11823.65, -50439.86, -22464.13, 31420.70, 5833.49, 10018.99, 0.00, 0.00, 0.00, 0.00, 0.00, 0.00, 0.00
92, 10114.30, 45995.53, 1387.48, 21015.91, -2493.14, 431.57, 11823.65, -50439.86, -22457.45, 31417.12, 5822.92, 10002.29, 0.00, 0.00, 0.00, 0.00, 0.00, 0.00, 0.00
93, 10077.51, 45980.00, 1400.87, 21006.86, -2508.45, 419.21, 11817.23, -50454.19, -22457.45, 31417.12, 5822.92, 10002.29, 0.00, 0.00, 0.00, 0.00, 0.00, 0.00, 0.00
94, 10077.51, 45980.00, 1400.87, 21006.86, -2508.45, 419.21, 11817.23, -50454.19, -22460.82, 31425.05, 5833.04, 9968.72, 0.00, 0.00, 0.00, 0.00, 0.00, 0.00, 0.00
95, 10067.63, 45989.70, 1416.65, 21018.84, -2500.31, 434.12, 11818.82, -50452.04, -22460.82, 31425.05, 5833.04, 9968.72, 0.00, 0.00, 0.00, 0.00, 0.00, 0.00, 0.00
96, 10067.63, 45989.70, 1416.65, 21018.84, -2500.31, 434.12, 11818.82, -50452.04, -22469.40, 31403.95, 5808.75, 9973.08, 0.00, 0.00, 0.00, 0.00, 0.00, 0.00, 0.00
97, 10094.05, 45974.90, 1374.07, 21000.63, -2508.98, 417.15, 11804.36, -50465.05, -22469.40, 31403.95, 5808.75, 9973.08, 0.00, 0.00, 0.00, 0.00, 0.00, 0.00, 0.00
98, 10094.05, 45974.90, 1374.07, 21000.63, -2508.98, 417.15, 11804.36, -50465.05, -22459.63, 31419.62, 5830.16, 9993.49, 0.00, 0.00, 0.00, 0.00, 0.00, 0.00, 0.00
99, 10097.49, 46024.59, 1404.02, 21016.34, -2500.11, 427.50, 11816.61, -50445.02, -22459.63, 31419.62, 5830.16, 9993.49, 0.00, 0.00, 0.00, 0.00, -0.07, 0.32, 0.95
100, 10097.49, 46024.59, 1404.02, 21016.34, -2500.11, 427.50, 11816.61, -50445.02, -22459.43, 31406.90, 5824.53, 9992.86, 0.00, 0.00, 0.00, 0.00, 0.00, 0.00, 0.00
101, 10056.12, 46000.02, 1391.17, 20997.56, -2527.20, 419.97, 11791.15, -50465.25, -22459.43, 31406.90, 5824.53, 9992.86, 0.00, 0.00, 0.00, 0.00, 0.00, 0.00, 0.00
102, 10056.12, 46000.02, 1391.17, 20997.56, -2527.20, 419.97, 11791.15, -50465.25, -22468.29, 31418.10, 5820.13, 9984.59, 0.00, 0.00, 0.00, 0.00, 0.00, 0.00, 0.00
103, 10123.17, 45984.31, 1399.84, 21023.98, -2500.49, 432.26, 11832.07, -50424.95, -22468.29, 31418.10, 5820.13, 9984.59, 0.00, 0.00, 0.00, 0.00, 0.00, 0.00, 0.00
104, 10123.17, 45984.31, 1399.84, 21023.98, -2500.49, 432.26, 11832.07, -50424.95, -22467.50, 31415.87, 5827.90, 9950.71, 0.00, 0.00, 0.00, 0.00, 0.00, 0.00, 0.00
105, 10072.05, 45975.88, 1400.40, 21004.65, -2516.00, 412.39, 11805.77, -50454.82, -22467.50, 31415.87, 5827.90, 9950.71, 0.00, 0.00, 0.00, 0.00, 0.00, 0.00, 0.00
106, 10072.05, 45975.88, 1400.40, 21004.65, -2516.00, 412.39, 11805.77, -50454.82, -22470.63, 31401.43, 5829.38, 10018.41, 0.00, 0.00, 0.00, 0.00, 0.00, 0.00, 0.00
107, 10116.33, 46011.00, 1410.78, 21024.45, -2495.86, 433.82, 11821.68, -50435.10, -22470.63, 31401.43, 5829.38, 10018.41, 0.00, 0.00, 0.00, 0.00, 0.00, 0.00, 0.00
108, 10116.33, 46011.00, 1410.78, 21024.45, -2495.86, 433.82, 11821.68, -50435.10, -22460.13, 31419.82, 5833.85, 9965.61, 0.00, 0.00, 0.00, 0.00, 0.00, 0.00, 0.00
109, 10107.59, 46001.90, 1397.83, 21015.13, -2504.76, 424.71, 11809.12, -50434.23, -22460.13, 31419.82, 5833.85, 9965.61, 0.00, 0.00, 0.00, 0.00, -0.07, 0.32, 0.95
110, 10107.59, 46001.90, 1397.83, 21015.13, -2504.76, 424.71, 11809.12, -50434.23, -22457.42, 31424.21, 5837.85, 9937.83, 0.00, 0.00, 0.00, 0.00, 0.00, 0.00, 0.00
111, 10101.00, 46007.31, 1421.24, 21033.71, -2490.65, 442.14, 11835.65, -50410.31, -22457.42, 31424.21, 5837.85, 9937.83, 0.00, 0.00, 0.00, 0.00, 0.00, 0.00, 0.00
112, 10101.00, 46007.31, 1421.24, 21033.71, -2490.65, 442.14, 11835.65, -50410.31, -22466.63, 31415.44, 5841.20, 10085.51, 0.00, 0.00, 0.00, 0.00, 0.00, 0.00, 0.00
113, 10096.64, 45991.86, 1406.19, 21008.09, -2507.42, 417.31, 11811.02, -50429.07, -22466.63, 31415.44, 5841.20, 10085.51, 0.00, 0.00, 0.00, 0.00, 0.00, 0.00, 0.00
114, 10096.64, 45991.86, 1406.19, 21008.09, -2507.42, 417.31, 11811.02, -50429.07, -22463.39, 31413.10, 5828.73, 9945.27, 0.00, 0.00, 0.00, 0.00, 0.00, 0.00, 0.00
115, 10102.63, 46022.91, 1419.16, 21030.46, -2489.98, 440.58, 11834.29, -50402.40, -22463.39, 31413.10, 5828.73, 9945.27, 0.00, 0.00, 0.00, 0.00, 0.00, 0.00, 0.00
116, 10102.63, 46022.91, 1419.16, 21030.46, -2489.98, 440.58, 11834.29, -50402.40, -22453.33, 31430.20, 5842.70, 9942.73, 0.00, 0.00, 0.00, 0.00, 0.00, 0.00, 0.00
117, 10084.41, 46005.30, 1404.25, 21011.29, -2514.12, 424.84, 11809.66, -50420.82, -22453.33, 31430.20, 5842.70, 9942.73, 0.00, 0.00, 0.00, 0.00, 0.00, 0.00, 0.00
118, 10084.41, 46005.30, 1404.25, 21011.29, -2514.12, 424.84, 11809.66, -50420.82, -22452.84, 31413.79, 5829.94, 10032.83, 0.00, 0.00, 0.00, 0.00, 0.00, 0.00, 0.00
119, 10111.84, 45995.26, 1401.12, 21024.43, -2494.90, 439.64, 11818.37, -50413.13, -22452.84, 31413.79, 5829.94, 10032.83, 0.00, 0.00, 0.00, 0.00, -0.07, 0.32, 0.95
120, 10111.84, 45995.26, 1401.12, 21024.43, -2494.90, 439.64, 11818.37, -50413.13, -22459.01, 31421.79, 5830.41, 9994.31, 0.00, 0.00, 0.00, 0.00, 0.00, 0.00, 0.00
121, 10073.22, 45980.75, 1411.45, 21002.03, -2508.89, 412.66, 11804.87, -50419.14, -22459.01, 31421.79, 5830.41, 9994.31, 0.00, 0.00, 0.00, 0.00, 0.00, 0.00, 0.00
122, 10073.22, 45980.75, 1411.45, 21002.03, -2508.89, 412.66, 11804.87, -50419.14, -22466.95, 31412.85, 5822.90, 10038.39, 0.00, 0.00, 0.00, 0.00, 0.00, 0.00, 0.00
123, 10078.38, 45993.34, 1399.29, 21016.34, -2500.44, 426.67, 11822.55, -50391.83, -22466.95, 31412.85, 5822.90, 10038.39, 0.00, 0.00, 0.00, 0.00, 0.00, 0.00, 0.00
124, 10078.38, 45993.34, 1399.29, 21016.34, -2500.44, 426.67, 11822.55, -50391.83, -22459.57, 31426.80, 5834.59, 9984.86, 0.00, 0.00, 0.00, 0.00, 0.00, 0.00, 0.00
125, 10096.93, 45989.41, 1385.81, 21006.28, -2510.08, 425.87, 11808.38, -50406.96, -22459.57, 31426.80, 5834.59, 9984.86, 0.00, 0.00, 0.00, 0.00, 0.00, 0.00, 0.00
126, 10096.93, 45989.41, 1385.81, 21006.28, -2510.08, 425.87, 11808.38, -50406.96, -22462.72, 31413.23, 5828.26, 9943.15, 0.00, 0.00, 0.00, 0.00, 0.00, 0.00, 0.00
127, 10078.16, 46003.46, 1418.02, 21017.88, -2501.58, 430.49, 11823.98, -50388.79, -22462.72, 31413.23, 5828.26, 9943.15, 0.00, 0.00, 0.00, 0.00, 0.00, 0.00, 0.00
128, 10078.16, 46003.46, 1418.02, 21017.88, -2501.58, 430.49, 11823.98, -50388.79, -22466.77, 31424.18, 5837.07, 10055.85, 0.00, 0.00, 0.00, 0.00, 0.00, 0.00, 0.00
129, 10107.62, 46015.49, 1392.67, 21010.97, -2504.71, 421.40, 11812.07, -50399.20, -22466.77, 31424.18, 5837.07, 10055.85, 0.00, 0.00, 0.00, 0.00, -0.06, 0.32, 0.96
130, 10107.62, 46015.49, 1392.67, 21010.97, -2504.71, 421.40, 11812.07, -50399.20, -22459.93, 31412.02, 5822.18, 9939.78, 0.00, 0.00, 0.00, 0.00, 0.00, 0.00, 0.00
131, 10100.71, 45985.92, 1397.34, 21013.12, -2503.80, 425.17, 11816.03, -50387.96, -22459.93, 31412.02, 5822.18, 9939.78, 0.00, 0.00, 0.00, 0.00, 0.00, 0.00, 0.00
132, 10100.71, 45985.92, 1397.34, 21013.12, -2503.80, 425.17, 11816.03, -50387.96, -22463.75, 31429.14, 5840.69, 9977.10, 0.00, 0.00, 0.00, 0.00, 0.00, 0.00, 0.00
133, 10098.21, 46003.49, 1416.70, 21019.42, -2499.82, 430.52, 11812.83, -50388.86, -22463.75, 31429.14, 5840.69, 9977.10, 0.00, 0.00, 0.00, 0.00, 0.00, 0.00, 0.00
134, 10098.21, 46003.49, 1416.70, 21019.42, -2499.82, 430.52, 11812.83, -50388.86, -22461.45, 31407.60, 5833.65, 10060.52, 0.00, 0.00, 0.00, 0.00, 0.00, 0.00, 0.00
135, 10084.66, 45996.80, 1436.05, 21021.21, -2508.27, 429.65, 11814.57, -50386.62, -22461.45, 31407.60, 5833.65, 10060.52, 0.00, 0.00, 0.00, 0.00, 0.00, 0.00, 0.00
136, 10084.66, 45996.80, 1436.05, 21021.21, -2508.27, 429.65, 11814.57, -50386.62, -22464.98, 31426.17, 5846.95, 10002.45, 0.00, 0.00, 0.00, 0.00, 0.00, 0.00, 0.00
137, 10093.89, 45997.09, 1412.03, 21022.84, -2500.22, 432.75, 11818.73, -50378.04, -22464.98, 31426.17, 5846.95, 10002.45, 0.00, 0.00, 0.00, 0.00, 0.00, 0.00, 0.00
138, 10093.89, 45997.09, 1412.03, 21022.84, -2500.22, 432.75, 11818.73, -50378.04, -22459.19, 31416.47, 5830.05, 9946.21, 0.00, 0.00, 0.00, 0.00, -0.07, 0.32, 0.95
139, 10107.35, 45998.17, 1398.10, 21016.16, -2499.84, 426.45, 11811.33, -50372.40, -22459.19, 31416.47, 5830.05, 9946.21, 0.00, 0.00, 0.00, 0.00, 0.00, 0.00, 0.00
140, 10107.35, 45998.17, 1398.10, 21016.16, -2499.84, 426.45, 11811.33, -50372.40, -22463.93, 31430.37, 5843.91, 9965.77, 0.00, 0.00, 0.00, 0.00, 0.00, 0.00, 0.00
141, 10096.71, 45996.18, 1427.56, 21022.75, -2497.41, 433.56, 11817.61, -50363.78, -22463.93, 31430.37, 5843.91, 9965.77, 0.00, 0.00, 0.00, 0.00, 0.00, 0.00, 0.00
142, 10096.71, 45996.18, 1427.56, 21022.75, -2497.41, 433.56, 11817.61, -50363.78, -22467.10, 31406.86, 5833.07, 10043.33, 0.00, 0.00, 0.00, 0.00, 0.00, 0.00, 0.00
143, 10081.87, 45980.82, 1409.46, 21005.79, -2506.06, 415.30, 11803.93, -50369.54, -22467.10, 31406.86, 5833.07, 10043.33, 0.00, 0.00, 0.00, 0.00, 0.00, 0.00, 0.00
144, 10081.87, 45980.82, 1409.46, 21005.79, -2506.06, 415.30, 11803.93, -50369.54, -22458.94, 31433.46, 5841.14, 10062.73, 0.00, 0.00, 0.00, 0.00, 0.00, 0.00, 0.00
145, 10098.16, 45991.55, 1416.88, 21016.41, -2494.68, 430.49, 11814.51, -50352.24, -22458.94, 31433.46, 5841.14, 10062.73, 0.00, 0.00, 0.00, 0.00, 0.00, 0.00, 0.00
146, 10098.16, 45991.55, 1416.88, 21016.41, -2494.68, 430.49, 11814.51, -50352.24, -22467.35, 31413.90, 5833.87, 9951.62, 0.00, 0.00, 0.00, 0.00, 0.00, 0.00, 0.00
147, 10079.36, 45989.11, 1400.98, 20996.89, -2519.89, 414.27, 11794.59, -50365.36, -22467.35, 31413.90, 5833.87, 9951.62, 0.00, 0.00, 0.00, 0.00, 0.00, 0.00, 0.00
148, 10079.36, 45989.11, 1400.98, 20996.89, -2519.89, 414.27, 11794.59, -50365.36, -22464.29, 31423.58, 5841.72, 10068.30, 0.00, 0.00, 0.00, 0.00, -0.07, 0.32, 0.95
149, 10102.23, 46000.98, 1428.63, 21017.08, -2492.31, 431.79, 11817.17, -50339.73, -22464.29, 31423.58, 5841.72, 10068.30, 0.00, 0.00, 0.00, 0.00, 0.00, 0.00, 0.00
150, 10102.23, 46000.98, 1428.63, 21017.08, -2492.31, 431.79, 11817.17, -50339.73, -22452.37, 31426.53, 5844.44, 9995.12, 0.00, 0.00, 0.00, 0.00, 0.00, 0.00, 0.00
151, 10079.56, 45975.77, 1413.08, 21000.85, -2514.01, 412.05, 11796.36, -50348.00, -22452.37, 31426.53, 5844.44, 9995.12, 0.00, 0.00, 0.00, 0.00, 0.00, 0.00, 0.00
152, 10079.56, 45975.77, 1413.08, 21000.85, -2514.01, 412.05, 11796.36, -50348.00, -22453.96, 31436.86, 5841.11, 9933.83, 0.00, 0.00, 0.00, 0.00, 0.00, 0.00, 0.00
153, 10115.86, 46014.75, 1433.69, 21073.65, -2482.61, 444.31, 11825.53, -50315.21, -22453.96, 31436.86, 5841.11, 9933.83, 0.00, 0.00, 0.00, 0.00, 0.00, 0.00, 0.00
154, 10115.86, 46014.75, 1433.69, 21073.65, -2482.61, 444.31, 11825.53, -50315.21, -22443.74, 31430.49, 5873.50, 10125.09, 0.00, 0.00, 0.00, 0.00, 0.00, 0.00, 0.00
155, 10089.11, 45976.04, 1420.32, 21057.40, -2492.89, 431.86, 11803.33, -50334.36, -22443.74, 31430.49, 5873.50, 10125.09, 0.00, 0.00, 0.00, 0.00, 0.00, 0.00, 0.00
156, 10089.11, 45976.04, 1420.32, 21057.40, -2492.89, 431.86, 11803.33, -50334.36, -22467.77, 31421.57, 5762.55, 10024.00, 0.00, 0.00, 0.00, 0.00, 0.00, 0.00, 0.00
157, 10068.68, 45972.29, 1383.86, 21042.29, -2498.93, 432.26, 11809.81, -50322.07, -22467.77, 31421.57, 5762.55, 10024.00, 0.00, 0.00, 0.00, 0.00, 0.00, 0.00, 0.00
158, 10068.68, 45972.29, 1383.86, 21042.29, -2498.93, 432.26, 11809.81, -50322.07, -22458.63, 31433.06, 5743.33, 9986.27, 0.00, 0.00, 0.00, 0.00, -0.07, 0.32, 0.96
159, 10047.47, 45940.14, 1361.60, 21070.34, -2502.52, 435.17, 11798.55, -50325.40, -22458.63, 31433.06, 5743.33, 9986.27, 0.00, 0.00, 0.00, 0.00, 0.00, 0.00, 0.00
160, 10047.47, 45940.14, 1361.60, 21070.34, -2502.52, 435.17, 11798.55, -50325.40, -22453.13, 31432.01, 5692.43, 10071.65, 0.00, 0.00, 0.00, 0.00, 0.00, 0.00, 0.00
161, 10027.91, 45911.18, 1345.31, 21101.43, -2477.38, 451.01, 11815.38, -50301.64, -22453.13, 31432.01, 5692.43, 10071.65, 0.00, 0.00, 0.00, 0.00, 0.00, 0.00, 0.00
162, 10027.91, 45911.18, 1345.31, 21101.43, -2477.38, 451.01, 11815.38, -50301.64, -22458.67, 31429.17, 5656.04, 10022.52, 0.00, 0.00, 0.00, 0.00, 0.00, 0.00, 0.00
163, 10021.25, 45883.86, 1326.42, 21099.67, -2485.76, 442.61, 11799.66, -50312.05, -22458.67, 31429.17, 5656.04, 10022.52, 0.00, 0.00, 0.00, 0.00, 0.00, 0.00, 0.00
164, 10021.25, 45883.86, 1326.42, 21099.67, -2485.76, 442.61, 11799.66, -50312.05, -22443.95, 31442.29, 5655.13, 9991.65, 0.00, 0.00, 0.00, 0.00, 0.00, 0.00, 0.00
165, 10039.80, 45884.87, 1326.87, 21135.25, -2467.01, 464.94, 11825.57, -50282.93, -22443.95, 31442.29, 5655.13, 9991.65, 0.00, 0.00, 0.00, 0.00, 0.00, 0.00, 0.00
166, 10039.80, 45884.87, 1326.87, 21135.25, -2467.01, 464.94, 11825.57, -50282.93, -22464.38, 31435.38, 5623.74, 10031.08, 0.00, 0.00, 0.00, 0.00, 0.00, 0.00, 0.00
167, 10027.69, 45867.05, 1324.74, 21118.78, -2492.35, 450.03, 11798.73, -50303.52, -22464.38, 31435.38, 5623.74, 10031.08, 0.00, 0.00, 0.00, 0.00, 0.00, 0.00, 0.00
168, 10027.69, 45867.05, 1324.74, 21118.78, -2492.35, 450.03, 11798.73, -50303.52, -22458.23, 31421.52, 5642.50, 10089.62, 0.00, 0.00, 0.00, 0.00, -0.08, 0.31, 0.96
169, 10053.99, 45912.25, 1333.19, 21122.17, -2482.16, 452.20, 11808.52, -50284.58, -22458.23, 31421.52, 5642.50, 10089.62, 0.00, 0.00, 0.00, 0.00, 0.00, 0.00, 0.00
170, 10053.99, 45912.25, 1333.19, 21122.17, -2482.16, 452.20, 11808.52, -50284.58, -22459.28, 31439.27, 5664.74, 9997.89, 0.00, 0.00, 0.00, 0.00, 0.00, 0.00, 0.00
171, 10067.94, 45913.70, 1345.17, 21103.71, -2492.91, 440.24, 11790.34, -50294.42, -22459.28, 31439.27, 5664.74, 9997.89, 0.00, 0.00, 0.00, 0.00, 0.00, 0.00, 0.00
172, 10067.94, 45913.70, 1345.17, 21103.71, -2492.91, 440.24, 11790.34, -50294.42, -22456.33, 31426.64, 5690.69, 9970.26, 0.00, 0.00, 0.00, 0.00, 0.00, 0.00, 0.00
173, 10085.44, 45917.88, 1373.67, 21110.13, -2488.17, 446.41, 11799.71, -50280.27, -22456.33, 31426.64, 5690.69, 9970.26, 0.00, 0.00, 0.00, 0.00, 0.00, 0.00, 0.00
174, 10085.44, 45917.88, 1373.67, 21110.13, -2488.17, 446.41, 11799.71, -50280.27, -22460.64, 31438.24, 5731.01, 10098.70, 0.00, 0.00, 0.00, 0.00, 0.00, 0.00, 0.00
175, 10100.80, 45924.29, 1378.54, 21094.19, -2497.90, 438.23, 11788.96, -50287.29, -22460.64, 31438.24, 5731.01, 10098.70, 0.00, 0.00, 0.00, 0.00, 0.00, 0.00, 0.00
176, 10100.80, 45924.29, 1378.54, 21094.19, -2497.90, 438.23, 11788.96, -50287.29, -22458.45, 31421.39, 5743.03, 10111.75, 0.00, 0.00, 0.00, 0.00, 0.00, 0.00, 0.00
177, 10113.43, 45961.60, 1400.92, 21099.87, -2489.00, 445.11, 11794.61, -50279.18, -22458.45, 31421.39, 5743.03, 10111.75, 0.00, 0.00, 0.00, 0.00, -0.07, 0.32, 0.95
178, 10113.43, 45961.60, 1400.92, 21099.87, -2489.00, 445.11, 11794.61, -50279.18, -22465.69, 31436.39, 5766.01, 9986.67, 0.00, 0.00, 0.00, 0.00, 0.00, 0.00, 0.00
179, 10126.46, 45953.55, 1410.64, 21078.46, -2497.83, 431.03, 11781.76, -50281.32, -22465.69, 31436.39, 5766.01, 9986.67, 0.00, 0.00, 0.00, 0.00, 0.00, 0.00, 0.00
180, 10126.46, 45953.55, 1410.64, 21078.46, -2497.83, 431.03, 11781.76, -50281.32, -22460.96, 31424.65, 5781.90, 10006.67, 0.00, 0.00, 0.00, 0.00, 0.00, 0.00, 0.00
181, 10130.59, 45972.80, 1427.99, 21086.54, -2493.02, 439.99, 11790.50, -50271.29, -22460.96, 31424.65, 5781.90, 10006.67, 0.00, 0.00, 0.00, 0.00, 0.00, 0.00, 0.00
182, 10130.59, 45972.80, 1427.99, 21086.54, -2493.02, 439.99, 11790.50, -50271.29, -22458.36, 31446.06, 5810.02, 10118.48, 0.00, 0.00, 0.00, 0.00, 0.00, 0.00, 0.00
183, 10145.72, 45991.95, 1446.98, 21082.99, -2492.13, 437.69, 11790.28, -50265.90, -22458.36, 31446.06, 5810.02, 10118.48, 0.00, 0.00, 0.00, 0.00, 0.00, 0.00, 0.00
184, 10145.72, 45991.95, 1446.98, 21082.99, -2492.13, 437.69, 11790.28, -50265.90, -22456.30, 31426.24, 5813.11, 10057.06, 0.00, 0.00, 0.00, 0.00, 0.00, 0.00, 0.00
185, 10173.80, 45970.21, 1451.21, 21085.16, -2485.78, 441.69, 11793.83, -50259.41, -22456.30, 31426.24, 5813.11, 10057.06, 0.00, 0.00, 0.00, 0.00, 0.00, 0.00, 0.00
186, 10173.80, 45970.21, 1451.21, 21085.16, -2485.78, 441.69, 11793.83, -50259.41, -22453.64, 31451.94, 5838.57, 9967.04, 0.00, 0.00, 0.00, 0.00, 0.00, 0.00, 0.00
187, 10177.87, 45988.94, 1472.22, 21090.75, -2477.33, 448.58, 11803.20, -50248.33, -22453.64, 31451.94, 5838.57, 9967.04, 0.00, 0.00, 0.00, 0.00, -0.07, 0.32, 0.95
188, 10177.87, 45988.94, 1472.22, 21090.75, -2477.33, 448.58, 11803.20, -50248.33, -22444.37, 31443.72, 5845.61, 10073.24, 0.00, 0.00, 0.00, 0.00, 0.00, 0.00, 0.00
189, 10169.57, 46001.95, 1483.98, 21080.33, -2480.66, 441.47, 11795.08, -50253.43, -22444.37, 31443.72, 5845.61, 10073.24, 0.00, 0.00, 0.00, 0.00, 0.00, 0.00, 0.00
190, 10169.57, 46001.95, 1483.98, 21080.33, -2480.66, 441.47, 11795.08, -50253.43, -22447.77, 31455.97, 5866.15, 10147.94, 0.00, 0.00, 0.00, 0.00, 0.00, 0.00, 0.00
191, 10182.14, 46011.98, 1494.64, 21092.36, -2469.20, 456.91, 11808.94, -50239.01, -22447.77, 31455.97, 5866.15, 10147.94, 0.00, 0.00, 0.00, 0.00, 0.00, 0.00, 0.00
192, 10182.14, 46011.98, 1494.64, 21092.36, -2469.20, 456.91, 11808.94, -50239.01, -22451.12, 31441.57, 5860.63, 10060.32, 0.00, 0.00, 0.00, 0.00, 0.00, 0.00, 0.00
193, 10188.26, 45997.59, 1482.32, 21072.33, -2489.67, 439.77, 11790.75, -50251.77, -22451.12, 31441.57, 5860.63, 10060.32, 0.00, 0.00, 0.00, 0.00, 0.00, 0.00, 0.00
194, 10188.26, 45997.59, 1482.32, 21072.33, -2489.67, 439.77, 11790.75, -50251.77, -22454.12, 31453.49, 5875.25, 10006.23, 0.00, 0.00, 0.00, 0.00, 0.00, 0.00, 0.00
195, 10199.08, 46032.28, 1505.03, 21087.24, -2471.86, 451.75, 11806.21, -50235.23, -22454.12, 31453.49, 5875.25, 10006.23, 0.00, 0.00, 0.00, 0.00, 0.00, 0.00, 0.00
196, 10199.08, 46032.28, 1505.03, 21087.24, -2471.86, 451.75, 11806.21, -50235.23, -22456.55, 31428.45, 5872.47, 10011.14, 0.00, 0.00, 0.00, 0.00, 0.00, 0.00, 0.00
197, 10181.29, 46013.10, 1505.70, 21065.60, -2490.19, 433.36, 11780.93, -50256.20, -22456.55, 31428.45, 5872.47, 10011.14, 0.00, 0.00, 0.00, 0.00, -0.07, 0.33, 0.95
198, 10181.29, 46013.10, 1505.70, 21065.60, -2490.19, 433.36, 11780.93, -50256.20, -22455.90, 31446.11, 5880.32, 10127.91, 0.00, 0.00, 0.00, 0.00, 0.00, 0.00, 0.00
199, 10180.77, 46006.19, 1512.90, 21074.36, -2481.45, 443.84, 11796.58, -50236.19, -22455.90, 31446.11, 5880.32, 10127.91, 0.00, 0.00, 0.00, 0.00, 0.00, 0.00, 0.00
200, 10180.77, 46006.19, 1512.90, 21074.36, -2481.45, 443.84, 11796.58, -50236.19, -22457.06, 31442.53, 5878.55, 10067.02, 0.00, 0.00, 0.00, 0.00, 0.00, 0.00, 0.00
201, 10199.30, 45979.91, 1497.23, 21055.99, -2499.08, 428.82, 11781.34, -50247.70, -22457.06, 31442.53, 5878.55, 10067.02, 0.00, 0.00, 0.00, 0.00, 0.00, 0.00, 0.00
202, 10199.30, 45979.91, 1497.23, 21055.99, -2499.08, 428.82, 11781.34, -50247.70, -22455.12, 31449.39, 5880.41, 10010.50, 0.00, 0.00, 0.00, 0.00, 0.00, 0.00, 0.00
203, 10212.22, 46035.20, 1517.86, 21072.29, -2477.76, 445.58, 11799.08, -50228.37, -22455.12, 31449.39, 5880.41, 10010.50, 0.00, 0.00, 0.00, 0.00, 0.00, 0.00, 0.00
204, 10212.22, 46035.20, 1517.86, 21072.29, -2477.76, 445.58, 11799.08, -50228.37, -22452.17, 31440.74, 5890.82, 10070.33, 0.00, 0.00, 0.00, 0.00, 0.00, 0.00, 0.00
205, 10190.09, 46008.43, 1517.35, 21052.75, -2492.04, 429.67, 11776.40, -50249.36, -22452.17, 31440.74, 5890.82, 10070.33, 0.00, 0.00, 0.00, 0.00, 0.00, 0.00, 0.00
206, 10190.09, 46008.43, 1517.35, 21052.75, -2492.04, 429.67, 11776.40, -50249.36, -22447.45, 31449.35, 5900.37, 10099.57, 0.00, 0.00, 0.00, 0.00, 0.00, 0.00, 0.00
207, 10198.65, 46023.36, 1538.96, 21074.21, -2476.93, 447.03, 11800.45, -50221.35, -22447.45, 31449.35, 5900.37, 10099.57, 0.00, 0.00, 0.00, 0.00, -0.07, 0.32, 0.96
208, 10198.65, 46023.36, 1538.96, 21074.21, -2476.93, 447.03, 11800.45, -50221.35, -22453.15, 31450.31, 5902.40, 10086.83, 0.00, 0.00, 0.00, 0.00, 0.00, 0.00, 0.00
209, 10206.77, 45989.99, 1517.84, 21045.84, -2500.09, 425.91, 11773.71, -50248.13, -22453.15, 31450.31, 5902.40, 10086.83, 0.00, 0.00, 0.00, 0.00, 0.00, 0.00, 0.00
210, 10206.77, 45989.99, 1517.84, 21045.84, -2500.09, 425.91, 11773.71, -50248.13, -22454.34, 31438.78, 5898.69, 10096.17, 0.00, 0.00, 0.00, 0.00, 0.00, 0.00, 0.00
211, 10222.44, 46044.39, 1534.27, 21071.95, -2482.27, 447.55, 11796.76, -50224.73, -22454.34, 31438.78, 5898.69, 10096.17, 0.00, 0.00, 0.00, 0.00, 0.00, 0.00, 0.00
212, 10222.44, 46044.39, 1534.27, 21071.95, -2482.27, 447.55, 11796.76, -50224.73, -22448.35, 31451.54, 5912.71, 10121.05, 0.00, 0.00, 0.00, 0.00, 0.00, 0.00, 0.00
213, 10211.55, 46016.41, 1544.04, 21051.39, -2491.93, 429.11, 11776.73, -50239.21, -22448.35, 31451.54, 5912.71, 10121.05, 0.00, 0.00, 0.00, 0.00, 0.00, 0.00, 0.00
214, 10211.55, 46016.41, 1544.04, 21051.39, -2491.93, 429.11, 11776.73, -50239.21, -22450.05, 31439.72, 5908.30, 10028.58, 0.00, 0.00, 0.00, 0.00, 0.00, 0.00, 0.00
215, 10221.36, 46018.93, 1557.67, 21068.71, -2476.33, 445.43, 11800.00, -50216.68, -22450.05, 31439.72, 5908.30, 10028.58, 0.00, 0.00, 0.00, 0.00, 0.00, 0.00, 0.00
216, 10221.36, 46018.93, 1557.67, 21068.71, -2476.33, 445.43, 11800.00, -50216.68, -22451.86, 31458.85, 5927.82, 10041.10, 0.00, 0.00, 0.00, 0.00, -0.07, 0.32, 0.96
217, 10218.12, 46012.11, 1548.37, 21052.66, -2488.15, 430.96, 11777.49, -50233.69, -22451.86, 31458.85, 5927.82, 10041.10, 0.00, 0.00, 0.00, 0.00, 0.00, 0.00, 0.00
218, 10218.12, 46012.11, 1548.37, 21052.66, -2488.15, 430.96, 11777.49, -50233.69, -22451.66, 31440.50, 5914.47, 10066.55, 0.00, 0.00, 0.00, 0.00, 0.00, 0.00, 0.00
219, 10228.60, 46034.11, 1560.71, 21066.23, -2479.72, 444.26, 11795.24, -50218.07, -22451.66, 31440.50, 5914.47, 10066.55, 0.00, 0.00, 0.00, 0.00, 0.00, 0.00, 0.00
220, 10228.60, 46034.11, 1560.71, 21066.23, -2479.72, 444.26, 11795.24, -50218.07, -22449.53, 31461.71, 5930.21, 10094.85, 0.00, 0.00, 0.00, 0.00, 0.00, 0.00, 0.00
