%OpenBCI Raw EEG Data
%
%Sample Rate = 250.0 Hz
%First Column = SampleIndex
%Other Columns = EEG data in microvolts followed by Accel Data (in G) interleaved with Aux Data
0, 0.00, 0.00, 0.00, 0.00, 0.00, 0.00, 0.00, 0.00, -23989.72, 30695.78, 3902.50, 11716.72, 0.00, 0.00, 0.00, 0.00, -0.08, 0.35, 0.94
1, 10922.11, 45015.70, 1163.79, 20929.50, -2474.38, 389.52, 11807.29, -55012.36, -23989.72, 30695.78, 3902.50, 11716.72, 0.00, 0.00, 0.00, 0.00, 0.00, 0.00, 0.00
2, 10922.11, 45015.70, 1163.79, 20929.50, -2474.38, 389.52, 11807.29, -55012.36, -23830.22, 30366.10, 4629.07, 11270.60, 0.00, 0.00, 0.00, 0.00, 0.00, 0.00, 0.00
3, 10917.60, 44989.46, 1144.12, 20902.77, -2494.86, 365.74, 11776.37, -55039.16, -23830.22, 30366.10, 4629.07, 11270.60, 0.00, 0.00, 0.00, 0.00, 0.00, 0.00, 0.00
4, 10917.60, 44989.46, 1144.12, 20902.77, -2494.86, 365.74, 11776.37, -55039.16, -23823.58, 30357.40, 4620.24, 11274.91, 0.00, 0.00, 0.00, 0.00, 0.00, 0.00, 0.00
5, 10948.00, 45029.87, 1175.70, 20941.51, -2463.83, 397.10, 11815.47, -55003.15, -23823.58, 30357.40, 4620.24, 11274.91, 0.00, 0.00, 0.00, 0.00, 0.00, 0.00, 0.00
6, 10948.00, 45029.87, 1175.70, 20941.51, -2463.83, 397.10, 11815.47, -55003.15, -23822.87, 30379.95, 4636.82, 11283.45, 0.00, 0.00, 0.00, 0.00, 0.00, 0.00, 0.00
7, 10918.58, 44995.47, 1147.40, 20902.68, -2493.92, 366.12, 11774.83, -55040.50, -23822.87, 30379.95, 4636.82, 11283.45, 0.00, 0.00, 0.00, 0.00, -0.09, 0.34, 0.94
8, 10918.58, 44995.47, 1147.40, 20902.68, -2493.92, 366.12, 11774.83, -55040.50, -23832.12, 30337.93, 4613.06, 11284.57, 0.00, 0.00, 0.00, 0.00, 0.00, 0.00, 0.00
9, 10918.40, 45018.47, 1162.96, 20925.72, -2479.57, 382.53, 11799.08, -55019.51, -23832.12, 30337.93, 4613.06, 11284.57, 0.00, 0.00, 0.00, 0.00, 0.00, 0.00, 0.00
10, 10918.40, 45018.47, 1162.96, 20925.72, -2479.57, 382.53, 11799.08, -55019.51, -23837.67, 30361.22, 4630.12, 11233.36, 0.00, 0.00, 0.00, 0.00, 0.00, 0.00, 0.00
11, 10903.18, 44985.99, 1145.19, 20900.24, -2496.06, 363.10, 11771.05, -55043.38, -23837.67, 30361.22, 4630.12, 11233.36, 0.00, 0.00, 0.00, 0.00, 0.00, 0.00, 0.00
12, 10903.18, 44985.99, 1145.19, 20900.24, -2496.06, 363.10, 11771.05, -55043.38, -23835.23, 30339.41, 4607.50, 11258.44, 0.00, 0.00, 0.00, 0.00, 0.00, 0.00, 0.00
13, 10921.38, 45010.18, 1156.23, 20920.94, -2476.98, 378.62, 11796.62, -55017.92, -23835.23, 30339.41, 4607.50, 11258.44, 0.00, 0.00, 0.00, 0.00, 0.00, 0.00, 0.00
14, 10921.38, 45010.18, 1156.23, 20920.94, -2476.98, 378.62, 11796.62, -55017.92, -23828.93, 30371.10, 4633.87, 11289.31, 0.00, 0.00, 0.00, 0.00, 0.00, 0.00, 0.00
15, 10905.48, 44991.07, 1146.98, 20904.29, -2491.33, 367.19, 11777.09, -55034.51, -23828.93, 30371.10, 4633.87, 11289.31, 0.00, 0.00, 0.00, 0.00, 0.00, 0.00, 0.00
16, 10905.48, 44991.07, 1146.98, 20904.29, -2491.33, 367.19, 11777.09, -55034.51, -23829.71, 30341.06, 4608.06, 11262.82, 0.00, 0.00, 0.00, 0.00, -0.09, 0.34, 0.94
17, 10912.64, 45004.74, 1149.66, 20915.69, -2482.32, 375.42, 11792.24, -55022.89, -23829.71, 30341.06, 4608.06, 11262.82, 0.00, 0.00, 0.00, 0.00, 0.00, 0.00, 0.00
18, 10912.64, 45004.74, 1149.66, 20915.69, -2482.32, 375.42, 11792.24, -55022.89, -23836.37, 30362.14, 4634.99, 11260.56, 0.00, 0.00, 0.00, 0.00, 0.00, 0.00, 0.00
19, 10908.68, 45003.34, 1149.80, 20907.53, -2487.46, 365.67, 11776.53, -55037.82, -23836.37, 30362.14, 4634.99, 11260.56, 0.00, 0.00, 0.00, 0.00, 0.00, 0.00, 0.00
20, 10908.68, 45003.34, 1149.80, 20907.53, -2487.46, 365.67, 11776.53, -55037.82, -23829.11, 30328.50, 4613.31, 11254.39, 0.00, 0.00, 0.00, 0.00, 0.00, 0.00, 0.00
21, 10910.78, 45002.46, 1152.61, 20913.52, -2482.76, 370.59, 11786.75, -55027.71, -23829.11, 30328.50, 4613.31, 11254.39, 0.00, 0.00, 0.00, 0.00, 0.00, 0.00, 0.00
22, 10910.78, 45002.46, 1152.61, 20913.52, -2482.76, 370.59, 11786.75, -55027.71, -23835.05, 30361.00, 4633.76, 11266.35, 0.00, 0.00, 0.00, 0.00, 0.00, 0.00, 0.00
23, 10916.41, 45002.13, 1154.49, 20912.56, -2481.20, 372.72, 11783.68, -55028.18, -23835.05, 30361.00, 4633.76, 11266.35, 0.00, 0.00, 0.00, 0.00, 0.00, 0.00, 0.00
24, 10916.41, 45002.13, 1154.49, 20912.56, -2481.20, 372.72, 11783.68, -55028.18, -23826.22, 30332.03, 4620.84, 11253.88, 0.00, 0.00, 0.00, 0.00, 0.00, 0.00, 0.00
25, 10911.18, 45016.70, 1161.53, 20911.71, -2480.51, 369.50, 11784.33, -55026.13, -23826.22, 30332.03, 4620.84, 11253.88, 0.00, 0.00, 0.00, 0.00, 0.00, 0.00, 0.00
26, 10911.18, 45016.70, 1161.53, 20911.71, -2480.51, 369.50, 11784.33, -55026.13, -23832.68, 30357.83, 4643.71, 11222.16, 0.00, 0.00, 0.00, 0.00, -0.08, 0.34, 0.95
27, 10923.70, 45007.65, 1157.44, 20915.85, -2478.56, 373.59, 11787.80, -55028.27, -23832.68, 30357.83, 4643.71, 11222.16, 0.00, 0.00, 0.00, 0.00, 0.00, 0.00, 0.00
28, 10923.70, 45007.65, 1157.44, 20915.85, -2478.56, 373.59, 11787.80, -55028.27, -23837.13, 30320.74, 4619.03, 11271.81, 0.00, 0.00, 0.00, 0.00, 0.00, 0.00, 0.00
29, 10906.38, 45004.59, 1154.65, 20904.92, -2485.18, 362.57, 11778.01, -55039.54, -23837.13, 30320.74, 4619.03, 11271.81, 0.00, 0.00, 0.00, 0.00, 0.00, 0.00, 0.00
30, 10906.38, 45004.59, 1154.65, 20904.92, -2485.18, 362.57, 11778.01, -55039.54, -23835.59, 30349.35, 4636.00, 11252.56, 0.00, 0.00, 0.00, 0.00, 0.00, 0.00, 0.00
31, 10918.38, 45019.92, 1161.49, 20919.24, -2473.51, 375.71, 11790.68, -55022.08, -23835.59, 30349.35, 4636.00, 11252.56, 0.00, 0.00, 0.00, 0.00, 0.00, 0.00, 0.00
32, 10918.38, 45019.92, 1161.49, 20919.24, -2473.51, 375.71, 11790.68, -55022.08, -23839.12, 30319.65, 4615.66, 11208.71, 0.00, 0.00, 0.00, 0.00, 0.00, 0.00, 0.00
33, 10903.00, 44989.61, 1141.97, 20895.06, -2492.89, 353.29, 11765.22, -55044.41, -23839.12, 30319.65, 4615.66, 11208.71, 0.00, 0.00, 0.00, 0.00, 0.00, 0.00, 0.00
34, 10903.00, 44989.61, 1141.97, 20895.06, -2492.89, 353.29, 11765.22, -55044.41, -23836.70, 30346.05, 4628.98, 11246.10, 0.00, 0.00, 0.00, 0.00, 0.00, 0.00, 0.00
35, 10916.17, 45018.80, 1158.45, 20919.51, -2476.33, 373.07, 11788.62, -55025.41, -23836.70, 30346.05, 4628.98, 11246.10, 0.00, 0.00, 0.00, 0.00, 0.00, 0.00, 0.00
36, 10916.17, 45018.80, 1158.45, 20919.51, -2476.33, 373.07, 11788.62, -55025.41, -23838.76, 30319.18, 4616.93, 11239.71, 0.00, 0.00, 0.00, 0.00, -0.08, 0.34, 0.95
37, 10894.24, 44987.69, 1141.95, 20895.24, -2496.80, 353.22, 11761.87, -55050.67, -23838.76, 30319.18, 4616.93, 11239.71, 0.00, 0.00, 0.00, 0.00, 0.00, 0.00, 0.00
38, 10894.24, 44987.69, 1141.95, 20895.24, -2496.80, 353.22, 11761.87, -55050.67, -23843.52, 30328.88, 4622.01, 11224.44, 0.00, 0.00, 0.00, 0.00, 0.00, 0.00, 0.00
39, 10919.65, 45018.73, 1155.45, 20920.92, -2481.62, 371.46, 11784.00, -55032.50, -23843.52, 30328.88, 4622.01, 11224.44, 0.00, 0.00, 0.00, 0.00, 0.00, 0.00, 0.00
40, 10919.65, 45018.73, 1155.45, 20920.92, -2481.62, 371.46, 11784.00, -55032.50, -23851.03, 30313.52, 4611.39, 11214.23, 0.00, 0.00, 0.00, 0.00, 0.00, 0.00, 0.00
41, 10899.40, 44984.92, 1133.90, 20888.11, -2507.66, 345.51, 11751.07, -55060.55, -23851.03, 30313.52, 4611.39, 11214.23, 0.00, 0.00, 0.00, 0.00, 0.00, 0.00, 0.00
42, 10899.40, 44984.92, 1133.90, 20888.11, -2507.66, 345.51, 11751.07, -55060.55, -23856.11, 30310.93, 4605.76, 11204.71, 0.00, 0.00, 0.00, 0.00, 0.00, 0.00, 0.00
43, 10915.94, 44995.71, 1152.39, 20918.13, -2487.86, 368.83, 11780.24, -55035.36, -23856.11, 30310.93, 4605.76, 11204.71, 0.00, 0.00, 0.00, 0.00, 0.00, 0.00, 0.00
44, 10915.94, 44995.71, 1152.39, 20918.13, -2487.86, 368.83, 11780.24, -55035.36, -23845.38, 30321.28, 4614.52, 11218.81, 0.00, 0.00, 0.00, 0.00, 0.00, 0.00, 0.00
45, 10897.19, 44993.08, 1140.56, 20891.35, -2501.27, 347.84, 11755.74, -55054.67, -23845.38, 30321.28, 4614.52, 11218.81, 0.00, 0.00, 0.00, 0.00, 0.00, 0.00, 0.00
46, 10897.19, 44993.08, 1140.56, 20891.35, -2501.27, 347.84, 11755.74, -55054.67, -23839.92, 30322.13, 4612.53, 11249.28, 0.00, 0.00, 0.00, 0.00, -0.08, 0.34, 0.94
47, 10910.94, 45015.63, 1157.95, 20920.65, -2477.47, 372.49, 11786.25, -55025.50, -23839.92, 30322.13, 4612.53, 11249.28, 0.00, 0.00, 0.00, 0.00, 0.00, 0.00, 0.00
48, 10910.94, 45015.63, 1157.95, 20920.65, -2477.47, 372.49, 11786.25, -55025.50, -23845.20, 30326.55, 4617.33, 11231.48, 0.00, 0.00, 0.00, 0.00, 0.00, 0.00, 0.00
49, 10899.67, 44982.15, 1136.07, 20890.32, -2506.44, 348.66, 11752.73, -55060.12, -23845.20, 30326.55, 4617.33, 11231.48, 0.00, 0.00, 0.00, 0.00, 0.00, 0.00, 0.00
50, 10899.67, 44982.15, 1136.07, 20890.32, -2506.44, 348.66, 11752.73, -55060.12, -23851.12, 30304.00, 4606.49, 11199.23, 0.00, 0.00, 0.00, 0.00, 0.00, 0.00, 0.00
51, 10925.71, 45019.25, 1154.29, 20914.10, -2485.83, 364.27, 11776.82, -55037.50, -23851.12, 30304.00, 4606.49, 11199.23, 0.00, 0.00, 0.00, 0.00, 0.00, 0.00, 0.00
52, 10925.71, 45019.25, 1154.29, 20914.10, -2485.83, 364.27, 11776.82, -55037.50, -23848.86, 30315.04, 4616.06, 11182.38, 0.00, 0.00, 0.00, 0.00, 0.00, 0.00, 0.00
53, 10902.64, 44998.31, 1145.10, 20889.18, -2502.77, 346.54, 11754.36, -55054.04, -23848.86, 30315.04, 4616.06, 11182.38, 0.00, 0.00, 0.00, 0.00, 0.00, 0.00, 0.00
54, 10902.64, 44998.31, 1145.10, 20889.18, -2502.77, 346.54, 11754.36, -55054.04, -23845.98, 30313.86, 4611.43, 11227.08, 0.00, 0.00, 0.00, 0.00, 0.00, 0.00, 0.00
55, 10915.63, 45013.04, 1151.70, 20913.01, -2488.62, 364.87, 11778.85, -55030.35, -23845.98, 30313.86, 4611.43, 11227.08, 0.00, 0.00, 0.00, 0.00, -0.08, 0.34, 0.94
56, 10915.63, 45013.04, 1151.70, 20913.01, -2488.62, 364.87, 11778.85, -55030.35, -23843.12, 30330.91, 4621.78, 11234.66, 0.00, 0.00, 0.00, 0.00, 0.00, 0.00, 0.00
57, 10907.38, 44990.82, 1142.82, 20895.73, -2499.84, 353.49, 11760.73, -55049.24, -23843.12, 30330.91, 4621.78, 11234.66, 0.00, 0.00, 0.00, 0.00, 0.00, 0.00, 0.00
58, 10907.38, 44990.82, 1142.82, 20895.73, -2499.84, 353.49, 11760.73, -55049.24, -23849.00, 30312.45, 4609.02, 11218.81, 0.00, 0.00, 0.00, 0.00, 0.00, 0.00, 0.00
59, 10910.78, 45008.39, 1155.00, 20907.82, -2485.42, 361.83, 11775.55, -55032.05, -23849.00, 30312.45, 4609.02, 11218.81, 0.00, 0.00, 0.00, 0.00, 0.00, 0.00, 0.00
60, 10910.78, 45008.39, 1155.00, 20907.82, -2485.42, 361.83, 11775.55, -55032.05, -23845.38, 30325.37, 4623.12, 11215.19, 0.00, 0.00, 0.00, 0.00, 0.00, 0.00, 0.00
61, 10897.93, 44994.62, 1143.96, 20891.26, -2501.81, 346.27, 11756.57, -55050.60, -23845.38, 30325.37, 4623.12, 11215.19, 0.00, 0.00, 0.00, 0.00, 0.00, 0.00, 0.00
62, 10897.93, 44994.62, 1143.96, 20891.26, -2501.81, 346.27, 11756.57, -55050.60, -23844.21, 30306.64, 4610.58, 11216.82, 0.00, 0.00, 0.00, 0.00, 0.00, 0.00, 0.00
63, 10908.28, 45012.46, 1148.97, 20904.65, -2491.24, 360.24, 11772.53, -55034.35, -23844.21, 30306.64, 4610.58, 11216.82, 0.00, 0.00, 0.00, 0.00, 0.00, 0.00, 0.00
64, 10908.28, 45012.46, 1148.97, 20904.65, -2491.24, 360.24, 11772.53, -55034.35, -23845.76, 30328.90, 4621.20, 11216.66, 0.00, 0.00, 0.00, 0.00, 0.00, 0.00, 0.00
65, 10904.57, 45004.99, 1142.44, 20897.29, -2498.93, 354.05, 11760.06, -55047.58, -23845.76, 30328.90, 4621.20, 11216.66, 0.00, 0.00, 0.00, 0.00, -0.08, 0.34, 0.95
66, 10904.57, 45004.99, 1142.44, 20897.29, -2498.93, 354.05, 11760.06, -55047.58, -23843.86, 30307.73, 4611.95, 11199.70, 0.00, 0.00, 0.00, 0.00, 0.00, 0.00, 0.00
67, 10906.04, 44997.43, 1153.71, 20903.93, -2492.24, 359.24, 11770.38, -55034.69, -23843.86, 30307.73, 4611.95, 11199.70, 0.00, 0.00, 0.00, 0.00, 0.00, 0.00, 0.00
68, 10906.04, 44997.43, 1153.71, 20903.93, -2492.24, 359.24, 11770.38, -55034.69, -23849.62, 30325.06, 4621.78, 11212.37, 0.00, 0.00, 0.00, 0.00, 0.00, 0.00, 0.00
69, 10894.24, 44990.98, 1143.58, 20893.09, -2500.80, 352.91, 11760.48, -55044.34, -23849.62, 30325.06, 4621.78, 11212.37, 0.00, 0.00, 0.00, 0.00, 0.00, 0.00, 0.00
70, 10894.24, 44990.98, 1143.58, 20893.09, -2500.80, 352.91, 11760.48, -55044.34, -23850.58, 30303.85, 4609.33, 11206.11, 0.00, 0.00, 0.00, 0.00, 0.00, 0.00, 0.00
71, 10904.10, 45004.54, 1138.46, 20894.70, -2501.61, 351.39, 11761.84, -55042.89, -23850.58, 30303.85, 4609.33, 11206.11, 0.00, 0.00, 0.00, 0.00, 0.00, 0.00, 0.00
72, 10904.10, 45004.54, 1138.46, 20894.70, -2501.61, 351.39, 11761.84, -55042.89, -23848.24, 30328.92, 4620.28, 11221.07, 0.00, 0.00, 0.00, 0.00, 0.00, 0.00, 0.00
73, 10906.31, 45000.21, 1141.88, 20893.67, -2497.20, 349.34, 11760.33, -55042.09, -23848.24, 30328.92, 4620.28, 11221.07, 0.00, 0.00, 0.00, 0.00, 0.00, 0.00, 0.00
74, 10906.31, 45000.21, 1141.88, 20893.67, -2497.20, 349.34, 11760.33, -55042.09, -23851.70, 30296.47, 4614.05, 11191.72, 0.00, 0.00, 0.00, 0.00, 0.00, 0.00, 0.00
75, 10908.86, 44999.31, 1142.53, 20893.34, -2501.54, 349.22, 11758.78, -55045.21, -23851.70, 30296.47, 4614.05, 11191.72, 0.00, 0.00, 0.00, 0.00, -0.08, 0.34, 0.95
76, 10908.86, 44999.31, 1142.53, 20893.34, -2501.54, 349.22, 11758.78, -55045.21, -23851.23, 30324.66, 4628.17, 11216.82, 0.00, 0.00, 0.00, 0.00, 0.00, 0.00, 0.00
77, 10908.34, 45018.09, 1151.23, 20900.58, -2495.33, 354.28, 11763.83, -55039.70, -23851.23, 30324.66, 4628.17, 11216.82, 0.00, 0.00, 0.00, 0.00, 0.00, 0.00, 0.00
78, 10908.34, 45018.09, 1151.23, 20900.58, -2495.33, 354.28, 11763.83, -55039.70, -23846.36, 30304.40, 4617.11, 11245.43, 0.00, 0.00, 0.00, 0.00, 0.00, 0.00, 0.00
79, 10905.68, 44998.64, 1142.80, 20889.89, -2506.86, 346.21, 11756.84, -55046.67, -23846.36, 30304.40, 4617.11, 11245.43, 0.00, 0.00, 0.00, 0.00, 0.00, 0.00, 0.00
80, 10905.68, 44998.64, 1142.80, 20889.89, -2506.86, 346.21, 11756.84, -55046.67, -23851.68, 30319.78, 4628.49, 11201.46, 0.00, 0.00, 0.00, 0.00, 0.00, 0.00, 0.00
81, 10910.36, 45007.16, 1154.65, 20898.08, -2493.67, 351.95, 11765.38, -55038.62, -23851.68, 30319.78, 4628.49, 11201.46, 0.00, 0.00, 0.00, 0.00, 0.00, 0.00, 0.00
82, 10910.36, 45007.16, 1154.65, 20898.08, -2493.67, 351.95, 11765.38, -55038.62, -23848.44, 30303.22, 4624.55, 11205.53, 0.00, 0.00, 0.00, 0.00, 0.00, 0.00, 0.00
83, 10907.34, 45001.48, 1148.41, 20891.73, -2499.01, 346.83, 11758.02, -55040.97, -23848.44, 30303.22, 4624.55, 11205.53, 0.00, 0.00, 0.00, 0.00, 0.00, 0.00, 0.00
84, 10907.34, 45001.48, 1148.41, 20891.73, -2499.01, 346.83, 11758.02, -55040.97, -23845.15, 30327.00, 4629.00, 11208.15, 0.00, 0.00, 0.00, 0.00, 0.00, 0.00, 0.00
85, 10919.23, 45019.05, 1154.85, 20904.96, -2494.23, 355.35, 11768.68, -55032.16, -23845.15, 30327.00, 4629.00, 11208.15, 0.00, 0.00, 0.00, 0.00, -0.08, 0.34, 0.95
86, 10919.23, 45019.05, 1154.85, 20904.96, -2494.23, 355.35, 11768.68, -55032.16, -23852.30, 30300.78, 4617.71, 11228.89, 0.00, 0.00, 0.00, 0.00, 0.00, 0.00, 0.00
87, 10911.61, 45021.33, 1146.96, 20888.40, -2506.01, 341.56, 11750.67, -55049.53, -23852.30, 30300.78, 4617.71, 11228.89, 0.00, 0.00, 0.00, 0.00, 0.00, 0.00, 0.00
88, 10911.61, 45021.33, 1146.96, 20888.40, -2506.01, 341.56, 11750.67, -55049.53, -23849.56, 30319.16, 4627.71, 11188.12, 0.00, 0.00, 0.00, 0.00, 0.00, 0.00, 0.00
89, 10915.59, 45007.94, 1155.97, 20905.32, -2492.53, 355.55, 11770.85, -55029.86, -23849.56, 30319.16, 4627.71, 11188.12, 0.00, 0.00, 0.00, 0.00, 0.00, 0.00, 0.00
90, 10915.59, 45007.94, 1155.97, 20905.32, -2492.53, 355.55, 11770.85, -55029.86, -23849.73, 30308.85, 4618.54, 11184.43, 0.00, 0.00, 0.00, 0.00, 0.00, 0.00, 0.00
91, 10902.17, 44991.51, 1143.18, 20888.02, -2508.87, 340.89, 11750.09, -55049.71, -23849.73, 30308.85, 4618.54, 11184.43, 0.00, 0.00, 0.00, 0.00, 0.00, 0.00, 0.00
92, 10902.17, 44991.51, 1143.18, 20888.02, -2508.87, 340.89, 11750.09, -55049.71, -23846.88, 30320.86, 4624.82, 11239.02, 0.00, 0.00, 0.00, 0.00, 0.00, 0.00, 0.00
93, 10916.86, 45014.60, 1158.16, 20906.32, -2491.08, 358.61, 11773.27, -55026.82, -23846.88, 30320.86, 4624.82, 11239.02, 0.00, 0.00, 0.00, 0.00, 0.00, 0.00, 0.00
94, 10916.86, 45014.60, 1158.16, 20906.32, -2491.08, 358.61, 11773.27, -55026.82, -23848.77, 30316.32, 4619.57, 11217.65, 0.00, 0.00, 0.00, 0.00, -0.08, 0.34, 0.95
95, 10906.42, 44997.01, 1137.77, 20886.43, -2509.12, 341.87, 11751.67, -55043.65, -23848.77, 30316.32, 4619.57, 11217.65, 0.00, 0.00, 0.00, 0.00, 0.00, 0.00, 0.00
96, 10906.42, 44997.01, 1137.77, 20886.43, -2509.12, 341.87, 11751.67, -55043.65, -23847.95, 30320.92, 4616.75, 11206.63, 0.00, 0.00, 0.00, 0.00, 0.00, 0.00, 0.00
97, 10914.89, 45008.21, 1149.68, 20901.09, -2492.60, 355.86, 11772.28, -55023.96, -23847.95, 30320.92, 4616.75, 11206.63, 0.00, 0.00, 0.00, 0.00, 0.00, 0.00, 0.00
98, 10914.89, 45008.21, 1149.68, 20901.09, -2492.60, 355.86, 11772.28, -55023.96, -23844.73, 30320.72, 4619.48, 11228.09, 0.00, 0.00, 0.00, 0.00, 0.00, 0.00, 0.00
99, 10895.94, 44991.22, 1135.85, 20879.14, -2510.50, 334.67, 11745.91, -55047.88, -23844.73, 30320.72, 4619.48, 11228.09, 0.00, 0.00, 0.00, 0.00, 0.00, 0.00, 0.00
100, 10895.94, 44991.22, 1135.85, 20879.14, -2510.50, 334.67, 11745.91, -55047.88, -23851.41, 30306.55, 4609.29, 11225.27, 0.00, 0.00, 0.00, 0.00, 0.00, 0.00, 0.00
101, 10912.30, 45022.00, 1149.37, 20900.47, -2502.21, 349.25, 11761.40, -55037.13, -23851.41, 30306.55, 4609.29, 11225.27, 0.00, 0.00, 0.00, 0.00, 0.00, 0.00, 0.00
102, 10912.30, 45022.00, 1149.37, 20900.47, -2502.21, 349.25, 11761.40, -55037.13, -23852.51, 30308.67, 4621.00, 11187.32, 0.00, 0.00, 0.00, 0.00, 0.00, 0.00, 0.00
103, 10902.22, 44982.37, 1135.16, 20879.66, -2517.23, 334.09, 11742.02, -55052.28, -23852.51, 30308.67, 4621.00, 11187.32, 0.00, 0.00, 0.00, 0.00, 0.00, 0.00, 0.00
104, 10902.22, 44982.37, 1135.16, 20879.66, -2517.23, 334.09, 11742.02, -55052.28, -23853.54, 30301.23, 4608.97, 11183.72, 0.00, 0.00, 0.00, 0.00, -0.08, 0.34, 0.95
105, 10920.59, 45005.53, 1150.15, 20900.69, -2498.39, 351.88, 11764.57, -55033.84, -23853.54, 30301.23, 4608.97, 11183.72, 0.00, 0.00, 0.00, 0.00, 0.00, 0.00, 0.00
106, 10920.59, 45005.53, 1150.15, 20900.69, -2498.39, 351.88, 11764.57, -55033.84, -23849.85, 30317.26, 4626.94, 11207.28, 0.00, 0.00, 0.00, 0.00, 0.00, 0.00, 0.00
107, 10909.82, 45009.75, 1149.35, 20890.25, -2505.18, 341.69, 11749.48, -55045.48, -23849.85, 30317.26, 4626.94, 11207.28, 0.00, 0.00, 0.00, 0.00, 0.00, 0.00, 0.00
108, 10909.82, 45009.75, 1149.35, 20890.25, -2505.18, 341.69, 11749.48, -55045.48, -23849.18, 30308.90, 4614.50, 11224.13, 0.00, 0.00, 0.00, 0.00, 0.00, 0.00, 0.00
109, 10920.06, 45024.28, 1154.69, 20900.49, -2497.16, 352.87, 11766.76, -55030.37, -23849.18, 30308.90, 4614.50, 11224.13, 0.00, 0.00, 0.00, 0.00, 0.00, 0.00, 0.00
110, 10920.06, 45024.28, 1154.69, 20900.49, -2497.16, 352.87, 11766.76, -55030.37, -23843.30, 30324.03, 4632.22, 11201.15, 0.00, 0.00, 0.00, 0.00, 0.00, 0.00, 0.00
111, 10904.59, 44993.30, 1140.74, 20885.69, -2504.09, 340.13, 11752.05, -55041.08, -23843.30, 30324.03, 4632.22, 11201.15, 0.00, 0.00, 0.00, 0.00, 0.00, 0.00, 0.00
112, 10904.59, 44993.30, 1140.74, 20885.69, -2504.09, 340.13, 11752.05, -55041.08, -23847.90, 30305.21, 4612.66, 11205.38, 0.00, 0.00, 0.00, 0.00, 0.00, 0.00, 0.00
113, 10914.83, 45006.91, 1148.23, 20896.69, -2501.12, 346.52, 11760.62, -55033.21, -23847.90, 30305.21, 4612.66, 11205.38, 0.00, 0.00, 0.00, 0.00, 0.00, 0.00, 0.00
114, 10914.83, 45006.91, 1148.23, 20896.69, -2501.12, 346.52, 11760.62, -55033.21, -23851.88, 30316.65, 4632.31, 11209.94, 0.00, 0.00, 0.00, 0.00, -0.08, 0.35, 0.95
115, 10907.72, 45011.92, 1145.26, 20889.07, -2505.32, 340.82, 11753.28, -55041.39, -23851.88, 30316.65, 4632.31, 11209.94, 0.00, 0.00, 0.00, 0.00, 0.00, 0.00, 0.00
116, 10907.72, 45011.92, 1145.26, 20889.07, -2505.32, 340.82, 11753.28, -55041.39, -23847.01, 30296.71, 4614.56, 11212.55, 0.00, 0.00, 0.00, 0.00, 0.00, 0.00, 0.00
117, 10905.71, 45005.48, 1150.35, 20894.32, -2502.66, 344.64, 11758.36, -55035.20, -23847.01, 30296.71, 4614.56, 11212.55, 0.00, 0.00, 0.00, 0.00, 0.00, 0.00, 0.00
118, 10905.71, 45005.48, 1150.35, 20894.32, -2502.66, 344.64, 11758.36, -55035.20, -23847.92, 30324.16, 4627.30, 11198.58, 0.00, 0.00, 0.00, 0.00, 0.00, 0.00, 0.00
119, 10899.40, 44983.87, 1141.50, 20885.18, -2507.26, 340.10, 11753.62, -55036.36, -23847.92, 30324.16, 4627.30, 11198.58, 0.00, 0.00, 0.00, 0.00, 0.00, 0.00, 0.00
120, 10899.40, 44983.87, 1141.50, 20885.18, -2507.26, 340.10, 11753.62, -55036.36, -23842.29, 30303.67, 4607.48, 11204.95, 0.00, 0.00, 0.00, 0.00, 0.00, 0.00, 0.00
121, 10899.31, 44996.30, 1141.93, 20889.11, -2509.54, 340.62, 11754.04, -55035.56, -23842.29, 30303.67, 4607.48, 11204.95, 0.00, 0.00, 0.00, 0.00, 0.00, 0.00, 0.00
122, 10899.31, 44996.30, 1141.93, 20889.11, -2509.54, 340.62, 11754.04, -55035.56, -23850.09, 30319.71, 4619.81, 11212.84, 0.00, 0.00, 0.00, 0.00, 0.00, 0.00, 0.00
123, 10904.68, 44999.80, 1142.31, 20888.06, -2500.96, 342.23, 11756.73, -55032.32, -23850.09, 30319.71, 4619.81, 11212.84, 0.00, 0.00, 0.00, 0.00, 0.00, 0.00, 0.00
124, 10904.68, 44999.80, 1142.31, 20888.06, -2500.96, 342.23, 11756.73, -55032.32, -23846.00, 30298.79, 4609.89, 11192.70, 0.00, 0.00, 0.00, 0.00, -0.09, 0.34, 0.95
125, 10896.32, 44994.17, 1138.55, 20883.30, -2507.20, 337.53, 11752.82, -55035.58, -23846.00, 30298.79, 4609.89, 11192.70, 0.00, 0.00, 0.00, 0.00, 0.00, 0.00, 0.00
126, 10896.32, 44994.17, 1138.55, 20883.30, -2507.20, 337.53, 11752.82, -55035.58, -23844.97, 30326.91, 4626.07, 11192.93, 0.00, 0.00, 0.00, 0.00, 0.00, 0.00, 0.00
127, 10907.47, 45004.45, 1143.22, 20892.98, -2494.61, 347.48, 11763.86, -55023.55, -23844.97, 30326.91, 4626.07, 11192.93, 0.00, 0.00, 0.00, 0.00, 0.00, 0.00, 0.00
128, 10907.47, 45004.45, 1143.22, 20892.98, -2494.61, 347.48, 11763.86, -55023.55, -23841.98, 30311.45, 4612.01, 11220.64, 0.00, 0.00, 0.00, 0.00, 0.00, 0.00, 0.00
129, 10893.75, 45014.51, 1136.79, 20880.69, -2506.79, 335.70, 11751.25, -55032.14, -23841.98, 30311.45, 4612.01, 11220.64, 0.00, 0.00, 0.00, 0.00, 0.00, 0.00, 0.00
130, 10893.75, 45014.51, 1136.79, 20880.69, -2506.79, 335.70, 11751.25, -55032.14, -23843.37, 30329.06, 4618.54, 11196.73, 0.00, 0.00, 0.00, 0.00, 0.00, 0.00, 0.00
131, 10889.41, 44990.15, 1139.04, 20890.14, -2500.36, 343.57, 11762.00, -55021.45, -23843.37, 30329.06, 4618.54, 11196.73, 0.00, 0.00, 0.00, 0.00, 0.00, 0.00, 0.00
132, 10889.41, 44990.15, 1139.04, 20890.14, -2500.36, 343.57, 11762.00, -55021.45, -23852.04, 30305.50, 4599.92, 11220.15, 0.00, 0.00, 0.00, 0.00, 0.00, 0.00, 0.00
133, 10879.89, 44964.54, 1121.01, 20867.54, -2519.65, 327.23, 11740.57, -55041.19, -23852.04, 30305.50, 4599.92, 11220.15, 0.00, 0.00, 0.00, 0.00, -0.08, 0.35, 0.95
134, 10879.89, 44964.54, 1121.01, 20867.54, -2519.65, 327.23, 11740.57, -55041.19, -23853.42, 30315.16, 4603.07, 11205.55, 0.00, 0.00, 0.00, 0.00, 0.00, 0.00, 0.00
135, 10894.15, 44988.81, 1130.73, 20883.10, -2505.65, 340.06, 11755.90, -55025.68, -23853.42, 30315.16, 4603.07, 11205.55, 0.00, 0.00, 0.00, 0.00, 0.00, 0.00, 0.00
136, 10894.15, 44988.81, 1130.73, 20883.10, -2505.65, 340.06, 11755.90, -55025.68, -23848.71, 30306.93, 4600.48, 11198.96, 0.00, 0.00, 0.00, 0.00, 0.00, 0.00, 0.00
137, 10887.62, 44981.86, 1126.04, 20872.39, -2517.19, 329.98, 11740.43, -55041.59, -23848.71, 30306.93, 4600.48, 11198.96, 0.00, 0.00, 0.00, 0.00, 0.00, 0.00, 0.00
138, 10887.62, 44981.86, 1126.04, 20872.39, -2517.19, 329.98, 11740.43, -55041.59, -23846.90, 30320.03, 4605.04, 11192.50, 0.00, 0.00, 0.00, 0.00, 0.00, 0.00, 0.00
139, 10906.58, 45011.09, 1146.13, 20895.91, -2497.05, 348.40, 11767.25, -55016.71, -23846.90, 30320.03, 4605.04, 11192.50, 0.00, 0.00, 0.00, 0.00, 0.00, 0.00, 0.00
140, 10906.58, 45011.09, 1146.13, 20895.91, -2497.05, 348.40, 11767.25, -55016.71, -23841.33, 30317.70, 4607.21, 11232.73, 0.00, 0.00, 0.00, 0.00, 0.00, 0.00, 0.00
141, 10893.52, 44994.35, 1125.54, 20872.37, -2518.73, 328.28, 11744.25, -55035.40, -23841.33, 30317.70, 4607.21, 11232.73, 0.00, 0.00, 0.00, 0.00, 0.00, 0.00, 0.00
142, 10893.52, 44994.35, 1125.54, 20872.37, -2518.73, 328.28, 11744.25, -55035.40, -23841.71, 30323.78, 4608.01, 11210.05, 0.00, 0.00, 0.00, 0.00, 0.00, 0.00, 0.00
143, 10902.85, 44998.24, 1145.77, 20898.28, -2494.79, 348.51, 11767.28, -55013.68, -23841.71, 30323.78, 4608.01, 11210.05, 0.00, 0.00, 0.00, 0.00, -0.07, 0.34, 0.95
144, 10902.85, 44998.24, 1145.77, 20898.28, -2494.79, 348.51, 11767.28, -55013.68, -23845.53, 30322.46, 4601.75, 11197.71, 0.00, 0.00, 0.00, 0.00, 0.00, 0.00, 0.00
145, 10884.61, 44976.56, 1126.95, 20873.53, -2516.40, 329.35, 11743.03, -55034.53, -23845.53, 30322.46, 4601.75, 11197.71, 0.00, 0.00, 0.00, 0.00, 0.00, 0.00, 0.00
146, 10884.61, 44976.56, 1126.95, 20873.53, -2516.40, 329.35, 11743.03, -55034.53, -23846.43, 30316.18, 4595.41, 11222.65, 0.00, 0.00, 0.00, 0.00, 0.00, 0.00, 0.00
147, 10894.66, 44997.64, 1135.58, 20889.89, -2503.46, 342.25, 11761.46, -55018.14, -23846.43, 30316.18, 4595.41, 11222.65, 0.00, 0.00, 0.00, 0.00, 0.00, 0.00, 0.00
148, 10894.66, 44997.64, 1135.58, 20889.89, -2503.46, 342.25, 11761.46, -55018.14, -23847.88, 30318.84, 4598.96, 11221.94, 0.00, 0.00, 0.00, 0.00, 0.00, 0.00, 0.00
149, 10892.97, 44972.02, 1125.14, 20870.72, -2516.83, 328.26, 11744.34, -55035.16, -23847.88, 30318.84, 4598.96, 11221.94, 0.00, 0.00, 0.00, 0.00, 0.00, 0.00, 0.00
150, 10892.97, 44972.02, 1125.14, 20870.72, -2516.83, 328.26, 11744.34, -55035.16, -23847.46, 30317.14, 4597.02, 11196.28, 0.00, 0.00, 0.00, 0.00, 0.00, 0.00, 0.00
151, 10895.83, 44994.69, 1141.10, 20894.37, -2503.71, 344.82, 11766.36, -55011.87, -23847.46, 30317.14, 4597.02, 11196.28, 0.00, 0.00, 0.00, 0.00, 0.00, 0.00, 0.00
152, 10895.83, 44994.69, 1141.10, 20894.37, -2503.71, 344.82, 11766.36, -55011.87, -23840.21, 30336.95, 4613.35, 11220.89, 0.00, 0.00, 0.00, 0.00, 0.00, 0.00, 0.00
153, 10905.04, 44995.80, 1142.00, 20880.98, -2504.45, 335.48, 11751.05, -55025.16, -23840.21, 30336.95, 4613.35, 11220.89, 0.00, 0.00, 0.00, 0.00, -0.07, 0.34, 0.95
154, 10905.04, 44995.80, 1142.00, 20880.98, -2504.45, 335.48, 11751.05, -55025.16, -23841.11, 30312.52, 4608.10, 11211.12, 0.00, 0.00, 0.00, 0.00, 0.00, 0.00, 0.00
155, 10909.42, 45020.95, 1146.87, 20897.79, -2494.54, 345.38, 11767.52, -55012.16, -23841.11, 30312.52, 4608.10, 11211.12, 0.00, 0.00, 0.00, 0.00, 0.00, 0.00, 0.00
156, 10909.42, 45020.95, 1146.87, 20897.79, -2494.54, 345.38, 11767.52, -55012.16, -23842.27, 30327.45, 4611.14, 11237.23, 0.00, 0.00, 0.00, 0.00, 0.00, 0.00, 0.00
157, 10895.76, 44993.88, 1133.35, 20876.95, -2510.39, 332.77, 11748.23, -55028.52, -23842.27, 30327.45, 4611.14, 11237.23, 0.00, 0.00, 0.00, 0.00, 0.00, 0.00, 0.00
158, 10895.76, 44993.88, 1133.35, 20876.95, -2510.39, 332.77, 11748.23, -55028.52, -23844.82, 30305.14, 4596.50, 11218.23, 0.00, 0.00, 0.00, 0.00, 0.00, 0.00, 0.00
159, 10900.61, 44995.42, 1138.96, 20891.01, -2501.23, 342.47, 11762.20, -55015.42, -23844.82, 30305.14, 4596.50, 11218.23, 0.00, 0.00, 0.00, 0.00, 0.00, 0.00, 0.00
160, 10900.61, 44995.42, 1138.96, 20891.01, -2501.23, 342.47, 11762.20, -55015.42, -23846.14, 30324.30, 4612.57, 11200.03, 0.00, 0.00, 0.00, 0.00, 0.00, 0.00, 0.00
161, 10900.12, 44984.25, 1136.25, 20881.13, -2510.21, 333.80, 11750.13, -55024.90, -23846.14, 30324.30, 4612.57, 11200.03, 0.00, 0.00, 0.00, 0.00, 0.00, 0.00, 0.00
162, 10900.12, 44984.25, 1136.25, 20881.13, -2510.21, 333.80, 11750.13, -55024.90, -23846.96, 30307.33, 4594.36, 11192.86, 0.00, 0.00, 0.00, 0.00, 0.00, 0.00, 0.00
163, 10903.47, 44998.46, 1143.98, 20892.55, -2500.74, 343.61, 11762.56, -55012.34, -23846.96, 30307.33, 4594.36, 11192.86, 0.00, 0.00, 0.00, 0.00, -0.08, 0.34, 0.95
164, 10903.47, 44998.46, 1143.98, 20892.55, -2500.74, 343.61, 11762.56, -55012.34, -23843.16, 30328.25, 4615.28, 11213.20, 0.00, 0.00, 0.00, 0.00, 0.00, 0.00, 0.00
165, 10904.81, 45001.41, 1140.27, 20885.47, -2503.95, 337.11, 11753.98, -55019.73, -23843.16, 30328.25, 4615.28, 11213.20, 0.00, 0.00, 0.00, 0.00, 0.00, 0.00, 0.00
166, 10904.81, 45001.41, 1140.27, 20885.47, -2503.95, 337.11, 11753.98, -55019.73, -23846.14, 30309.08, 4593.08, 11221.00, 0.00, 0.00, 0.00, 0.00, 0.00, 0.00, 0.00
167, 10895.11, 45006.49, 1138.80, 20889.56, -2504.87, 339.59, 11759.27, -55014.46, -23846.14, 30309.08, 4593.08, 11221.00, 0.00, 0.00, 0.00, 0.00, 0.00, 0.00, 0.00
168, 10895.11, 45006.49, 1138.80, 20889.56, -2504.87, 339.59, 11759.27, -55014.46, -23842.49, 30331.00, 4613.44, 11213.65, 0.00, 0.00, 0.00, 0.00, 0.00, 0.00, 0.00
169, 10902.60, 44991.89, 1146.89, 20888.22, -2502.19, 340.10, 11758.83, -55014.21, -23842.49, 30331.00, 4613.44, 11213.65, 0.00, 0.00, 0.00, 0.00, 0.00, 0.00, 0.00
170, 10902.60, 44991.89, 1146.89, 20888.22, -2502.19, 340.10, 11758.83, -55014.21, -23839.95, 30310.48, 4602.40, 11230.25, 0.00, 0.00, 0.00, 0.00, 0.00, 0.00, 0.00
171, 10904.59, 45001.97, 1145.55, 20889.69, -2501.72, 340.39, 11759.43, -55012.92, -23839.95, 30310.48, 4602.40, 11230.25, 0.00, 0.00, 0.00, 0.00, 0.00, 0.00, 0.00
172, 10904.59, 45001.97, 1145.55, 20889.69, -2501.72, 340.39, 11759.43, -55012.92, -23846.23, 30326.18, 4616.28, 11194.94, 0.00, 0.00, 0.00, 0.00, -0.08, 0.34, 0.95
173, 10908.23, 45007.29, 1145.10, 20891.26, -2499.95, 342.47, 11761.13, -55012.65, -23846.23, 30326.18, 4616.28, 11194.94, 0.00, 0.00, 0.00, 0.00, 0.00, 0.00, 0.00
174, 10908.23, 45007.29, 1145.10, 20891.26, -2499.95, 342.47, 11761.13, -55012.65, -23842.92, 30311.69, 4602.29, 11210.16, 0.00, 0.00, 0.00, 0.00, 0.00, 0.00, 0.00
175, 10901.21, 44991.38, 1143.72, 20888.69, -2506.35, 338.45, 11757.82, -55013.63, -23842.92, 30311.69, 4602.29, 11210.16, 0.00, 0.00, 0.00, 0.00, 0.00, 0.00, 0.00
176, 10901.21, 44991.38, 1143.72, 20888.69, -2506.35, 338.45, 11757.82, -55013.63, -23842.07, 30327.83, 4616.84, 11240.92, 0.00, 0.00, 0.00, 0.00, 0.00, 0.00, 0.00
177, 10913.95, 45020.23, 1152.72, 20894.86, -2500.96, 344.89, 11765.98, -55008.71, -23842.07, 30327.83, 4616.84, 11240.92, 0.00, 0.00, 0.00, 0.00, 0.00, 0.00, 0.00
178, 10913.95, 45020.23, 1152.72, 20894.86, -2500.96, 344.89, 11765.98, -55008.71, -23840.15, 30312.25, 4606.74, 11204.77, 0.00, 0.00, 0.00, 0.00, 0.00, 0.00, 0.00
179, 10902.60, 45003.78, 1152.14, 20888.51, -2498.48, 339.43, 11758.89, -55010.57, -23840.15, 30312.25, 4606.74, 11204.77, 0.00, 0.00, 0.00, 0.00, 0.00, 0.00, 0.00
180, 10902.60, 45003.78, 1152.14, 20888.51, -2498.48, 339.43, 11758.89, -55010.57, -23839.10, 30329.75, 4622.09, 11210.63, 0.00, 0.00, 0.00, 0.00, 0.00, 0.00, 0.00
181, 10912.55, 45008.52, 1153.37, 20898.81, -2494.14, 345.80, 11769.94, -55001.23, -23839.10, 30329.75, 4622.09, 11210.63, 0.00, 0.00, 0.00, 0.00, 0.00, 0.00, 0.00
182, 10912.55, 45008.52, 1153.37, 20898.81, -2494.14, 345.80, 11769.94, -55001.23, -23845.18, 30314.80, 4605.85, 11226.57, 0.00, 0.00, 0.00, 0.00, -0.08, 0.34, 0.95
183, 10913.44, 45002.11, 1140.90, 20883.97, -2505.76, 336.64, 11754.67, -55014.75, -23845.18, 30314.80, 4605.85, 11226.57, 0.00, 0.00, 0.00, 0.00, 0.00, 0.00, 0.00
184, 10913.44, 45002.11, 1140.90, 20883.97, -2505.76, 336.64, 11754.67, -55014.75, -23844.44, 30321.26, 4620.98, 11214.52, 0.00, 0.00, 0.00, 0.00, 0.00, 0.00, 0.00
185, 10913.37, 45017.17, 1162.65, 20905.68, -2490.45, 349.51, 11772.17, -54999.08, -23844.44, 30321.26, 4620.98, 11214.52, 0.00, 0.00, 0.00, 0.00, 0.00, 0.00, 0.00
186, 10913.37, 45017.17, 1162.65, 20905.68, -2490.45, 349.51, 11772.17, -54999.08, -23838.47, 30310.82, 4616.86, 11201.11, 0.00, 0.00, 0.00, 0.00, 0.00, 0.00, 0.00
187, 10904.19, 45007.20, 1143.45, 20884.80, -2506.39, 335.54, 11753.58, -55015.60, -23838.47, 30310.82, 4616.86, 11201.11, 0.00, 0.00, 0.00, 0.00, 0.00, 0.00, 0.00
188, 10904.19, 45007.20, 1143.45, 20884.80, -2506.39, 335.54, 11753.58, -55015.60, -23842.45, 30318.26, 4614.54, 11210.56, 0.00, 0.00, 0.00, 0.00, 0.00, 0.00, 0.00
189, 10922.72, 45022.40, 1155.09, 20901.45, -2492.53, 349.36, 11772.42, -54995.95, -23842.45, 30318.26, 4614.54, 11210.56, 0.00, 0.00, 0.00, 0.00, 0.00, 0.00, 0.00
190, 10922.72, 45022.40, 1155.09, 20901.45, -2492.53, 349.36, 11772.42, -54995.95, -23844.01, 30316.92, 4612.48, 11213.58, 0.00, 0.00, 0.00, 0.00, 0.00, 0.00, 0.00
191, 10898.98, 44985.39, 1140.97, 20881.85, -2513.34, 331.36, 11749.15, -55018.59, -23844.01, 30316.92, 4612.48, 11213.58, 0.00, 0.00, 0.00, 0.00, 0.00, 0.00, 0.00
192, 10898.98, 44985.39, 1140.97, 20881.85, -2513.34, 331.36, 11749.15, -55018.59, -23846.11, 30316.01, 4611.84, 11185.06, 0.00, 0.00, 0.00, 0.00, -0.08, 0.34, 0.95
193, 10909.86, 45019.16, 1163.65, 20905.72, -2495.44, 349.78, 11773.71, -54993.83, -23846.11, 30316.01, 4611.84, 11185.06, 0.00, 0.00, 0.00, 0.00, 0.00, 0.00, 0.00
194, 10909.86, 45019.16, 1163.65, 20905.72, -2495.44, 349.78, 11773.71, -54993.83, -23842.29, 30327.25, 4616.66, 11228.96, 0.00, 0.00, 0.00, 0.00, 0.00, 0.00, 0.00
195, 10902.87, 45000.56, 1142.53, 20880.57, -2514.10, 332.15, 11750.47, -55013.99, -23842.29, 30327.25, 4616.66, 11228.96, 0.00, 0.00, 0.00, 0.00, 0.00, 0.00, 0.00
196, 10902.87, 45000.56, 1142.53, 20880.57, -2514.10, 332.15, 11750.47, -55013.99, -23850.41, 30316.63, 4608.26, 11208.17, 0.00, 0.00, 0.00, 0.00, 0.00, 0.00, 0.00
197, 10926.99, 45011.67, 1155.97, 20902.63, -2492.35, 347.37, 11771.37, -54996.11, -23850.41, 30316.63, 4608.26, 11208.17, 0.00, 0.00, 0.00, 0.00, 0.00, 0.00, 0.00
198, 10926.99, 45011.67, 1155.97, 20902.63, -2492.35, 347.37, 11771.37, -54996.11, -23844.30, 30322.06, 4618.12, 11208.39, 0.00, 0.00, 0.00, 0.00, 0.00, 0.00, 0.00
199, 10911.92, 45008.63, 1149.35, 20884.15, -2508.09, 334.83, 11755.61, -55011.31, -23844.30, 30322.06, 4618.12, 11208.39, 0.00, 0.00, 0.00, 0.00, 0.00, 0.00, 0.00
200, 10911.92, 45008.63, 1149.35, 20884.15, -2508.09, 334.83, 11755.61, -55011.31, -23843.16, 30316.74, 4609.67, 11213.87, 0.00, 0.00, 0.00, 0.00, 0.00, 0.00, 0.00
201, 10914.63, 45012.97, 1159.41, 20905.07, -2496.78, 348.89, 11773.16, -54993.34, -23843.16, 30316.74, 4609.67, 11213.87, 0.00, 0.00, 0.00, 0.00, 0.00, 0.00, 0.00
202, 10914.63, 45012.97, 1159.41, 20905.07, -2496.78, 348.89, 11773.16, -54993.34, -23844.46, 30324.19, 4622.12, 11221.92, 0.00, 0.00, 0.00, 0.00, -0.08, 0.33, 0.95
203, 10918.49, 45005.62, 1153.04, 20888.40, -2503.71, 338.76, 11758.47, -55009.52, -23844.46, 30324.19, 4622.12, 11221.92, 0.00, 0.00, 0.00, 0.00, 0.00, 0.00, 0.00
204, 10918.49, 45005.62, 1153.04, 20888.40, -2503.71, 338.76, 11758.47, -55009.52, -23839.97, 30314.35, 4638.86, 11207.77, 0.00, 0.00, 0.00, 0.00, 0.00, 0.00, 0.00
205, 10926.81, 45024.66, 1180.06, 20916.22, -2483.84, 357.90, 11782.50, -54987.32, -23839.97, 30314.35, 4638.86, 11207.77, 0.00, 0.00, 0.00, 0.00, 0.00, 0.00, 0.00
206, 10926.81, 45024.66, 1180.06, 20916.22, -2483.84, 357.90, 11782.50, -54987.32, -23847.34, 30326.04, 4612.64, 11219.32, 0.00, 0.00, 0.00, 0.00, 0.00, 0.00, 0.00
207, 10905.10, 45007.02, 1139.96, 20863.03, -2527.33, 323.68, 11743.74, -55015.73, -23847.34, 30326.04, 4612.64, 11219.32, 0.00, 0.00, 0.00, 0.00, 0.00, 0.00, 0.00
208, 10905.10, 45007.02, 1139.96, 20863.03, -2527.33, 323.68, 11743.74, -55015.73, -23845.15, 30314.64, 4621.20, 11237.56, 0.00, 0.00, 0.00, 0.00, 0.00, 0.00, 0.00
209, 10944.58, 45031.45, 1177.87, 20900.51, -2500.27, 343.88, 11770.07, -54991.32, -23845.15, 30314.64, 4621.20, 11237.56, 0.00, 0.00, 0.00, 0.00, 0.00, 0.00, 0.00
210, 10944.58, 45031.45, 1177.87, 20900.51, -2500.27, 343.88, 11770.07, -54991.32, -23842.85, 30336.01, 4655.53, 11202.69, 0.00, 0.00, 0.00, 0.00, 0.00, 0.00, 0.00
211, 10942.52, 45021.22, 1170.31, 20877.89, -2509.21, 334.11, 11755.45, -55007.21, -23842.85, 30336.01, 4655.53, 11202.69, 0.00, 0.00, 0.00, 0.00, -0.08, 0.33, 0.95
212, 10942.52, 45021.22, 1170.31, 20877.89, -2509.21, 334.11, 11755.45, -55007.21, -23849.33, 30303.49, 4636.47, 11193.26, 0.00, 0.00, 0.00, 0.00, 0.00, 0.00, 0.00
213, 10943.97, 45037.94, 1181.85, 20889.72, -2503.17, 341.02, 11763.92, -55002.05, -23849.33, 30303.49, 4636.47, 11193.26, 0.00, 0.00, 0.00, 0.00, 0.00, 0.00, 0.00
214, 10943.97, 45037.94, 1181.85, 20889.72, -2503.17, 341.02, 11763.92, -55002.05, -23844.62, 30325.39, 4662.86, 11203.10, 0.00, 0.00, 0.00, 0.00, 0.00, 0.00, 0.00
215, 10939.79, 45035.52, 1179.30, 20877.76, -2505.07, 337.18, 11760.30, -55000.55, -23844.62, 30325.39, 4662.86, 11203.10, 0.00, 0.00, 0.00, 0.00, 0.00, 0.00, 0.00
216, 10939.79, 45035.52, 1179.30, 20877.76, -2505.07, 337.18, 11760.30, -55000.55, -23841.64, 30312.23, 4648.54, 11234.23, 0.00, 0.00, 0.00, 0.00, 0.00, 0.00, 0.00
217, 10949.78, 45043.64, 1180.26, 20886.34, -2503.71, 339.32, 11763.79, -54996.67, -23841.64, 30312.23, 4648.54, 11234.23, 0.00, 0.00, 0.00, 0.00, 0.00, 0.00, 0.00
218, 10949.78, 45043.64, 1180.26, 20886.34, -2503.71, 339.32, 11763.79, -54996.67, -23847.57, 30327.11, 4664.94, 11210.50, 0.00, 0.00, 0.00, 0.00, 0.00, 0.00, 0.00
219, 10945.36, 45050.95, 1182.27, 20886.27, -2504.02, 338.85, 11760.55, -55001.72, -23847.57, 30327.11, 4664.94, 11210.50, 0.00, 0.00, 0.00, 0.00, 0.00, 0.00, 0.00
220, 10945.36, 45050.95, 1182.27, 20886.27, -2504.02, 338.85, 11760.55, -55001.72, -23846.96, 30302.48, 4651.53, 11207.86, 0.00, 0.00, 0.00, 0.00, 0.00, 0.00, 0.00
221, 10942.54, 45040.55, 1186.21, 20886.34, -2509.83, 337.89, 11762.20, -55001.05, -23846.96, 30302.48, 4651.53, 11207.86, 0.00, 0.00, 0.00, 0.00, -0.08, 0.33, 0.94
222, 10942.54, 45040.55, 1186.21, 20886.34, -2509.83, 337.89, 11762.20, -55001.05, -23846.07, 30328.88, 4664.65, 11216.19, 0.00, 0.00, 0.00, 0.00, 0.00, 0.00, 0.00
223, 10951.50, 45043.88, 1187.75, 20894.81, -2497.54, 344.40, 11768.98, -54992.26, -23846.07, 30328.88, 4664.65, 11216.19, 0.00, 0.00, 0.00, 0.00, 0.00, 0.00, 0.00
224, 10951.50, 45043.88, 1187.75, 20894.81, -2497.54, 344.40, 11768.98, -54992.26, -23840.91, 30312.56, 4654.71, 11208.48, 0.00, 0.00, 0.00, 0.00, 0.00, 0.00, 0.00
225, 10936.93, 45033.87, 1181.71, 20886.65, -2507.44, 337.53, 11760.06, -54999.53, -23840.91, 30312.56, 4654.71, 11208.48, 0.00, 0.00, 0.00, 0.00, 0.00, 0.00, 0.00
226, 10936.93, 45033.87, 1181.71, 20886.65, -2507.44, 337.53, 11760.06, -54999.53, -23843.97, 30328.14, 4661.93, 11248.92, 0.00, 0.00, 0.00, 0.00, 0.00, 0.00, 0.00
227, 10946.83, 45043.84, 1187.77, 20896.56, -2502.17, 345.25, 11767.95, -54993.58, -23843.97, 30328.14, 4661.93, 11248.92, 0.00, 0.00, 0.00, 0.00, 0.00, 0.00, 0.00
228, 10946.83, 45043.84, 1187.77, 20896.56, -2502.17, 345.25, 11767.95, -54993.58, -23845.47, 30311.11, 4647.98, 11204.86, 0.00, 0.00, 0.00, 0.00, 0.00, 0.00, 0.00
229, 10939.12, 45030.92, 1176.26, 20882.81, -2514.15, 332.82, 11755.92, -55004.24, -23845.47, 30311.11, 4647.98, 11204.86, 0.00, 0.00, 0.00, 0.00, 0.00, 0.00, 0.00
230, 10939.12, 45030.92, 1176.26, 20882.81, -2514.15, 332.82, 11755.92, -55004.24, -23845.13, 30327.40, 4656.94, 11193.46, 0.00, 0.00, 0.00, 0.00, 0.00, 0.00, 0.00
231, 10956.29, 45046.12, 1188.42, 20895.75, -2498.43, 345.07, 11773.65, -54986.12, -23845.13, 30327.40, 4656.94, 11193.46, 0.00, 0.00, 0.00, 0.00, -0.07, 0.34, 0.95
232, 10956.29, 45046.12, 1188.42, 20895.75, -2498.43, 345.07, 11773.65, -54986.12, -23841.87, 30316.50, 4648.49, 11225.87, 0.00, 0.00, 0.00, 0.00, 0.00, 0.00, 0.00
233, 10929.09, 45023.70, 1171.34, 20880.39, -2513.97, 332.77, 11755.63, -55005.27, -23841.87, 30316.50, 4648.49, 11225.87, 0.00, 0.00, 0.00, 0.00, 0.00, 0.00, 0.00
234, 10929.09, 45023.70, 1171.34, 20880.39, -2513.97, 332.77, 11755.63, -55005.27, -23845.47, 30322.40, 4649.63, 11219.14, 0.00, 0.00, 0.00, 0.00, 0.00, 0.00, 0.00
235, 10939.41, 45039.41, 1180.24, 20895.35, -2497.14, 345.83, 11774.16, -54984.08, -23845.47, 30322.40, 4649.63, 11219.14, 0.00, 0.00, 0.00, 0.00, 0.00, 0.00, 0.00
236, 10939.41, 45039.41, 1180.24, 20895.35, -2497.14, 345.83, 11774.16, -54984.08, -23835.99, 30326.64, 4647.87, 11230.66, 0.00, 0.00, 0.00, 0.00, 0.00, 0.00, 0.00
237, 10933.33, 45034.70, 1174.07, 20880.93, -2513.79, 334.96, 11760.28, -54994.90, -23835.99, 30326.64, 4647.87, 11230.66, 0.00, 0.00, 0.00, 0.00, 0.00, 0.00, 0.00
238, 10933.33, 45034.70, 1174.07, 20880.93, -2513.79, 334.96, 11760.28, -54994.90, -23835.56, 30334.45, 4648.85, 11204.59, 0.00, 0.00, 0.00, 0.00, 0.00, 0.00, 0.00
239, 10930.05, 45036.21, 1182.99, 20894.79, -2494.37, 348.69, 11779.03, -54976.44, -23835.56, 30334.45, 4648.85, 11204.59, 0.00, 0.00, 0.00, 0.00, 0.00, 0.00, 0.00
240, 10930.05, 45036.21, 1182.99, 20894.79, -2494.37, 348.69, 11779.03, -54976.44, -23834.56, 30333.22, 4648.60, 11244.92, 0.00, 0.00, 0.00, 0.00, 0.00, 0.00, 0.00
241, 10924.33, 45007.61, 1167.34, 20877.80, -2510.59, 335.48, 11758.67, -54993.74, -23834.56, 30333.22, 4648.60, 11244.92, 0.00, 0.00, 0.00, 0.00, -0.09, 0.33, 0.94
242, 10924.33, 45007.61, 1167.34, 20877.80, -2510.59, 335.48, 11758.67, -54993.74, -23840.32, 30327.99, 4634.46, 11207.92, 0.00, 0.00, 0.00, 0.00, 0.00, 0.00, 0.00
243, 10930.92, 45027.88, 1175.30, 20894.30, -2503.82, 346.34, 11773.22, -54984.82, -23840.32, 30327.99, 4634.46, 11207.92, 0.00, 0.00, 0.00, 0.00, 0.00, 0.00, 0.00
244, 10930.92, 45027.88, 1175.30, 20894.30, -2503.82, 346.34, 11773.22, -54984.82, -23847.63, 30319.07, 4629.83, 11216.19, 0.00, 0.00, 0.00, 0.00, 0.00, 0.00, 0.00
245, 10915.36, 45006.78, 1151.72, 20866.18, -2527.09, 324.01, 11746.15, -55003.80, -23847.63, 30319.07, 4629.83, 11216.19, 0.00, 0.00, 0.00, 0.00, 0.00, 0.00, 0.00
246, 10915.36, 45006.78, 1151.72, 20866.18, -2527.09, 324.01, 11746.15, -55003.80, -23844.19, 30320.59, 4622.32, 11240.98, 0.00, 0.00, 0.00, 0.00, 0.00, 0.00, 0.00
247, 10912.72, 45017.84, 1166.94, 20884.93, -2509.34, 341.18, 11769.36, -54980.57, -23844.19, 30320.59, 4622.32, 11240.98, 0.00, 0.00, 0.00, 0.00, 0.00, 0.00, 0.00
248, 10912.72, 45017.84, 1166.94, 20884.93, -2509.34, 341.18, 11769.36, -54980.57, -23848.77, 30322.17, 4625.31, 11199.83, 0.00, 0.00, 0.00, 0.00, 0.00, 0.00, 0.00
249, 10908.97, 44992.41, 1151.56, 20868.41, -2525.57, 326.76, 11748.25, -55002.14, -23848.77, 30322.17, 4625.31, 11199.83, 0.00, 0.00, 0.00, 0.00, 0.00, 0.00, 0.00
250, 10908.97, 44992.41, 1151.56, 20868.41, -2525.57, 326.76, 11748.25, -55002.14, -23843.21, 30313.44, 4617.71, 11176.01, 0.00, 0.00, 0.00, 0.00, -0.09, 0.34, 0.94
251, 10919.63, 45020.52, 1163.36, 20882.88, -2510.66, 338.07, 11767.77, -54983.64, -23843.21, 30313.44, 4617.71, 11176.01, 0.00, 0.00, 0.00, 0.00, 0.00, 0.00, 0.00
252, 10919.63, 45020.52, 1163.36, 20882.88, -2510.66, 338.07, 11767.77, -54983.64, -23842.54, 30326.09, 4632.02, 11258.13, 0.00, 0.00, 0.00, 0.00, 0.00, 0.00, 0.00
253, 10909.62, 45024.17, 1162.07, 20872.48, -2522.28, 327.86, 11753.71, -54995.19, -23842.54, 30326.09, 4632.02, 11258.13, 0.00, 0.00, 0.00, 0.00, 0.00, 0.00, 0.00
254, 10909.62, 45024.17, 1162.07, 20872.48, -2522.28, 327.86, 11753.71, -54995.19, -23840.08, 30313.08, 4626.81, 11214.41, 0.00, 0.00, 0.00, 0.00, 0.00, 0.00, 0.00
255, 10922.11, 45012.12, 1164.53, 20884.87, -2511.75, 337.71, 11765.69, -54985.40, -23840.08, 30313.08, 4626.81, 11214.41, 0.00, 0.00, 0.00, 0.00, 0.00, 0.00, 0.00
0, 10922.11, 45012.12, 1164.53, 20884.87, -2511.75, 337.71, 11765.69, -54985.40, -23848.53, 30325.01, 4630.23, 11201.64, 0.00, 0.00, 0.00, 0.00, 0.00, 0.00, 0.00
1, 10916.93, 45005.68, 1153.75, 20872.86, -2523.44, 329.20, 11751.99, -54996.96, -23848.53, 30325.01, 4630.23, 11201.64, 0.00, 0.00, 0.00, 0.00, 0.00, 0.00, 0.00
2, 10916.93, 45005.68, 1153.75, 20872.86, -2523.44, 329.20, 11751.99, -54996.96, -23847.57, 30307.85, 4614.54, 11226.45, 0.00, 0.00, 0.00, 0.00, 0.00, 0.00, 0.00
3, 10923.74, 45011.56, 1165.55, 20885.42, -2511.91, 339.99, 11767.59, -54981.20, -23847.57, 30307.85, 4614.54, 11226.45, 0.00, 0.00, 0.00, 0.00, 0.00, 0.00, 0.00
4, 10923.74, 45011.56, 1165.55, 20885.42, -2511.91, 339.99, 11767.59, -54981.20, -23843.19, 30335.27, 4629.92, 11241.03, 0.00, 0.00, 0.00, 0.00, -0.08, 0.34, 0.95
5, 10920.21, 45010.76, 1158.16, 20877.89, -2518.93, 332.64, 11757.58, -54989.04, -23843.19, 30335.27, 4629.92, 11241.03, 0.00, 0.00, 0.00, 0.00, 0.00, 0.00, 0.00
6, 10920.21, 45010.76, 1158.16, 20877.89, -2518.93, 332.64, 11757.58, -54989.04, -23845.64, 30307.73, 4616.28, 11201.91, 0.00, 0.00, 0.00, 0.00, 0.00, 0.00, 0.00
7, 10924.71, 45024.55, 1162.27, 20882.68, -2514.33, 336.28, 11763.45, -54986.25, -23845.64, 30307.73, 4616.28, 11201.91, 0.00, 0.00, 0.00, 0.00, 0.00, 0.00, 0.00
8, 10924.71, 45024.55, 1162.27, 20882.68, -2514.33, 336.28, 11763.45, -54986.25, -23846.67, 30325.55, 4631.01, 11188.05, 0.00, 0.00, 0.00, 0.00, 0.00, 0.00, 0.00
9, 10919.09, 45013.04, 1163.25, 20881.78, -2516.78, 334.29, 11760.39, -54989.22, -23846.67, 30325.55, 4631.01, 11188.05, 0.00, 0.00, 0.00, 0.00, 0.00, 0.00, 0.00
10, 10919.09, 45013.04, 1163.25, 20881.78, -2516.78, 334.29, 11760.39, -54989.22, -23845.18, 30310.48, 4615.72, 11232.78, 0.00, 0.00, 0.00, 0.00, 0.00, 0.00, 0.00
11, 10918.76, 45020.37, 1166.78, 20883.32, -2514.17, 337.69, 11766.03, -54981.98, -23845.18, 30310.48, 4615.72, 11232.78, 0.00, 0.00, 0.00, 0.00, 0.00, 0.00, 0.00
12, 10918.76, 45020.37, 1166.78, 20883.32, -2514.17, 337.69, 11766.03, -54981.98, -23841.98, 30334.47, 4634.79, 11219.52, 0.00, 0.00, 0.00, 0.00, 0.00, 0.00, 0.00
13, 10923.14, 45027.74, 1167.25, 20886.79, -2512.87, 340.48, 11768.91, -54979.01, -23841.98, 30334.47, 4634.79, 11219.52, 0.00, 0.00, 0.00, 0.00, 0.00, 0.00, 0.00
14, 10923.14, 45027.74, 1167.25, 20886.79, -2512.87, 340.48, 11768.91, -54979.01, -23844.44, 30311.02, 4617.27, 11207.86, 0.00, 0.00, 0.00, 0.00, -0.07, 0.34, 0.94
15, 10928.53, 45015.12, 1159.68, 20882.61, -2518.15, 335.21, 11760.68, -54987.97, -23844.44, 30311.02, 4617.27, 11207.86, 0.00, 0.00, 0.00, 0.00, 0.00, 0.00, 0.00
16, 10928.53, 45015.12, 1159.68, 20882.61, -2518.15, 335.21, 11760.68, -54987.97, -23846.36, 30328.88, 4625.36, 11250.46, 0.00, 0.00, 0.00, 0.00, 0.00, 0.00, 0.00
17, 10923.25, 45012.25, 1165.60, 20886.56, -2514.91, 338.56, 11766.43, -54981.85, -23846.36, 30328.88, 4625.36, 11250.46, 0.00, 0.00, 0.00, 0.00, 0.00, 0.00, 0.00
18, 10923.25, 45012.25, 1165.60, 20886.56, -2514.91, 338.56, 11766.43, -54981.85, -23843.88, 30310.62, 4612.19, 11208.73, 0.00, 0.00, 0.00, 0.00, 0.00, 0.00, 0.00
19, 10923.86, 45012.19, 1160.17, 20880.73, -2519.78, 332.86, 11760.64, -54986.03, -23843.88, 30310.62, 4612.19, 11208.73, 0.00, 0.00, 0.00, 0.00, 0.00, 0.00, 0.00
20, 10923.86, 45012.19, 1160.17, 20880.73, -2519.78, 332.86, 11760.64, -54986.03, -23844.01, 30331.88, 4626.27, 11186.40, 0.00, 0.00, 0.00, 0.00, 0.00, 0.00, 0.00
21, 10933.69, 45016.55, 1165.62, 20890.34, -2511.71, 343.68, 11774.63, -54972.95, -23844.01, 30331.88, 4626.27, 11186.40, 0.00, 0.00, 0.00, 0.00, 0.00, 0.00, 0.00
22, 10933.69, 45016.55, 1165.62, 20890.34, -2511.71, 343.68, 11774.63, -54972.95, -23843.59, 30312.05, 4616.55, 11233.96, 0.00, 0.00, 0.00, 0.00, 0.00, 0.00, 0.00
23, 10909.68, 45002.11, 1155.76, 20873.22, -2524.16, 330.63, 11756.23, -54989.43, -23843.59, 30312.05, 4616.55, 11233.96, 0.00, 0.00, 0.00, 0.00, 0.00, 0.00, 0.00
24, 10909.68, 45002.11, 1155.76, 20873.22, -2524.16, 330.63, 11756.23, -54989.43, -23845.44, 30327.83, 4623.15, 11218.14, 0.00, 0.00, 0.00, 0.00, -0.08, 0.34, 0.95
25, 10922.07, 45025.96, 1170.99, 20891.95, -2507.22, 346.56, 11776.17, -54969.22, -23845.44, 30327.83, 4623.15, 11218.14, 0.00, 0.00, 0.00, 0.00, 0.00, 0.00, 0.00
26, 10922.07, 45025.96, 1170.99, 20891.95, -2507.22, 346.56, 11776.17, -54969.22, -23839.28, 30323.52, 4615.17, 11210.61, 0.00, 0.00, 0.00, 0.00, 0.00, 0.00, 0.00
27, 10918.65, 45013.21, 1149.77, 20869.18, -2526.15, 327.32, 11754.94, -54986.88, -23839.28, 30323.52, 4615.17, 11210.61, 0.00, 0.00, 0.00, 0.00, 0.00, 0.00, 0.00
28, 10918.65, 45013.21, 1149.77, 20869.18, -2526.15, 327.32, 11754.94, -54986.88, -23845.49, 30323.34, 4619.88, 11220.31, 0.00, 0.00, 0.00, 0.00, 0.00, 0.00, 0.00
29, 10932.35, 45030.88, 1168.84, 20891.37, -2509.25, 345.60, 11776.49, -54968.68, -23845.49, 30323.34, 4619.88, 11220.31, 0.00, 0.00, 0.00, 0.00, 0.00, 0.00, 0.00
30, 10932.35, 45030.88, 1168.84, 20891.37, -2509.25, 345.60, 11776.49, -54968.68, -23837.60, 30324.03, 4619.05, 11253.16, 0.00, 0.00, 0.00, 0.00, 0.00, 0.00, 0.00
31, 10914.22, 45002.40, 1154.02, 20873.06, -2522.17, 331.61, 11761.02, -54981.18, -23837.60, 30324.03, 4619.05, 11253.16, 0.00, 0.00, 0.00, 0.00, 0.00, 0.00, 0.00
32, 10914.22, 45002.40, 1154.02, 20873.06, -2522.17, 331.61, 11761.02, -54981.18, -23834.07, 30330.82, 4625.67, 11209.65, 0.00, 0.00, 0.00, 0.00, 0.00, 0.00, 0.00
33, 10917.87, 45011.94, 1170.85, 20892.78, -2504.69, 347.14, 11779.91, -54961.15, -23834.07, 30330.82, 4625.67, 11209.65, 0.00, 0.00, 0.00, 0.00, -0.08, 0.34, 0.95
34, 10917.87, 45011.94, 1170.85, 20892.78, -2504.69, 347.14, 11779.91, -54961.15, -23837.29, 30328.32, 4618.36, 11191.36, 0.00, 0.00, 0.00, 0.00, 0.00, 0.00, 0.00
35, 10911.54, 45002.89, 1151.27, 20870.70, -2523.82, 329.13, 11758.38, -54980.75, -23837.29, 30328.32, 4618.36, 11191.36, 0.00, 0.00, 0.00, 0.00, 0.00, 0.00, 0.00
36, 10911.54, 45002.89, 1151.27, 20870.70, -2523.82, 329.13, 11758.38, -54980.75, -23839.41, 30324.03, 4616.95, 11255.44, 0.00, 0.00, 0.00, 0.00, 0.00, 0.00, 0.00
37, 10924.79, 45019.99, 1162.02, 20887.57, -2509.70, 343.55, 11776.51, -54964.84, -23839.41, 30324.03, 4616.95, 11255.44, 0.00, 0.00, 0.00, 0.00, 0.00, 0.00, 0.00
38, 10924.79, 45019.99, 1162.02, 20887.57, -2509.70, 343.55, 11776.51, -54964.84, -23842.67, 30328.95, 4621.22, 11226.99, 0.00, 0.00, 0.00, 0.00, 0.00, 0.00, 0.00
39, 10904.32, 44997.64, 1150.47, 20867.50, -2526.55, 328.30, 11757.08, -54980.04, -23842.67, 30328.95, 4621.22, 11226.99, 0.00, 0.00, 0.00, 0.00, 0.00, 0.00, 0.00
40, 10904.32, 44997.64, 1150.47, 20867.50, -2526.55, 328.30, 11757.08, -54980.04, -23838.00, 30325.53, 4614.92, 11196.93, 0.00, 0.00, 0.00, 0.00, 0.00, 0.00, 0.00
41, 10916.90, 45021.22, 1163.79, 20887.75, -2508.31, 342.94, 11777.11, -54961.86, -23838.00, 30325.53, 4614.92, 11196.93, 0.00, 0.00, 0.00, 0.00, 0.00, 0.00, 0.00
42, 10916.90, 45021.22, 1163.79, 20887.75, -2508.31, 342.94, 11777.11, -54961.86, -23845.55, 30325.01, 4620.91, 11221.47, 0.00, 0.00, 0.00, 0.00, 0.00, 0.00, 0.00
43, 10911.79, 45000.03, 1147.43, 20867.05, -2525.70, 326.16, 11754.56, -54985.49, -23845.55, 30325.01, 4620.91, 11221.47, 0.00, 0.00, 0.00, 0.00, -0.08, 0.34, 0.94
44, 10911.79, 45000.03, 1147.43, 20867.05, -2525.70, 326.16, 11754.56, -54985.49, -23845.33, 30314.04, 4610.27, 11232.00, 0.00, 0.00, 0.00, 0.00, 0.00, 0.00, 0.00
45, 10922.67, 45026.02, 1159.34, 20886.99, -2514.68, 341.20, 11773.76, -54967.77, -23845.33, 30314.04, 4610.27, 11232.00, 0.00, 0.00, 0.00, 0.00, 0.00, 0.00, 0.00
46, 10922.67, 45026.02, 1159.34, 20886.99, -2514.68, 341.20, 11773.76, -54967.77, -23842.54, 30335.43, 4624.02, 11213.45, 0.00, 0.00, 0.00, 0.00, 0.00, 0.00, 0.00
47, 10911.72, 45005.75, 1155.54, 20872.37, -2521.86, 332.66, 11760.30, -54980.02, -23842.54, 30335.43, 4624.02, 11213.45, 0.00, 0.00, 0.00, 0.00, 0.00, 0.00, 0.00
48, 10911.72, 45005.75, 1155.54, 20872.37, -2521.86, 332.66, 11760.30, -54980.02, -23841.80, 30317.66, 4607.05, 11225.00, 0.00, 0.00, 0.00, 0.00, 0.00, 0.00, 0.00
49, 10919.61, 45015.16, 1158.11, 20882.61, -2510.35, 340.51, 11774.50, -54964.57, -23841.80, 30317.66, 4607.05, 11225.00, 0.00, 0.00, 0.00, 0.00, 0.00, 0.00, 0.00
50, 10919.61, 45015.16, 1158.11, 20882.61, -2510.35, 340.51, 11774.50, -54964.57, -23842.85, 30331.43, 4625.60, 11219.95, 0.00, 0.00, 0.00, 0.00, 0.00, 0.00, 0.00
51, 10917.28, 45002.82, 1151.85, 20872.48, -2520.43, 330.83, 11761.67, -54976.39, -23842.85, 30331.43, 4625.60, 11219.95, 0.00, 0.00, 0.00, 0.00, 0.00, 0.00, 0.00
52, 10917.28, 45002.82, 1151.85, 20872.48, -2520.43, 330.83, 11761.67, -54976.39, -23839.50, 30315.94, 4610.43, 11215.43, 0.00, 0.00, 0.00, 0.00, 0.00, 0.00, 0.00
53, 10919.81, 45015.63, 1158.49, 20882.85, -2515.38, 337.56, 11772.75, -54965.31, -23839.50, 30315.94, 4610.43, 11215.43, 0.00, 0.00, 0.00, 0.00, -0.08, 0.34, 0.94
54, 10919.81, 45015.63, 1158.49, 20882.85, -2515.38, 337.56, 11772.75, -54965.31, -23839.01, 30335.74, 4627.19, 11266.98, 0.00, 0.00, 0.00, 0.00, 0.00, 0.00, 0.00
55, 10911.70, 45010.80, 1159.18, 20878.12, -2515.67, 333.89, 11766.07, -54969.60, -23839.01, 30335.74, 4627.19, 11266.98, 0.00, 0.00, 0.00, 0.00, 0.00, 0.00, 0.00
56, 10911.70, 45010.80, 1159.18, 20878.12, -2515.67, 333.89, 11766.07, -54969.60, -23836.37, 30315.13, 4616.73, 11204.71, 0.00, 0.00, 0.00, 0.00, 0.00, 0.00, 0.00
57, 10916.57, 45018.11, 1159.63, 20878.72, -2519.78, 334.18, 11767.46, -54968.70, -23836.37, 30315.13, 4616.73, 11204.71, 0.00, 0.00, 0.00, 0.00, 0.00, 0.00, 0.00
58, 10916.57, 45018.11, 1159.63, 20878.72, -2519.78, 334.18, 11767.46, -54968.70, -23846.05, 30328.32, 4628.93, 11222.12, 0.00, 0.00, 0.00, 0.00, 0.00, 0.00, 0.00
59, 10919.23, 45015.05, 1158.27, 20877.33, -2517.14, 333.51, 11765.82, -54973.38, -23846.05, 30328.32, 4628.93, 11222.12, 0.00, 0.00, 0.00, 0.00, 0.00, 0.00, 0.00
60, 10919.23, 45015.05, 1158.27, 20877.33, -2517.14, 333.51, 11765.82, -54973.38, -23838.94, 30312.09, 4616.06, 11213.38, 0.00, 0.00, 0.00, 0.00, 0.00, 0.00, 0.00
61, 10913.51, 45004.14, 1156.21, 20874.79, -2520.41, 330.11, 11765.76, -54971.81, -23838.94, 30312.09, 4616.06, 11213.38, 0.00, 0.00, 0.00, 0.00, 0.00, 0.00, 0.00
62, 10913.51, 45004.14, 1156.21, 20874.79, -2520.41, 330.11, 11765.76, -54971.81, -23843.14, 30330.56, 4623.82, 11227.53, 0.00, 0.00, 0.00, 0.00, 0.00, 0.00, 0.00
63, 10911.90, 45018.76, 1160.59, 20878.16, -2516.43, 332.84, 11765.76, -54972.46, -23843.14, 30330.56, 4623.82, 11227.53, 0.00, 0.00, 0.00, 0.00, -0.08, 0.34, 0.94
64, 10911.90, 45018.76, 1160.59, 20878.16, -2516.43, 332.84, 11765.76, -54972.46, -23842.36, 30305.37, 4610.11, 11203.43, 0.00, 0.00, 0.00, 0.00, 0.00, 0.00, 0.00
65, 10912.25, 44996.63, 1148.28, 20872.62, -2526.75, 327.14, 11760.26, -54978.70, -23842.36, 30305.37, 4610.11, 11203.43, 0.00, 0.00, 0.00, 0.00, 0.00, 0.00, 0.00
66, 10912.25, 44996.63, 1148.28, 20872.62, -2526.75, 327.14, 11760.26, -54978.70, -23849.58, 30329.04, 4615.30, 11210.29, 0.00, 0.00, 0.00, 0.00, 0.00, 0.00, 0.00
67, 10918.31, 45008.32, 1154.49, 20881.18, -2518.33, 336.59, 11772.19, -54965.46, -23849.58, 30329.04, 4615.30, 11210.29, 0.00, 0.00, 0.00, 0.00, 0.00, 0.00, 0.00
68, 10918.31, 45008.32, 1154.49, 20881.18, -2518.33, 336.59, 11772.19, -54965.46, -23843.03, 30313.05, 4607.41, 11240.87, 0.00, 0.00, 0.00, 0.00, 0.00, 0.00, 0.00
69, 10906.40, 45007.32, 1148.12, 20869.29, -2526.73, 326.69, 11758.09, -54976.26, -23843.03, 30313.05, 4607.41, 11240.87, 0.00, 0.00, 0.00, 0.00, 0.00, 0.00, 0.00
70, 10906.40, 45007.32, 1148.12, 20869.29, -2526.73, 326.69, 11758.09, -54976.26, -23838.67, 30334.58, 4621.87, 11213.51, 0.00, 0.00, 0.00, 0.00, 0.00, 0.00, 0.00
71, 10915.27, 45022.34, 1164.66, 20883.93, -2509.77, 340.93, 11777.78, -54956.75, -23838.67, 30334.58, 4621.87, 11213.51, 0.00, 0.00, 0.00, 0.00, 0.00, 0.00, 0.00
72, 10915.27, 45022.34, 1164.66, 20883.93, -2509.77, 340.93, 11777.78, -54956.75, -23840.59, 30320.30, 4612.98, 11209.60, 0.00, 0.00, 0.00, 0.00, -0.09, 0.34, 0.94
73, 10915.34, 45004.45, 1148.37, 20871.75, -2523.58, 328.53, 11760.66, -54975.05, -23840.59, 30320.30, 4612.98, 11209.60, 0.00, 0.00, 0.00, 0.00, 0.00, 0.00, 0.00
74, 10915.34, 45004.45, 1148.37, 20871.75, -2523.58, 328.53, 11760.66, -54975.05, -23839.97, 30332.88, 4619.73, 11251.15, 0.00, 0.00, 0.00, 0.00, 0.00, 0.00, 0.00
75, 10929.22, 45020.77, 1161.37, 20889.60, -2504.04, 343.28, 11782.79, -54954.22, -23839.97, 30332.88, 4619.73, 11251.15, 0.00, 0.00, 0.00, 0.00, 0.00, 0.00, 0.00
76, 10929.22, 45020.77, 1161.37, 20889.60, -2504.04, 343.28, 11782.79, -54954.22, -23835.10, 30326.38, 4615.46, 11241.38, 0.00, 0.00, 0.00, 0.00, 0.00, 0.00, 0.00
77, 10914.22, 45013.44, 1154.20, 20870.40, -2522.06, 327.18, 11760.77, -54972.48, -23835.10, 30326.38, 4615.46, 11241.38, 0.00, 0.00, 0.00, 0.00, 0.00, 0.00, 0.00
78, 10914.22, 45013.44, 1154.20, 20870.40, -2522.06, 327.18, 11760.77, -54972.48, -23841.93, 30325.21, 4622.65, 11212.24, 0.00, 0.00, 0.00, 0.00, 0.00, 0.00, 0.00
79, 10920.19, 45030.63, 1166.43, 20890.14, -2506.75, 341.91, 11778.61, -54956.90, -23841.93, 30325.21, 4622.65, 11212.24, 0.00, 0.00, 0.00, 0.00, 0.00, 0.00, 0.00
80, 10920.19, 45030.63, 1166.43, 20890.14, -2506.75, 341.91, 11778.61, -54956.90, -23837.71, 30325.21, 4619.50, 11232.29, 0.00, 0.00, 0.00, 0.00, 0.00, 0.00, 0.00
81, 10907.99, 44993.75, 1148.95, 20869.55, -2527.38, 326.85, 11759.21, -54973.93, -23837.71, 30325.21, 4619.50, 11232.29, 0.00, 0.00, 0.00, 0.00, 0.00, 0.00, 0.00
82, 10907.99, 44993.75, 1148.95, 20869.55, -2527.38, 326.85, 11759.21, -54973.93, -23843.61, 30323.22, 4611.30, 11229.40, 0.00, 0.00, 0.00, 0.00, -0.09, 0.34, 0.95
83, 10928.19, 45019.52, 1158.09, 20889.31, -2508.38, 341.51, 11779.26, -54956.28, -23843.61, 30323.22, 4611.30, 11229.40, 0.00, 0.00, 0.00, 0.00, 0.00, 0.00, 0.00
84, 10928.19, 45019.52, 1158.09, 20889.31, -2508.38, 341.51, 11779.26, -54956.28, -23840.41, 30327.90, 4611.84, 11222.43, 0.00, 0.00, 0.00, 0.00, 0.00, 0.00, 0.00
85, 10903.90, 45005.35, 1144.45, 20868.06, -2528.18, 325.49, 11755.27, -54975.48, -23840.41, 30327.90, 4611.84, 11222.43, 0.00, 0.00, 0.00, 0.00, 0.00, 0.00, 0.00
86, 10903.90, 45005.35, 1144.45, 20868.06, -2528.18, 325.49, 11755.27, -54975.48, -23843.21, 30324.07, 4604.37, 11217.94, 0.00, 0.00, 0.00, 0.00, 0.00, 0.00, 0.00
87, 10918.38, 45026.80, 1159.92, 20887.44, -2510.79, 341.18, 11777.36, -54956.50, -23843.21, 30324.07, 4604.37, 11217.94, 0.00, 0.00, 0.00, 0.00, 0.00, 0.00, 0.00
88, 10918.38, 45026.80, 1159.92, 20887.44, -2510.79, 341.18, 11777.36, -54956.50, -23839.39, 30325.04, 4618.29, 11251.62, 0.00, 0.00, 0.00, 0.00, 0.00, 0.00, 0.00
89, 10906.85, 44987.78, 1142.55, 20864.50, -2528.23, 324.90, 11757.29, -54973.78, -23839.39, 30325.04, 4618.29, 11251.62, 0.00, 0.00, 0.00, 0.00, 0.00, 0.00, 0.00
90, 10906.85, 44987.78, 1142.55, 20864.50, -2528.23, 324.90, 11757.29, -54973.78, -23839.59, 30321.30, 4605.40, 11218.63, 0.00, 0.00, 0.00, 0.00, 0.00, 0.00, 0.00
91, 10926.69, 45018.31, 1161.91, 20889.04, -2509.36, 341.09, 11780.08, -54952.43, -23839.59, 30321.30, 4605.40, 11218.63, 0.00, 0.00, 0.00, 0.00, 0.00, 0.00, 0.00
92, 10926.69, 45018.31, 1161.91, 20889.04, -2509.36, 341.09, 11780.08, -54952.43, -23841.69, 30330.85, 4617.40, 11196.82, 0.00, 0.00, 0.00, 0.00, -0.08, 0.34, 0.95
93, 10903.99, 45009.64, 1147.29, 20868.62, -2521.84, 327.39, 11760.28, -54970.34, -23841.69, 30330.85, 4617.40, 11196.82, 0.00, 0.00, 0.00, 0.00, 0.00, 0.00, 0.00
94, 10903.99, 45009.64, 1147.29, 20868.62, -2521.84, 327.39, 11760.28, -54970.34, -23838.11, 30319.74, 4608.64, 11250.97, 0.00, 0.00, 0.00, 0.00, 0.00, 0.00, 0.00
95, 10920.24, 45019.83, 1159.70, 20888.31, -2506.50, 345.04, 11784.31, -54949.23, -23838.11, 30319.74, 4608.64, 11250.97, 0.00, 0.00, 0.00, 0.00, 0.00, 0.00, 0.00
96, 10920.24, 45019.83, 1159.70, 20888.31, -2506.50, 345.04, 11784.31, -54949.23, -23837.38, 30338.85, 4619.75, 11240.78, 0.00, 0.00, 0.00, 0.00, 0.00, 0.00, 0.00
97, 10911.83, 45007.27, 1147.11, 20868.37, -2523.15, 327.92, 11764.57, -54966.52, -23837.38, 30338.85, 4619.75, 11240.78, 0.00, 0.00, 0.00, 0.00, 0.00, 0.00, 0.00
98, 10911.83, 45007.27, 1147.11, 20868.37, -2523.15, 327.92, 11764.57, -54966.52, -23836.44, 30320.25, 4600.48, 11185.91, 0.00, 0.00, 0.00, 0.00, 0.00, 0.00, 0.00
99, 10912.97, 45018.00, 1160.06, 20884.38, -2508.98, 338.36, 11779.23, -54951.72, -23836.44, 30320.25, 4600.48, 11185.91, 0.00, 0.00, 0.00, 0.00, 0.00, 0.00, 0.00
100, 10912.97, 45018.00, 1160.06, 20884.38, -2508.98, 338.36, 11779.23, -54951.72, -23829.28, 30340.48, 4625.85, 11246.17, 0.00, 0.00, 0.00, 0.00, 0.00, 0.00, 0.00
101, 10905.19, 45011.83, 1153.28, 20875.63, -2513.97, 332.59, 11768.73, -54962.07, -23829.28, 30340.48, 4625.85, 11246.17, 0.00, 0.00, 0.00, 0.00, 0.00, 0.00, 0.00
102, 10905.19, 45011.83, 1153.28, 20875.63, -2513.97, 332.59, 11768.73, -54962.07, -23830.45, 30322.31, 4610.90, 11246.79, 0.00, 0.00, 0.00, 0.00, -0.08, 0.34, 0.95
103, 10918.04, 45010.64, 1156.08, 20883.14, -2511.51, 338.29, 11778.32, -54952.99, -23830.45, 30322.31, 4610.90, 11246.79, 0.00, 0.00, 0.00, 0.00, 0.00, 0.00, 0.00
104, 10918.04, 45010.64, 1156.08, 20883.14, -2511.51, 338.29, 11778.32, -54952.99, -23835.47, 30342.02, 4620.42, 11218.90, 0.00, 0.00, 0.00, 0.00, 0.00, 0.00, 0.00
105, 10916.75, 45009.93, 1155.99, 20879.70, -2514.55, 334.02, 11772.28, -54958.69, -23835.47, 30342.02, 4620.42, 11218.90, 0.00, 0.00, 0.00, 0.00, 0.00, 0.00, 0.00
106, 10916.75, 45009.93, 1155.99, 20879.70, -2514.55, 334.02, 11772.28, -54958.69, -23837.58, 30316.34, 4605.35, 11213.27, 0.00, 0.00, 0.00, 0.00, 0.00, 0.00, 0.00
107, 10909.13, 45015.76, 1152.55, 20875.88, -2523.09, 330.74, 11770.25, -54963.03, -23837.58, 30316.34, 4605.35, 11213.27, 0.00, 0.00, 0.00, 0.00, 0.00, 0.00, 0.00
108, 10909.13, 45015.76, 1152.55, 20875.88, -2523.09, 330.74, 11770.25, -54963.03, -23841.73, 30331.63, 4618.38, 11259.74, 0.00, 0.00, 0.00, 0.00, 0.00, 0.00, 0.00
109, 10915.72, 45022.02, 1157.91, 20881.24, -2513.07, 335.14, 11772.64, -54958.00, -23841.73, 30331.63, 4618.38, 11259.74, 0.00, 0.00, 0.00, 0.00, 0.00, 0.00, 0.00
110, 10915.72, 45022.02, 1157.91, 20881.24, -2513.07, 335.14, 11772.64, -54958.00, -23831.61, 30319.38, 4614.23, 11219.23, 0.00, 0.00, 0.00, 0.00, 0.00, 0.00, 0.00
111, 10918.29, 45011.47, 1151.87, 20876.60, -2514.17, 332.88, 11772.93, -54957.24, -23831.61, 30319.38, 4614.23, 11219.23, 0.00, 0.00, 0.00, 0.00, -0.08, 0.34, 0.94
112, 10918.29, 45011.47, 1151.87, 20876.60, -2514.17, 332.88, 11772.93, -54957.24, -23829.64, 30346.18, 4628.26, 11214.58, 0.00, 0.00, 0.00, 0.00, 0.00, 0.00, 0.00
113, 10927.25, 45021.33, 1161.78, 20885.25, -2502.70, 339.32, 11780.40, -54946.62, -23829.64, 30346.18, 4628.26, 11214.58, 0.00, 0.00, 0.00, 0.00, 0.00, 0.00, 0.00
114, 10927.25, 45021.33, 1161.78, 20885.25, -2502.70, 339.32, 11780.40, -54946.62, -23831.68, 30316.43, 4616.02, 11256.81, 0.00, 0.00, 0.00, 0.00, 0.00, 0.00, 0.00
115, 10908.32, 45010.06, 1155.74, 20875.23, -2513.77, 332.19, 11771.55, -54955.58, -23831.68, 30316.43, 4616.02, 11256.81, 0.00, 0.00, 0.00, 0.00, 0.00, 0.00, 0.00
116, 10908.32, 45010.06, 1155.74, 20875.23, -2513.77, 332.19, 11771.55, -54955.58, -23830.09, 30339.79, 4625.96, 11225.98, 0.00, 0.00, 0.00, 0.00, 0.00, 0.00, 0.00
117, 10923.86, 45022.87, 1162.22, 20890.92, -2501.67, 344.84, 11785.67, -54942.29, -23830.09, 30339.79, 4625.96, 11225.98, 0.00, 0.00, 0.00, 0.00, 0.00, 0.00, 0.00
118, 10923.86, 45022.87, 1162.22, 20890.92, -2501.67, 344.84, 11785.67, -54942.29, -23820.10, 30329.71, 4619.75, 11235.53, 0.00, 0.00, 0.00, 0.00, 0.00, 0.00, 0.00
119, 10910.87, 45009.73, 1146.00, 20870.54, -2515.96, 330.85, 11771.34, -54956.10, -23820.10, 30329.71, 4619.75, 11235.53, 0.00, 0.00, 0.00, 0.00, 0.00, 0.00, 0.00
120, 10910.87, 45009.73, 1146.00, 20870.54, -2515.96, 330.85, 11771.34, -54956.10, -23831.99, 30337.98, 4615.12, 11233.27, 0.00, 0.00, 0.00, 0.00, 0.00, 0.00, 0.00
121, 10924.06, 45033.06, 1157.02, 20888.38, -2501.38, 342.16, 11786.63, -54941.39, -23831.99, 30337.98, 4615.12, 11233.27, 0.00, 0.00, 0.00, 0.00, -0.08, 0.34, 0.94
122, 10924.06, 45033.06, 1157.02, 20888.38, -2501.38, 342.16, 11786.63, -54941.39, -23829.62, 30327.85, 4609.49, 11235.42, 0.00, 0.00, 0.00, 0.00, 0.00, 0.00, 0.00
123, 10901.12, 45007.56, 1144.66, 20869.18, -2524.58, 324.73, 11764.10, -54962.98, -23829.62, 30327.85, 4609.49, 11235.42, 0.00, 0.00, 0.00, 0.00, 0.00, 0.00, 0.00
124, 10901.12, 45007.56, 1144.66, 20869.18, -2524.58, 324.73, 11764.10, -54962.98, -23837.89, 30327.52, 4610.14, 11234.77, 0.00, 0.00, 0.00, 0.00, 0.00, 0.00, 0.00
125, 10925.26, 45010.98, 1155.27, 20889.85, -2501.92, 342.25, 11785.81, -54942.31, -23837.89, 30327.52, 4610.14, 11234.77, 0.00, 0.00, 0.00, 0.00, 0.00, 0.00, 0.00
126, 10925.26, 45010.98, 1155.27, 20889.85, -2501.92, 342.25, 11785.81, -54942.31, -23831.72, 30326.78, 4610.56, 11239.15, 0.00, 0.00, 0.00, 0.00, 0.00, 0.00, 0.00
127, 10904.07, 44991.00, 1140.90, 20865.71, -2520.47, 323.34, 11762.96, -54961.17, -23831.72, 30326.78, 4610.56, 11239.15, 0.00, 0.00, 0.00, 0.00, 0.00, 0.00, 0.00
128, 10904.07, 44991.00, 1140.90, 20865.71, -2520.47, 323.34, 11762.96, -54961.17, -23839.07, 30325.46, 4604.08, 11226.48, 0.00, 0.00, 0.00, 0.00, 0.00, 0.00, 0.00
129, 10915.76, 45016.28, 1157.19, 20887.84, -2506.66, 340.13, 11784.13, -54944.16, -23839.07, 30325.46, 4604.08, 11226.48, 0.00, 0.00, 0.00, 0.00, 0.00, 0.00, 0.00
130, 10915.76, 45016.28, 1157.19, 20887.84, -2506.66, 340.13, 11784.13, -54944.16, -23831.72, 30331.49, 4610.58, 11232.15, 0.00, 0.00, 0.00, 0.00, 0.00, 0.00, 0.00
131, 10901.39, 45006.49, 1144.81, 20870.76, -2517.97, 328.59, 11767.28, -54956.97, -23831.72, 30331.49, 4610.58, 11232.15, 0.00, 0.00, 0.00, 0.00, -0.08, 0.34, 0.95
132, 10901.39, 45006.49, 1144.81, 20870.76, -2517.97, 328.59, 11767.28, -54956.97, -23827.54, 30339.21, 4610.61, 11242.41, 0.00, 0.00, 0.00, 0.00, 0.00, 0.00, 0.00
133, 10922.31, 45027.39, 1155.97, 20891.21, -2498.43, 346.21, 11791.37, -54935.49, -23827.54, 30339.21, 4610.61, 11242.41, 0.00, 0.00, 0.00, 0.00, 0.00, 0.00, 0.00
134, 10922.31, 45027.39, 1155.97, 20891.21, -2498.43, 346.21, 11791.37, -54935.49, -23829.33, 30341.55, 4612.46, 11252.54, 0.00, 0.00, 0.00, 0.00, 0.00, 0.00, 0.00
135, 10913.13, 45004.97, 1146.06, 20871.68, -2517.59, 327.27, 11766.41, -54957.77, -23829.33, 30341.55, 4612.46, 11252.54, 0.00, 0.00, 0.00, 0.00, 0.00, 0.00, 0.00
136, 10913.13, 45004.97, 1146.06, 20871.68, -2517.59, 327.27, 11766.41, -54957.77, -23832.72, 30327.45, 4607.32, 11256.45, 0.00, 0.00, 0.00, 0.00, 0.00, 0.00, 0.00
137, 10915.29, 45016.28, 1158.47, 20886.18, -2506.68, 339.99, 11784.53, -54941.75, -23832.72, 30327.45, 4607.32, 11256.45, 0.00, 0.00, 0.00, 0.00, 0.00, 0.00, 0.00
138, 10915.29, 45016.28, 1158.47, 20886.18, -2506.68, 339.99, 11784.53, -54941.75, -23838.36, 30329.17, 4606.29, 11243.64, 0.00, 0.00, 0.00, 0.00, 0.00, 0.00, 0.00
139, 10908.57, 44992.38, 1141.21, 20869.40, -2518.93, 326.31, 11765.18, -54957.84, -23838.36, 30329.17, 4606.29, 11243.64, 0.00, 0.00, 0.00, 0.00, 0.00, 0.00, 0.00
140, 10908.57, 44992.38, 1141.21, 20869.40, -2518.93, 326.31, 11765.18, -54957.84, -23832.41, 30326.91, 4601.80, 11222.16, 0.00, 0.00, 0.00, 0.00, 0.00, 0.00, 0.00
141, 10925.55, 45028.39, 1156.97, 20890.41, -2505.16, 341.58, 11788.29, -54934.48, -23832.41, 30326.91, 4601.80, 11222.16, 0.00, 0.00, 0.00, 0.00, -0.08, 0.34, 0.95
142, 10925.55, 45028.39, 1156.97, 20890.41, -2505.16, 341.58, 11788.29, -54934.48, -23831.27, 30340.41, 4612.17, 11235.86, 0.00, 0.00, 0.00, 0.00, 0.00, 0.00, 0.00
143, 10905.15, 45007.29, 1147.49, 20869.94, -2514.88, 327.36, 11767.52, -54953.66, -23831.27, 30340.41, 4612.17, 11235.86, 0.00, 0.00, 0.00, 0.00, 0.00, 0.00, 0.00
144, 10905.15, 45007.29, 1147.49, 20869.94, -2514.88, 327.36, 11767.52, -54953.66, -23836.95, 30315.47, 4598.94, 11229.00, 0.00, 0.00, 0.00, 0.00, 0.00, 0.00, 0.00
145, 10912.01, 45011.56, 1153.01, 20886.88, -2504.76, 337.56, 11781.89, -54941.68, -23836.95, 30315.47, 4598.94, 11229.00, 0.00, 0.00, 0.00, 0.00, 0.00, 0.00, 0.00
146, 10912.01, 45011.56, 1153.01, 20886.88, -2504.76, 337.56, 11781.89, -54941.68, -23839.54, 30336.50, 4607.79, 11232.38, 0.00, 0.00, 0.00, 0.00, 0.00, 0.00, 0.00
147, 10904.28, 45001.70, 1145.95, 20872.37, -2515.60, 328.10, 11770.34, -54950.13, -23839.54, 30336.50, 4607.79, 11232.38, 0.00, 0.00, 0.00, 0.00, 0.00, 0.00, 0.00
148, 10904.28, 45001.70, 1145.95, 20872.37, -2515.60, 328.10, 11770.34, -54950.13, -23833.98, 30324.74, 4595.29, 11208.97, 0.00, 0.00, 0.00, 0.00, 0.00, 0.00, 0.00
149, 10918.18, 45009.59, 1149.19, 20883.37, -2510.32, 335.05, 11778.90, -54941.84, -23833.98, 30324.74, 4595.29, 11208.97, 0.00, 0.00, 0.00, 0.00, 0.00, 0.00, 0.00
150, 10918.18, 45009.59, 1149.19, 20883.37, -2510.32, 335.05, 11778.90, -54941.84, -23841.15, 30331.25, 4605.44, 11231.86, 0.00, 0.00, 0.00, 0.00, 0.00, 0.00, 0.00
151, 10911.72, 45006.06, 1140.70, 20871.39, -2515.31, 327.21, 11767.68, -54953.39, -23841.15, 30331.25, 4605.44, 11231.86, 0.00, 0.00, 0.00, 0.00, -0.08, 0.34, 0.95
152, 10911.72, 45006.06, 1140.70, 20871.39, -2515.31, 327.21, 11767.68, -54953.39, -23835.43, 30318.29, 4593.02, 11252.67, 0.00, 0.00, 0.00, 0.00, 0.00, 0.00, 0.00
153, 10914.36, 45015.79, 1145.66, 20881.07, -2511.31, 333.02, 11775.88, -54945.05, -23835.43, 30318.29, 4593.02, 11252.67, 0.00, 0.00, 0.00, 0.00, 0.00, 0.00, 0.00
154, 10914.36, 45015.79, 1145.66, 20881.07, -2511.31, 333.02, 11775.88, -54945.05, -23836.35, 30342.27, 4612.55, 11240.16, 0.00, 0.00, 0.00, 0.00, 0.00, 0.00, 0.00
155, 10914.29, 45019.92, 1152.05, 20878.23, -2504.98, 334.36, 11778.01, -54939.98, -23836.35, 30342.27, 4612.55, 11240.16, 0.00, 0.00, 0.00, 0.00, 0.00, 0.00, 0.00
156, 10914.29, 45019.92, 1152.05, 20878.23, -2504.98, 334.36, 11778.01, -54939.98, -23826.76, 30326.20, 4603.52, 11235.19, 0.00, 0.00, 0.00, 0.00, 0.00, 0.00, 0.00
157, 10913.15, 45012.23, 1147.29, 20875.95, -2510.75, 331.68, 11777.16, -54941.93, -23826.76, 30326.20, 4603.52, 11235.19, 0.00, 0.00, 0.00, 0.00, 0.00, 0.00, 0.00
158, 10913.15, 45012.23, 1147.29, 20875.95, -2510.75, 331.68, 11777.16, -54941.93, -23827.72, 30343.61, 4618.38, 11263.40, 0.00, 0.00, 0.00, 0.00, 0.00, 0.00, 0.00
159, 10906.00, 45001.75, 1143.40, 20874.54, -2507.08, 330.43, 11775.46, -54943.54, -23827.72, 30343.61, 4618.38, 11263.40, 0.00, 0.00, 0.00, 0.00, 0.00, 0.00, 0.00
160, 10906.00, 45001.75, 1143.40, 20874.54, -2507.08, 330.43, 11775.46, -54943.54, -23828.72, 30321.59, 4596.37, 11247.62, 0.00, 0.00, 0.00, 0.00, -0.07, 0.34, 0.95
161, 10901.86, 45003.96, 1138.22, 20872.86, -2515.04, 328.64, 11772.35, -54946.09, -23828.72, 30321.59, 4596.37, 11247.62, 0.00, 0.00, 0.00, 0.00, 0.00, 0.00, 0.00
162, 10901.86, 45003.96, 1138.22, 20872.86, -2515.04, 328.64, 11772.35, -54946.09, -23831.43, 30344.24, 4605.08, 11224.00, 0.00, 0.00, 0.00, 0.00, 0.00, 0.00, 0.00
163, 10900.10, 45018.67, 1146.62, 20878.32, -2506.64, 334.90, 11780.84, -54938.20, -23831.43, 30344.24, 4605.08, 11224.00, 0.00, 0.00, 0.00, 0.00, 0.00, 0.00, 0.00
164, 10900.10, 45018.67, 1146.62, 20878.32, -2506.64, 334.90, 11780.84, -54938.20, -23830.24, 30325.73, 4591.16, 11245.48, 0.00, 0.00, 0.00, 0.00, 0.00, 0.00, 0.00
165, 10902.31, 44997.61, 1133.43, 20867.07, -2517.34, 326.42, 11770.79, -54947.27, -23830.24, 30325.73, 4591.16, 11245.48, 0.00, 0.00, 0.00, 0.00, 0.00, 0.00, 0.00
166, 10902.31, 44997.61, 1133.43, 20867.07, -2517.34, 326.42, 11770.79, -54947.27, -23826.56, 30345.13, 4605.35, 11273.12, 0.00, 0.00, 0.00, 0.00, 0.00, 0.00, 0.00
167, 10913.69, 45014.71, 1146.76, 20882.38, -2503.73, 336.24, 11780.91, -54937.03, -23826.56, 30345.13, 4605.35, 11273.12, 0.00, 0.00, 0.00, 0.00, 0.00, 0.00, 0.00
168, 10913.69, 45014.71, 1146.76, 20882.38, -2503.73, 336.24, 11780.91, -54937.03, -23826.62, 30328.43, 4593.04, 11227.30, 0.00, 0.00, 0.00, 0.00, 0.00, 0.00, 0.00
169, 10909.19, 45001.79, 1142.80, 20871.66, -2512.85, 326.51, 11771.75, -54945.59, -23826.62, 30328.43, 4593.04, 11227.30, 0.00, 0.00, 0.00, 0.00, 0.00, 0.00, 0.00
170, 10909.19, 45001.79, 1142.80, 20871.66, -2512.85, 326.51, 11771.75, -54945.59, -23825.30, 30341.20, 4603.83, 11242.19, 0.00, 0.00, 0.00, 0.00, -0.08, 0.34, 0.94
171, 10911.25, 45005.26, 1148.12, 20885.00, -2506.97, 337.15, 11784.84, -54936.45, -23825.30, 30341.20, 4603.83, 11242.19, 0.00, 0.00, 0.00, 0.00, 0.00, 0.00, 0.00
172, 10911.25, 45005.26, 1148.12, 20885.00, -2506.97, 337.15, 11784.84, -54936.45, -23830.85, 30328.57, 4592.99, 11250.62, 0.00, 0.00, 0.00, 0.00, 0.00, 0.00, 0.00
173, 10900.14, 44996.92, 1133.79, 20867.72, -2521.25, 324.32, 11765.98, -54951.27, -23830.85, 30328.57, 4592.99, 11250.62, 0.00, 0.00, 0.00, 0.00, 0.00, 0.00, 0.00
174, 10900.14, 44996.92, 1133.79, 20867.72, -2521.25, 324.32, 11765.98, -54951.27, -23835.83, 30340.14, 4594.92, 11259.47, 0.00, 0.00, 0.00, 0.00, 0.00, 0.00, 0.00
175, 10917.15, 45011.58, 1141.91, 20883.48, -2506.39, 335.99, 11780.98, -54937.34, -23835.83, 30340.14, 4594.92, 11259.47, 0.00, 0.00, 0.00, 0.00, 0.00, 0.00, 0.00
176, 10917.15, 45011.58, 1141.91, 20883.48, -2506.39, 335.99, 11780.98, -54937.34, -23836.68, 30331.70, 4596.44, 11208.10, 0.00, 0.00, 0.00, 0.00, 0.00, 0.00, 0.00
177, 10897.97, 44996.63, 1132.03, 20864.03, -2522.55, 319.90, 11760.97, -54955.02, -23836.68, 30331.70, 4596.44, 11208.10, 0.00, 0.00, 0.00, 0.00, 0.00, 0.00, 0.00
178, 10897.97, 44996.63, 1132.03, 20864.03, -2522.55, 319.90, 11760.97, -54955.02, -23832.35, 30332.66, 4595.61, 11260.61, 0.00, 0.00, 0.00, 0.00, 0.00, 0.00, 0.00
179, 10911.47, 45020.26, 1149.28, 20886.86, -2505.30, 338.63, 11786.07, -54933.90, -23832.35, 30332.66, 4595.61, 11260.61, 0.00, 0.00, 0.00, 0.00, 0.00, 0.00, 0.00
180, 10911.47, 45020.26, 1149.28, 20886.86, -2505.30, 338.63, 11786.07, -54933.90, -23826.49, 30340.50, 4601.51, 11283.88, 0.00, 0.00, 0.00, 0.00, -0.08, 0.34, 0.95
181, 10905.66, 45002.69, 1131.85, 20865.93, -2514.79, 324.84, 11768.55, -54945.35, -23826.49, 30340.50, 4601.51, 11283.88, 0.00, 0.00, 0.00, 0.00, 0.00, 0.00, 0.00
182, 10905.66, 45002.69, 1131.85, 20865.93, -2514.79, 324.84, 11768.55, -54945.35, -23821.88, 30343.21, 4600.15, 11241.94, 0.00, 0.00, 0.00, 0.00, 0.00, 0.00, 0.00
183, 10921.31, 45021.20, 1153.13, 20891.97, -2492.38, 343.52, 11793.67, -54921.30, -23821.88, 30343.21, 4600.15, 11241.94, 0.00, 0.00, 0.00, 0.00, 0.00, 0.00, 0.00
184, 10921.31, 45021.20, 1153.13, 20891.97, -2492.38, 343.52, 11793.67, -54921.30, -23819.76, 30349.46, 4623.59, 11253.72, 0.00, 0.00, 0.00, 0.00, 0.00, 0.00, 0.00
185, 10905.06, 44998.13, 1152.55, 20876.89, -2502.93, 331.57, 11775.88, -54941.10, -23819.76, 30349.46, 4623.59, 11253.72, 0.00, 0.00, 0.00, 0.00, 0.00, 0.00, 0.00
186, 10905.06, 44998.13, 1152.55, 20876.89, -2502.93, 331.57, 11775.88, -54941.10, -23828.32, 30329.44, 4591.32, 11248.87, 0.00, 0.00, 0.00, 0.00, 0.00, 0.00, 0.00
187, 10902.82, 45001.70, 1136.52, 20877.11, -2516.61, 330.36, 11776.24, -54939.82, -23828.32, 30329.44, 4591.32, 11248.87, 0.00, 0.00, 0.00, 0.00, 0.00, 0.00, 0.00
188, 10902.82, 45001.70, 1136.52, 20877.11, -2516.61, 330.36, 11776.24, -54939.82, -23828.84, 30341.38, 4608.82, 11251.00, 0.00, 0.00, 0.00, 0.00, 0.00, 0.00, 0.00
189, 10910.69, 45006.04, 1138.35, 20868.68, -2518.42, 322.16, 11767.14, -54946.22, -23828.84, 30341.38, 4608.82, 11251.00, 0.00, 0.00, 0.00, 0.00, 0.00, 0.00, 0.00
190, 10910.69, 45006.04, 1138.35, 20868.68, -2518.42, 322.16, 11767.14, -54946.22, -23816.74, 30344.64, 4608.44, 11260.56, 0.00, 0.00, 0.00, 0.00, -0.08, 0.33, 0.94
191, 10915.21, 45021.42, 1151.00, 20872.79, -2498.41, 334.70, 11787.95, -54927.04, -23816.74, 30344.64, 4608.44, 11260.56, 0.00, 0.00, 0.00, 0.00, 0.00, 0.00, 0.00
192, 10915.21, 45021.42, 1151.00, 20872.79, -2498.41, 334.70, 11787.95, -54927.04, -23833.78, 30344.46, 4600.93, 11267.33, 0.00, 0.00, 0.00, 0.00, 0.00, 0.00, 0.00
193, 10905.62, 44994.86, 1132.14, 20854.78, -2521.59, 318.87, 11763.25, -54951.02, -23833.78, 30344.46, 4600.93, 11267.33, 0.00, 0.00, 0.00, 0.00, 0.00, 0.00, 0.00
194, 10905.62, 44994.86, 1132.14, 20854.78, -2521.59, 318.87, 11763.25, -54951.02, -23836.17, 30322.24, 4592.66, 11224.78, 0.00, 0.00, 0.00, 0.00, 0.00, 0.00, 0.00
195, 10909.91, 45007.96, 1138.60, 20871.14, -2515.15, 326.34, 11775.30, -54942.33, -23836.17, 30322.24, 4592.66, 11224.78, 0.00, 0.00, 0.00, 0.00, 0.00, 0.00, 0.00
196, 10909.91, 45007.96, 1138.60, 20871.14, -2515.15, 326.34, 11775.30, -54942.33, -23839.83, 30336.61, 4611.70, 11240.04, 0.00, 0.00, 0.00, 0.00, 0.00, 0.00, 0.00
197, 10907.72, 45005.55, 1136.77, 20861.22, -2525.21, 318.33, 11763.25, -54952.43, -23839.83, 30336.61, 4611.70, 11240.04, 0.00, 0.00, 0.00, 0.00, 0.00, 0.00, 0.00
198, 10907.72, 45005.55, 1136.77, 20861.22, -2525.21, 318.33, 11763.25, -54952.43, -23830.29, 30324.37, 4601.13, 11231.68, 0.00, 0.00, 0.00, 0.00, 0.00, 0.00, 0.00
199, 10923.92, 45024.91, 1151.79, 20876.82, -2501.65, 330.67, 11784.67, -54932.34, -23830.29, 30324.37, 4601.13, 11231.68, 0.00, 0.00, 0.00, 0.00, -0.08, 0.34, 0.95
200, 10923.92, 45024.91, 1151.79, 20876.82, -2501.65, 330.67, 11784.67, -54932.34, -23821.44, 30351.01, 4628.87, 11273.59, 0.00, 0.00, 0.00, 0.00, 0.00, 0.00, 0.00
201, 10916.86, 45012.21, 1147.16, 20868.21, -2506.21, 326.78, 11774.12, -54936.90, -23821.44, 30351.01, 4628.87, 11273.59, 0.00, 0.00, 0.00, 0.00, 0.00, 0.00, 0.00
202, 10916.86, 45012.21, 1147.16, 20868.21, -2506.21, 326.78, 11774.12, -54936.90, -23823.72, 30331.23, 4608.08, 11257.99, 0.00, 0.00, 0.00, 0.00, 0.00, 0.00, 0.00
203, 10905.86, 45006.96, 1151.03, 20871.99, -2508.56, 327.81, 11776.35, -54936.32, -23823.72, 30331.23, 4608.08, 11257.99, 0.00, 0.00, 0.00, 0.00, 0.00, 0.00, 0.00
204, 10905.86, 45006.96, 1151.03, 20871.99, -2508.56, 327.81, 11776.35, -54936.32, -23828.84, 30346.02, 4624.37, 11220.84, 0.00, 0.00, 0.00, 0.00, 0.00, 0.00, 0.00
205, 10911.05, 45009.10, 1151.11, 20871.03, -2511.31, 326.63, 11775.57, -54937.68, -23828.84, 30346.02, 4624.37, 11220.84, 0.00, 0.00, 0.00, 0.00, 0.00, 0.00, 0.00
206, 10911.05, 45009.10, 1151.11, 20871.03, -2511.31, 326.63, 11775.57, -54937.68, -23822.55, 30326.85, 4610.56, 11285.87, 0.00, 0.00, 0.00, 0.00, 0.00, 0.00, 0.00
207, 10920.10, 45013.42, 1146.60, 20873.98, -2509.45, 326.54, 11774.76, -54939.40, -23822.55, 30326.85, 4610.56, 11285.87, 0.00, 0.00, 0.00, 0.00, 0.00, 0.00, 0.00
208, 10920.10, 45013.42, 1146.60, 20873.98, -2509.45, 326.54, 11774.76, -54939.40, -23833.64, 30341.89, 4616.95, 11254.08, 0.00, 0.00, 0.00, 0.00, 0.00, 0.00, 0.00
209, 10919.92, 45021.57, 1150.27, 20877.58, -2506.79, 329.71, 11775.66, -54939.49, -23833.64, 30341.89, 4616.95, 11254.08, 0.00, 0.00, 0.00, 0.00, -0.08, 0.34, 0.95
210, 10919.92, 45021.57, 1150.27, 20877.58, -2506.79, 329.71, 11775.66, -54939.49, -23830.20, 30325.95, 4603.79, 11213.96, 0.00, 0.00, 0.00, 0.00, 0.00, 0.00, 0.00
211, 10908.17, 45012.32, 1147.29, 20871.03, -2513.03, 325.06, 11772.91, -54942.26, -23830.20, 30325.95, 4603.79, 11213.96, 0.00, 0.00, 0.00, 0.00, 0.00, 0.00, 0.00
212, 10908.17, 45012.32, 1147.29, 20871.03, -2513.03, 325.06, 11772.91, -54942.26, -23829.91, 30346.20, 4620.44, 11285.57, 0.00, 0.00, 0.00, 0.00, 0.00, 0.00, 0.00
213, 10925.89, 45016.93, 1146.11, 20879.19, -2505.47, 330.72, 11779.86, -54934.11, -23829.91, 30346.20, 4620.44, 11285.57, 0.00, 0.00, 0.00, 0.00, 0.00, 0.00, 0.00
214, 10925.89, 45016.93, 1146.11, 20879.19, -2505.47, 330.72, 11779.86, -54934.11, -23827.56, 30323.74, 4609.40, 11270.11, 0.00, 0.00, 0.00, 0.00, 0.00, 0.00, 0.00
215, 10910.60, 45003.65, 1141.70, 20868.84, -2516.92, 323.81, 11770.23, -54941.35, -23827.56, 30323.74, 4609.40, 11270.11, 0.00, 0.00, 0.00, 0.00, 0.00, 0.00, 0.00
216, 10910.60, 45003.65, 1141.70, 20868.84, -2516.92, 323.81, 11770.23, -54941.35, -23821.77, 30348.62, 4619.17, 11245.59, 0.00, 0.00, 0.00, 0.00, 0.00, 0.00, 0.00
217, 10912.50, 45020.73, 1151.94, 20882.77, -2499.57, 333.73, 11785.27, -54928.05, -23821.77, 30348.62, 4619.17, 11245.59, 0.00, 0.00, 0.00, 0.00, 0.00, 0.00, 0.00
218, 10912.50, 45020.73, 1151.94, 20882.77, -2499.57, 333.73, 11785.27, -54928.05, -23818.42, 30331.05, 4611.32, 11242.75, 0.00, 0.00, 0.00, 0.00, 0.00, 0.00, 0.00
219, 10898.06, 44996.88, 1146.87, 20871.23, -2513.05, 322.71, 11771.61, -54943.76, -23818.42, 30331.05, 4611.32, 11242.75, 0.00, 0.00, 0.00, 0.00, -0.08, 0.34, 0.95
220, 10898.06, 44996.88, 1146.87, 20871.23, -2513.05, 322.71, 11771.61, -54943.76, -23827.83, 30339.32, 4613.00, 11264.43, 0.00, 0.00, 0.00, 0.00, 0.00, 0.00, 0.00
221, 10925.93, 45011.32, 1147.54, 20881.18, -2500.29, 332.95, 11784.55, -54928.61, -23827.83, 30339.32, 4613.00, 11264.43, 0.00, 0.00, 0.00, 0.00, 0.00, 0.00, 0.00
222, 10925.93, 45011.32, 1147.54, 20881.18, -2500.29, 332.95, 11784.55, -54928.61, -23823.70, 30334.63, 4612.19, 11260.09, 0.00, 0.00, 0.00, 0.00, 0.00, 0.00, 0.00
223, 10912.52, 44998.73, 1138.51, 20864.64, -2516.31, 319.14, 11766.70, -54946.29, -23823.70, 30334.63, 4612.19, 11260.09, 0.00, 0.00, 0.00, 0.00, 0.00, 0.00, 0.00
224, 10912.52, 44998.73, 1138.51, 20864.64, -2516.31, 319.14, 11766.70, -54946.29, -23826.09, 30338.87, 4615.12, 11242.19, 0.00, 0.00, 0.00, 0.00, 0.00, 0.00, 0.00
225, 10914.83, 45020.93, 1156.17, 20883.48, -2502.70, 334.09, 11786.66, -54925.16, -23826.09, 30338.87, 4615.12, 11242.19, 0.00, 0.00, 0.00, 0.00, 0.00, 0.00, 0.00
226, 10914.83, 45020.93, 1156.17, 20883.48, -2502.70, 334.09, 11786.66, -54925.16, -23824.84, 30336.66, 4607.21, 11263.42, 0.00, 0.00, 0.00, 0.00, 0.00, 0.00, 0.00
227, 10890.37, 44992.47, 1131.02, 20858.65, -2525.17, 314.18, 11759.32, -54948.75, -23824.84, 30336.66, 4607.21, 11263.42, 0.00, 0.00, 0.00, 0.00, 0.00, 0.00, 0.00
228, 10890.37, 44992.47, 1131.02, 20858.65, -2525.17, 314.18, 11759.32, -54948.75, -23828.39, 30333.08, 4599.54, 11245.05, 0.00, 0.00, 0.00, 0.00, 0.00, 0.00, 0.00
229, 10925.76, 45022.29, 1151.81, 20885.60, -2504.76, 334.49, 11784.98, -54928.47, -23828.39, 30333.08, 4599.54, 11245.05, 0.00, 0.00, 0.00, 0.00, -0.08, 0.34, 0.95
230, 10925.76, 45022.29, 1151.81, 20885.60, -2504.76, 334.49, 11784.98, -54928.47, -23822.49, 30340.48, 4615.37, 11227.50, 0.00, 0.00, 0.00, 0.00, 0.00, 0.00, 0.00
231, 10909.08, 44997.39, 1144.34, 20865.11, -2517.63, 319.32, 11766.58, -54941.77, -23822.49, 30340.48, 4615.37, 11227.50, 0.00, 0.00, 0.00, 0.00, 0.00, 0.00, 0.00
232, 10909.08, 44997.39, 1144.34, 20865.11, -2517.63, 319.32, 11766.58, -54941.77, -23819.36, 30341.46, 4616.15, 11304.19, 0.00, 0.00, 0.00, 0.00, 0.00, 0.00, 0.00
233, 10920.66, 45023.09, 1161.84, 20887.97, -2497.09, 336.39, 11787.93, -54920.78, -23819.36, 30341.46, 4616.15, 11304.19, 0.00, 0.00, 0.00, 0.00, 0.00, 0.00, 0.00
234, 10920.66, 45023.09, 1161.84, 20887.97, -2497.09, 336.39, 11787.93, -54920.78, -23820.34, 30346.13, 4620.95, 11277.66, 0.00, 0.00, 0.00, 0.00, 0.00, 0.00, 0.00
235, 10911.41, 45006.64, 1147.29, 20867.39, -2513.21, 320.81, 11767.39, -54940.72, -23820.34, 30346.13, 4620.95, 11277.66, 0.00, 0.00, 0.00, 0.00, 0.00, 0.00, 0.00
236, 10911.41, 45006.64, 1147.29, 20867.39, -2513.21, 320.81, 11767.39, -54940.72, -23819.96, 30332.86, 4611.23, 11254.04, 0.00, 0.00, 0.00, 0.00, 0.00, 0.00, 0.00
237, 10928.21, 45031.45, 1157.64, 20888.29, -2506.44, 335.97, 11787.44, -54922.91, -23819.96, 30332.86, 4611.23, 11254.04, 0.00, 0.00, 0.00, 0.00, 0.00, 0.00, 0.00
238, 10928.21, 45031.45, 1157.64, 20888.29, -2506.44, 335.97, 11787.44, -54922.91, -23823.05, 30345.64, 4617.58, 11213.09, 0.00, 0.00, 0.00, 0.00, -0.08, 0.35, 0.95
239, 10913.28, 45003.38, 1143.83, 20864.32, -2518.30, 317.17, 11764.80, -54940.32, -23823.05, 30345.64, 4617.58, 11213.09, 0.00, 0.00, 0.00, 0.00, 0.00, 0.00, 0.00
240, 10913.28, 45003.38, 1143.83, 20864.32, -2518.30, 317.17, 11764.80, -54940.32, -23817.35, 30327.34, 4609.29, 11268.92, 0.00, 0.00, 0.00, 0.00, 0.00, 0.00, 0.00
241, 10926.45, 45020.41, 1158.27, 20885.04, -2501.83, 335.23, 11788.62, -54919.80, -23817.35, 30327.34, 4609.29, 11268.92, 0.00, 0.00, 0.00, 0.00, 0.00, 0.00, 0.00
242, 10926.45, 45020.41, 1158.27, 20885.04, -2501.83, 335.23, 11788.62, -54919.80, -23817.73, 30348.48, 4622.81, 11276.07, 0.00, 0.00, 0.00, 0.00, 0.00, 0.00, 0.00
243, 10922.40, 45013.17, 1144.79, 20871.79, -2518.51, 322.11, 11768.55, -54938.24, -23817.73, 30348.48, 4622.81, 11276.07, 0.00, 0.00, 0.00, 0.00, 0.00, 0.00, 0.00
244, 10922.40, 45013.17, 1144.79, 20871.79, -2518.51, 322.11, 11768.55, -54938.24, -23820.30, 30328.90, 4603.34, 11229.27, 0.00, 0.00, 0.00, 0.00, 0.00, 0.00, 0.00
245, 10918.96, 45018.31, 1153.08, 20880.46, -2506.86, 329.08, 11784.11, -54924.20, -23820.30, 30328.90, 4603.34, 11229.27, 0.00, 0.00, 0.00, 0.00, 0.00, 0.00, 0.00
246, 10918.96, 45018.31, 1153.08, 20880.46, -2506.86, 329.08, 11784.11, -54924.20, -23820.43, 30350.76, 4620.11, 11274.26, 0.00, 0.00, 0.00, 0.00, 0.00, 0.00, 0.00
247, 10909.68, 45005.01, 1144.52, 20872.57, -2515.87, 324.88, 11773.45, -54932.56, -23820.43, 30350.76, 4620.11, 11274.26, 0.00, 0.00, 0.00, 0.00, 0.00, 0.00, 0.00
248, 10909.68, 45005.01, 1144.52, 20872.57, -2515.87, 324.88, 11773.45, -54932.56, -23813.08, 30333.17, 4607.19, 11266.64, 0.00, 0.00, 0.00, 0.00, -0.08, 0.34, 0.95
249, 10918.22, 45009.04, 1152.81, 20883.35, -2505.47, 331.83, 11785.69, -54919.96, -23813.08, 30333.17, 4607.19, 11266.64, 0.00, 0.00, 0.00, 0.00, 0.00, 0.00, 0.00
250, 10918.22, 45009.04, 1152.81, 20883.35, -2505.47, 331.83, 11785.69, -54919.96, -23813.77, 30357.06, 4622.52, 11242.95, 0.00, 0.00, 0.00, 0.00, 0.00, 0.00, 0.00
251, 10914.49, 45014.89, 1147.94, 20874.52, -2507.13, 326.25, 11780.00, -54925.14, -23813.77, 30357.06, 4622.52, 11242.95, 0.00, 0.00, 0.00, 0.00, 0.00, 0.00, 0.00
252, 10914.49, 45014.89, 1147.94, 20874.52, -2507.13, 326.25, 11780.00, -54925.14, -23811.40, 30337.69, 4609.82, 11252.00, 0.00, 0.00, 0.00, 0.00, 0.00, 0.00, 0.00
253, 10908.14, 45014.51, 1154.91, 20879.30, -2512.49, 329.29, 11782.88, -54923.73, -23811.40, 30337.69, 4609.82, 11252.00, 0.00, 0.00, 0.00, 0.00, 0.00, 0.00, 0.00
254, 10908.14, 45014.51, 1154.91, 20879.30, -2512.49, 329.29, 11782.88, -54923.73, -23815.25, 30356.04, 4628.17, 11289.78, 0.00, 0.00, 0.00, 0.00, 0.00, 0.00, 0.00
255, 10933.29, 45019.38, 1152.66, 20879.86, -2506.06, 330.34, 11783.24, -54921.09, -23815.25, 30356.04, 4628.17, 11289.78, 0.00, 0.00, 0.00, 0.00, 0.00, 0.00, 0.00
0, 10933.29, 45019.38, 1152.66, 20879.86, -2506.06, 330.34, 11783.24, -54921.09, -23806.44, 30341.20, 4615.79, 11274.33, 0.00, 0.00, 0.00, 0.00, 0.00, 0.00, 0.00
1, 10919.65, 45018.98, 1151.63, 20876.62, -2514.30, 326.54, 11779.37, -54923.53, -23806.44, 30341.20, 4615.79, 11274.33, 0.00, 0.00, 0.00, 0.00, 0.00, 0.00, 0.00
2, 10919.65, 45018.98, 1151.63, 20876.62, -2514.30, 326.54, 11779.37, -54923.53, -23817.77, 30355.34, 4623.17, 11222.45, 0.00, 0.00, 0.00, 0.00, -0.08, 0.34, 0.95
3, 10926.83, 45028.23, 1154.04, 20881.80, -2514.01, 331.14, 11781.00, -54923.64, -23817.77, 30355.34, 4623.17, 11222.45, 0.00, 0.00, 0.00, 0.00, 0.00, 0.00, 0.00
4, 10926.83, 45028.23, 1154.04, 20881.80, -2514.01, 331.14, 11781.00, -54923.64, -23814.64, 30330.29, 4608.53, 11269.93, 0.00, 0.00, 0.00, 0.00, 0.00, 0.00, 0.00
5, 10914.74, 45015.63, 1147.76, 20870.09, -2518.73, 321.15, 11770.47, -54930.64, -23814.64, 30330.29, 4608.53, 11269.93, 0.00, 0.00, 0.00, 0.00, 0.00, 0.00, 0.00
6, 10914.74, 45015.63, 1147.76, 20870.09, -2518.73, 321.15, 11770.47, -54930.64, -23819.34, 30349.49, 4621.20, 11282.38, 0.00, 0.00, 0.00, 0.00, 0.00, 0.00, 0.00
7, 10927.86, 45021.06, 1149.71, 20879.39, -2514.39, 327.05, 11779.53, -54923.62, -23819.34, 30349.49, 4621.20, 11282.38, 0.00, 0.00, 0.00, 0.00, 0.00, 0.00, 0.00
8, 10927.86, 45021.06, 1149.71, 20879.39, -2514.39, 327.05, 11779.53, -54923.62, -23816.12, 30330.24, 4607.63, 11261.41, 0.00, 0.00, 0.00, 0.00, 0.00, 0.00, 0.00
9, 10910.53, 44993.99, 1133.77, 20861.69, -2529.95, 314.13, 11762.83, -54937.39, -23816.12, 30330.24, 4607.63, 11261.41, 0.00, 0.00, 0.00, 0.00, 0.00, 0.00, 0.00
10, 10910.53, 44993.99, 1133.77, 20861.69, -2529.95, 314.13, 11762.83, -54937.39, -23822.69, 30341.08, 4610.40, 11263.60, 0.00, 0.00, 0.00, 0.00, 0.00, 0.00, 0.00
11, 10919.32, 45013.68, 1141.62, 20874.52, -2520.99, 324.70, 11775.10, -54924.76, -23822.69, 30341.08, 4610.40, 11263.60, 0.00, 0.00, 0.00, 0.00, 0.00, 0.00, 0.00
12, 10919.32, 45013.68, 1141.62, 20874.52, -2520.99, 324.70, 11775.10, -54924.76, -23818.69, 30328.01, 4602.81, 11253.08, 0.00, 0.00, 0.00, 0.00, -0.09, 0.34, 0.95
13, 10905.95, 45009.62, 1132.36, 20858.18, -2532.34, 311.14, 11758.87, -54937.68, -23818.69, 30328.01, 4602.81, 11253.08, 0.00, 0.00, 0.00, 0.00, 0.00, 0.00, 0.00
14, 10905.95, 45009.62, 1132.36, 20858.18, -2532.34, 311.14, 11758.87, -54937.68, -23822.69, 30342.54, 4612.22, 11248.72, 0.00, 0.00, 0.00, 0.00, 0.00, 0.00, 0.00
15, 10914.56, 45004.92, 1147.16, 20877.31, -2521.17, 327.99, 11780.08, -54916.98, -23822.69, 30342.54, 4612.22, 11248.72, 0.00, 0.00, 0.00, 0.00, 0.00, 0.00, 0.00
16, 10914.56, 45004.92, 1147.16, 20877.31, -2521.17, 327.99, 11780.08, -54916.98, -23816.21, 30339.36, 4604.33, 11266.75, 0.00, 0.00, 0.00, 0.00, 0.00, 0.00, 0.00
17, 10908.59, 44996.41, 1134.98, 20862.96, -2531.92, 314.76, 11761.35, -54936.88, -23816.21, 30339.36, 4604.33, 11266.75, 0.00, 0.00, 0.00, 0.00, 0.00, 0.00, 0.00
18, 10908.59, 44996.41, 1134.98, 20862.96, -2531.92, 314.76, 11761.35, -54936.88, -23816.30, 30338.45, 4606.69, 11254.93, 0.00, 0.00, 0.00, 0.00, 0.00, 0.00, 0.00
19, 10922.36, 45032.71, 1151.07, 20884.62, -2512.96, 331.50, 11783.73, -54917.68, -23816.30, 30338.45, 4606.69, 11254.93, 0.00, 0.00, 0.00, 0.00, 0.00, 0.00, 0.00
20, 10922.36, 45032.71, 1151.07, 20884.62, -2512.96, 331.50, 11783.73, -54917.68, -23809.57, 30343.21, 4613.69, 11260.21, 0.00, 0.00, 0.00, 0.00, 0.00, 0.00, 0.00
21, 10912.19, 45004.70, 1137.61, 20862.22, -2526.84, 316.28, 11764.57, -54929.48, -23809.57, 30343.21, 4613.69, 11260.21, 0.00, 0.00, 0.00, 0.00, -0.09, 0.34, 0.95
22, 10912.19, 45004.70, 1137.61, 20862.22, -2526.84, 316.28, 11764.57, -54929.48, -23807.09, 30349.55, 4614.43, 11259.76, 0.00, 0.00, 0.00, 0.00, 0.00, 0.00, 0.00
23, 10920.64, 45009.30, 1150.58, 20884.38, -2512.29, 332.33, 11785.94, -54911.17, -23807.09, 30349.55, 4614.43, 11259.76, 0.00, 0.00, 0.00, 0.00, 0.00, 0.00, 0.00
24, 10920.64, 45009.30, 1150.58, 20884.38, -2512.29, 332.33, 11785.94, -54911.17, -23805.99, 30350.65, 4617.83, 11270.89, 0.00, 0.00, 0.00, 0.00, 0.00, 0.00, 0.00
25, 10910.33, 44992.76, 1137.39, 20861.93, -2532.07, 313.73, 11764.30, -54933.68, -23805.99, 30350.65, 4617.83, 11270.89, 0.00, 0.00, 0.00, 0.00, 0.00, 0.00, 0.00
26, 10910.33, 44992.76, 1137.39, 20861.93, -2532.07, 313.73, 11764.30, -54933.68, -23812.07, 30337.11, 4606.83, 11288.59, 0.00, 0.00, 0.00, 0.00, 0.00, 0.00, 0.00
27, 10925.11, 45024.95, 1154.49, 20885.78, -2512.13, 333.58, 11787.13, -54912.56, -23812.07, 30337.11, 4606.83, 11288.59, 0.00, 0.00, 0.00, 0.00, 0.00, 0.00, 0.00
28, 10925.11, 45024.95, 1154.49, 20885.78, -2512.13, 333.58, 11787.13, -54912.56, -23806.78, 30352.44, 4621.25, 11256.81, 0.00, 0.00, 0.00, 0.00, 0.00, 0.00, 0.00
29, 10918.92, 45019.96, 1148.07, 20873.00, -2523.76, 323.85, 11775.10, -54921.03, -23806.78, 30352.44, 4621.25, 11256.81, 0.00, 0.00, 0.00, 0.00, 0.00, 0.00, 0.00
30, 10918.92, 45019.96, 1148.07, 20873.00, -2523.76, 323.85, 11775.10, -54921.03, -23799.64, 30352.26, 4619.03, 11235.44, 0.00, 0.00, 0.00, 0.00, 0.00, 0.00, 0.00
31, 10941.13, 45034.81, 1160.06, 20888.84, -2508.54, 337.22, 11790.86, -54903.41, -23799.64, 30352.26, 4619.03, 11235.44, 0.00, 0.00, 0.00, 0.00, -0.08, 0.34, 0.94
32, 10941.13, 45034.81, 1160.06, 20888.84, -2508.54, 337.22, 11790.86, -54903.41, -23806.28, 30360.33, 4629.43, 11298.05, 0.00, 0.00, 0.00, 0.00, 0.00, 0.00, 0.00
33, 10927.79, 45019.81, 1146.29, 20869.85, -2529.01, 319.18, 11768.89, -54925.72, -23806.28, 30360.33, 4629.43, 11298.05, 0.00, 0.00, 0.00, 0.00, 0.00, 0.00, 0.00
34, 10927.79, 45019.81, 1146.29, 20869.85, -2529.01, 319.18, 11768.89, -54925.72, -23814.49, 30339.03, 4611.01, 11289.51, 0.00, 0.00, 0.00, 0.00, 0.00, 0.00, 0.00
35, 10932.39, 45025.75, 1159.07, 20884.91, -2518.93, 331.34, 11781.69, -54913.92, -23814.49, 30339.03, 4611.01, 11289.51, 0.00, 0.00, 0.00, 0.00, 0.00, 0.00, 0.00
36, 10932.39, 45025.75, 1159.07, 20884.91, -2518.93, 331.34, 11781.69, -54913.92, -23814.13, 30349.00, 4630.99, 11271.38, 0.00, 0.00, 0.00, 0.00, 0.00, 0.00, 0.00
37, 10927.39, 45029.11, 1155.81, 20873.62, -2526.73, 320.12, 11767.08, -54930.57, -23814.13, 30349.00, 4630.99, 11271.38, 0.00, 0.00, 0.00, 0.00, 0.00, 0.00, 0.00
38, 10927.39, 45029.11, 1155.81, 20873.62, -2526.73, 320.12, 11767.08, -54930.57, -23810.35, 30334.22, 4613.49, 11248.69, 0.00, 0.00, 0.00, 0.00, 0.00, 0.00, 0.00
39, 10934.05, 45032.28, 1160.41, 20886.99, -2519.62, 331.03, 11783.06, -54914.34, -23810.35, 30334.22, 4613.49, 11248.69, 0.00, 0.00, 0.00, 0.00, 0.00, 0.00, 0.00
40, 10934.05, 45032.28, 1160.41, 20886.99, -2519.62, 331.03, 11783.06, -54914.34, -23808.27, 30360.89, 4628.04, 11279.11, 0.00, 0.00, 0.00, 0.00, 0.00, 0.00, 0.00
41, 10930.58, 45031.41, 1158.07, 20879.93, -2521.32, 324.70, 11775.55, -54921.03, -23808.27, 30360.89, 4628.04, 11279.11, 0.00, 0.00, 0.00, 0.00, -0.08, 0.34, 0.94
42, 10930.58, 45031.41, 1158.07, 20879.93, -2521.32, 324.70, 11775.55, -54921.03, -23808.12, 30337.44, 4611.46, 11263.11, 0.00, 0.00, 0.00, 0.00, 0.00, 0.00, 0.00
43, 10931.30, 45021.78, 1158.20, 20887.32, -2518.77, 331.70, 11780.53, -54915.66, -23808.12, 30337.44, 4611.46, 11263.11, 0.00, 0.00, 0.00, 0.00, 0.00, 0.00, 0.00
44, 10931.30, 45021.78, 1158.20, 20887.32, -2518.77, 331.70, 11780.53, -54915.66, -23808.59, 30357.91, 4630.25, 11269.06, 0.00, 0.00, 0.00, 0.00, 0.00, 0.00, 0.00
45, 10927.39, 45029.96, 1155.92, 20877.69, -2524.74, 325.96, 11775.43, -54920.07, -23808.59, 30357.91, 4630.25, 11269.06, 0.00, 0.00, 0.00, 0.00, 0.00, 0.00, 0.00
46, 10927.39, 45029.96, 1155.92, 20877.69, -2524.74, 325.96, 11775.43, -54920.07, -23807.29, 30336.10, 4615.86, 11282.45, 0.00, 0.00, 0.00, 0.00, 0.00, 0.00, 0.00
47, 10927.86, 45017.86, 1152.59, 20879.17, -2523.80, 325.89, 11776.31, -54917.54, -23807.29, 30336.10, 4615.86, 11282.45, 0.00, 0.00, 0.00, 0.00, 0.00, 0.00, 0.00
48, 10927.86, 45017.86, 1152.59, 20879.17, -2523.80, 325.89, 11776.31, -54917.54, -23807.07, 30359.30, 4630.79, 11264.52, 0.00, 0.00, 0.00, 0.00, 0.00, 0.00, 0.00
49, 10929.80, 45022.76, 1153.98, 20879.35, -2519.76, 327.72, 11779.77, -54914.70, -23807.07, 30359.30, 4630.79, 11264.52, 0.00, 0.00, 0.00, 0.00, 0.00, 0.00, 0.00
50, 10929.80, 45022.76, 1153.98, 20879.35, -2519.76, 327.72, 11779.77, -54914.70, -23801.66, 30336.59, 4618.94, 11264.29, 0.00, 0.00, 0.00, 0.00, 0.00, 0.00, 0.00
51, 10917.20, 45021.98, 1151.43, 20875.10, -2526.51, 322.25, 11771.25, -54923.06, -23801.66, 30336.59, 4618.94, 11264.29, 0.00, 0.00, 0.00, 0.00, -0.08, 0.34, 0.95
52, 10917.20, 45021.98, 1151.43, 20875.10, -2526.51, 322.25, 11771.25, -54923.06, -23807.78, 30354.07, 4631.39, 11256.54, 0.00, 0.00, 0.00, 0.00, 0.00, 0.00, 0.00
53, 10935.86, 45041.36, 1163.50, 20886.59, -2514.30, 331.01, 11783.50, -54911.26, -23807.78, 30354.07, 4631.39, 11256.54, 0.00, 0.00, 0.00, 0.00, 0.00, 0.00, 0.00
54, 10935.86, 45041.36, 1163.50, 20886.59, -2514.30, 331.01, 11783.50, -54911.26, -23797.37, 30341.49, 4632.06, 11289.15, 0.00, 0.00, 0.00, 0.00, 0.00, 0.00, 0.00
55, 10934.96, 45034.36, 1158.33, 20879.14, -2519.49, 326.00, 11777.80, -54914.61, -23797.37, 30341.49, 4632.06, 11289.15, 0.00, 0.00, 0.00, 0.00, 0.00, 0.00, 0.00
56, 10934.96, 45034.36, 1158.33, 20879.14, -2519.49, 326.00, 11777.80, -54914.61, -23796.16, 30367.57, 4646.82, 11297.78, 0.00, 0.00, 0.00, 0.00, 0.00, 0.00, 0.00
57, 10951.73, 45053.74, 1178.27, 20897.40, -2505.38, 339.79, 11794.90, -54900.49, -23796.16, 30367.57, 4646.82, 11297.78, 0.00, 0.00, 0.00, 0.00, 0.00, 0.00, 0.00
58, 10951.73, 45053.74, 1178.27, 20897.40, -2505.38, 339.79, 11794.90, -54900.49, -23790.88, 30357.29, 4642.55, 11266.15, 0.00, 0.00, 0.00, 0.00, 0.00, 0.00, 0.00
59, 10939.01, 45034.79, 1173.29, 20885.11, -2514.21, 328.59, 11781.00, -54913.83, -23790.88, 30357.29, 4642.55, 11266.15, 0.00, 0.00, 0.00, 0.00, 0.00, 0.00, 0.00
60, 10939.01, 45034.79, 1173.29, 20885.11, -2514.21, 328.59, 11781.00, -54913.83, -23799.47, 30362.52, 4651.02, 11264.61, 0.00, 0.00, 0.00, 0.00, -0.08, 0.34, 0.94
61, 10956.94, 45053.00, 1190.83, 20906.90, -2500.22, 344.84, 11800.29, -54898.36, -23799.47, 30362.52, 4651.02, 11264.61, 0.00, 0.00, 0.00, 0.00, 0.00, 0.00, 0.00
62, 10956.94, 45053.00, 1190.83, 20906.90, -2500.22, 344.84, 11800.29, -54898.36, -23796.49, 30353.51, 4642.50, 11289.53, 0.00, 0.00, 0.00, 0.00, 0.00, 0.00, 0.00
63, 10949.99, 45038.72, 1174.92, 20888.76, -2516.05, 330.02, 11781.00, -54914.25, -23796.49, 30353.51, 4642.50, 11289.53, 0.00, 0.00, 0.00, 0.00, 0.00, 0.00, 0.00
64, 10949.99, 45038.72, 1174.92, 20888.76, -2516.05, 330.02, 11781.00, -54914.25, -23800.20, 30363.44, 4642.95, 11268.16, 0.00, 0.00, 0.00, 0.00, 0.00, 0.00, 0.00
65, 10960.98, 45061.63, 1191.50, 20910.03, -2503.10, 345.92, 11800.65, -54896.17, -23800.20, 30363.44, 4642.95, 11268.16, 0.00, 0.00, 0.00, 0.00, 0.00, 0.00, 0.00
66, 10960.98, 45061.63, 1191.50, 20910.03, -2503.10, 345.92, 11800.65, -54896.17, -23799.80, 30354.88, 4633.83, 11293.15, 0.00, 0.00, 0.00, 0.00, 0.00, 0.00, 0.00
67, 10936.28, 45031.12, 1163.61, 20881.76, -2526.51, 324.88, 11773.38, -54921.21, -23799.80, 30354.88, 4633.83, 11293.15, 0.00, 0.00, 0.00, 0.00, 0.00, 0.00, 0.00
68, 10936.28, 45031.12, 1163.61, 20881.76, -2526.51, 324.88, 11773.38, -54921.21, -23804.05, 30354.14, 4626.52, 11282.67, 0.00, 0.00, 0.00, 0.00, 0.00, 0.00, 0.00
69, 10952.73, 45048.11, 1177.78, 20903.78, -2508.02, 341.74, 11796.13, -54900.31, -23804.05, 30354.14, 4626.52, 11282.67, 0.00, 0.00, 0.00, 0.00, 0.00, 0.00, 0.00
70, 10952.73, 45048.11, 1177.78, 20903.78, -2508.02, 341.74, 11796.13, -54900.31, -23801.39, 30353.42, 4626.54, 11279.07, 0.00, 0.00, 0.00, 0.00, -0.08, 0.34, 0.95
71, 10936.98, 45031.50, 1163.12, 20879.66, -2525.66, 323.05, 11770.41, -54918.30, -23801.39, 30353.42, 4626.54, 11279.07, 0.00, 0.00, 0.00, 0.00, 0.00, 0.00, 0.00
72, 10936.98, 45031.50, 1163.12, 20879.66, -2525.66, 323.05, 11770.41, -54918.30, -23801.84, 30354.12, 4623.75, 11265.79, 0.00, 0.00, 0.00, 0.00, 0.00, 0.00, 0.00
73, 10951.64, 45046.18, 1180.22, 20900.91, -2513.95, 339.63, 11790.81, -54900.58, -23801.84, 30354.12, 4623.75, 11265.79, 0.00, 0.00, 0.00, 0.00, 0.00, 0.00, 0.00
74, 10951.64, 45046.18, 1180.22, 20900.91, -2513.95, 339.63, 11790.81, -54900.58, -23807.49, 30353.60, 4631.68, 11268.70, 0.00, 0.00, 0.00, 0.00, 0.00, 0.00, 0.00
75, 10939.05, 45035.37, 1162.74, 20880.17, -2531.07, 323.68, 11769.06, -54922.30, -23807.49, 30353.60, 4631.68, 11268.70, 0.00, 0.00, 0.00, 0.00, 0.00, 0.00, 0.00
76, 10939.05, 45035.37, 1162.74, 20880.17, -2531.07, 323.68, 11769.06, -54922.30, -23805.54, 30347.83, 4619.41, 11268.99, 0.00, 0.00, 0.00, 0.00, 0.00, 0.00, 0.00
77, 10954.10, 45044.82, 1171.86, 20899.39, -2513.57, 338.18, 11790.19, -54900.89, -23805.54, 30347.83, 4619.41, 11268.99, 0.00, 0.00, 0.00, 0.00, 0.00, 0.00, 0.00
78, 10954.10, 45044.82, 1171.86, 20899.39, -2513.57, 338.18, 11790.19, -54900.89, -23799.76, 30360.20, 4634.48, 11287.18, 0.00, 0.00, 0.00, 0.00, 0.00, 0.00, 0.00
79, 10931.37, 45024.95, 1161.78, 20879.95, -2526.69, 322.65, 11768.37, -54918.68, -23799.76, 30360.20, 4634.48, 11287.18, 0.00, 0.00, 0.00, 0.00, 0.00, 0.00, 0.00
80, 10931.37, 45024.95, 1161.78, 20879.95, -2526.69, 322.65, 11768.37, -54918.68, -23799.15, 30344.73, 4620.15, 11255.22, 0.00, 0.00, 0.00, 0.00, -0.08, 0.34, 0.95
81, 10941.49, 45043.17, 1176.69, 20899.73, -2510.93, 340.44, 11791.62, -54900.73, -23799.15, 30344.73, 4620.15, 11255.22, 0.00, 0.00, 0.00, 0.00, 0.00, 0.00, 0.00
82, 10941.49, 45043.17, 1176.69, 20899.73, -2510.93, 340.44, 11791.62, -54900.73, -23794.82, 30367.24, 4641.12, 11286.18, 0.00, 0.00, 0.00, 0.00, 0.00, 0.00, 0.00
83, 10931.61, 45036.37, 1168.77, 20885.85, -2515.26, 330.14, 11780.08, -54909.99, -23794.82, 30367.24, 4641.12, 11286.18, 0.00, 0.00, 0.00, 0.00, 0.00, 0.00, 0.00
84, 10931.61, 45036.37, 1168.77, 20885.85, -2515.26, 330.14, 11780.08, -54909.99, -23790.08, 30351.63, 4627.79, 11302.16, 0.00, 0.00, 0.00, 0.00, 0.00, 0.00, 0.00
85, 10946.88, 45037.85, 1171.77, 20900.74, -2509.39, 342.18, 11794.46, -54896.29, -23790.08, 30351.63, 4627.79, 11302.16, 0.00, 0.00, 0.00, 0.00, 0.00, 0.00, 0.00
86, 10946.88, 45037.85, 1171.77, 20900.74, -2509.39, 342.18, 11794.46, -54896.29, -23791.26, 30373.43, 4642.55, 11265.01, 0.00, 0.00, 0.00, 0.00, 0.00, 0.00, 0.00
87, 10925.06, 45016.88, 1164.41, 20885.25, -2516.78, 329.55, 11778.65, -54909.99, -23791.26, 30373.43, 4642.55, 11265.01, 0.00, 0.00, 0.00, 0.00, 0.00, 0.00, 0.00
88, 10925.06, 45016.88, 1164.41, 20885.25, -2516.78, 329.55, 11778.65, -54909.99, -23797.63, 30343.54, 4612.26, 11279.05, 0.00, 0.00, 0.00, 0.00, 0.00, 0.00, 0.00
89, 10930.14, 45025.11, 1167.07, 20892.51, -2518.28, 335.97, 11784.91, -54904.98, -23797.63, 30343.54, 4612.26, 11279.05, 0.00, 0.00, 0.00, 0.00, 0.00, 0.00, 0.00
90, 10930.14, 45025.11, 1167.07, 20892.51, -2518.28, 335.97, 11784.91, -54904.98, -23797.37, 30368.24, 4629.31, 11287.32, 0.00, 0.00, 0.00, 0.00, -0.08, 0.34, 0.95
91, 10934.36, 45028.04, 1161.11, 20884.96, -2523.49, 328.30, 11776.53, -54910.84, -23797.37, 30368.24, 4629.31, 11287.32, 0.00, 0.00, 0.00, 0.00, 0.00, 0.00, 0.00
92, 10934.36, 45028.04, 1161.11, 20884.96, -2523.49, 328.30, 11776.53, -54910.84, -23795.35, 30342.25, 4603.19, 11281.75, 0.00, 0.00, 0.00, 0.00, 0.00, 0.00, 0.00
93, 10938.70, 45020.64, 1158.16, 20886.61, -2521.77, 330.00, 11779.95, -54906.30, -23795.35, 30342.25, 4603.19, 11281.75, 0.00, 0.00, 0.00, 0.00, 0.00, 0.00, 0.00
94, 10938.70, 45020.64, 1158.16, 20886.61, -2521.77, 330.00, 11779.95, -54906.30, -23797.30, 30366.05, 4621.40, 11276.03, 0.00, 0.00, 0.00, 0.00, 0.00, 0.00, 0.00
95, 10939.19, 45030.83, 1160.50, 20885.85, -2520.38, 328.91, 11776.37, -54908.46, -23797.30, 30366.05, 4621.40, 11276.03, 0.00, 0.00, 0.00, 0.00, 0.00, 0.00, 0.00
96, 10939.19, 45030.83, 1160.50, 20885.85, -2520.38, 328.91, 11776.37, -54908.46, -23797.07, 30337.78, 4603.12, 11278.20, 0.00, 0.00, 0.00, 0.00, 0.00, 0.00, 0.00
97, 10929.13, 45030.80, 1160.79, 20884.73, -2524.36, 325.98, 11774.27, -54910.93, -23797.07, 30337.78, 4603.12, 11278.20, 0.00, 0.00, 0.00, 0.00, 0.00, 0.00, 0.00
98, 10929.13, 45030.80, 1160.79, 20884.73, -2524.36, 325.98, 11774.27, -54910.93, -23798.77, 30361.76, 4620.13, 11268.50, 0.00, 0.00, 0.00, 0.00, 0.00, 0.00, 0.00
99, 10932.68, 45026.94, 1161.06, 20883.59, -2521.34, 328.17, 11776.69, -54905.89, -23798.77, 30361.76, 4620.13, 11268.50, 0.00, 0.00, 0.00, 0.00, -0.07, 0.34, 0.95
100, 10932.68, 45026.94, 1161.06, 20883.59, -2521.34, 328.17, 11776.69, -54905.89, -23793.65, 30341.31, 4612.17, 11287.47, 0.00, 0.00, 0.00, 0.00, 0.00, 0.00, 0.00
101, 10933.24, 45024.93, 1159.50, 20881.18, -2527.27, 326.11, 11773.04, -54908.46, -23793.65, 30341.31, 4612.17, 11287.47, 0.00, 0.00, 0.00, 0.00, 0.00, 0.00, 0.00
102, 10933.24, 45024.93, 1159.50, 20881.18, -2527.27, 326.11, 11773.04, -54908.46, -23790.10, 30366.03, 4632.60, 11277.37, 0.00, 0.00, 0.00, 0.00, 0.00, 0.00, 0.00
103, 10946.88, 45046.34, 1170.63, 20890.99, -2511.98, 333.98, 11784.96, -54897.40, -23790.10, 30366.03, 4632.60, 11277.37, 0.00, 0.00, 0.00, 0.00, 0.00, 0.00, 0.00
104, 10946.88, 45046.34, 1170.63, 20890.99, -2511.98, 333.98, 11784.96, -54897.40, -23784.58, 30349.69, 4631.97, 11264.18, 0.00, 0.00, 0.00, 0.00, 0.00, 0.00, 0.00
105, 10938.34, 45048.73, 1170.92, 20883.30, -2515.78, 326.80, 11774.79, -54905.85, -23784.58, 30349.69, 4631.97, 11264.18, 0.00, 0.00, 0.00, 0.00, 0.00, 0.00, 0.00
106, 10938.34, 45048.73, 1170.92, 20883.30, -2515.78, 326.80, 11774.79, -54905.85, -23785.61, 30366.14, 4641.94, 11275.58, 0.00, 0.00, 0.00, 0.00, 0.00, 0.00, 0.00
107, 10948.29, 45052.04, 1183.30, 20899.80, -2506.61, 339.66, 11790.12, -54891.70, -23785.61, 30366.14, 4641.94, 11275.58, 0.00, 0.00, 0.00, 0.00, 0.00, 0.00, 0.00
108, 10948.29, 45052.04, 1183.30, 20899.80, -2506.61, 339.66, 11790.12, -54891.70, -23784.02, 30354.12, 4632.26, 11294.18, 0.00, 0.00, 0.00, 0.00, 0.00, 0.00, 0.00
109, 10929.26, 45028.19, 1165.40, 20877.49, -2524.43, 323.01, 11771.21, -54911.17, -23784.02, 30354.12, 4632.26, 11294.18, 0.00, 0.00, 0.00, 0.00, -0.07, 0.34, 0.94
110, 10929.26, 45028.19, 1165.40, 20877.49, -2524.43, 323.01, 11771.21, -54911.17, -23793.41, 30357.76, 4626.45, 11269.97, 0.00, 0.00, 0.00, 0.00, 0.00, 0.00, 0.00
111, 10943.08, 45043.30, 1173.49, 20897.29, -2511.82, 338.56, 11786.97, -54894.50, -23793.41, 30357.76, 4626.45, 11269.97, 0.00, 0.00, 0.00, 0.00, 0.00, 0.00, 0.00
112, 10943.08, 45043.30, 1173.49, 20897.29, -2511.82, 338.56, 11786.97, -54894.50, -23789.03, 30355.30, 4617.11, 11279.63, 0.00, 0.00, 0.00, 0.00, 0.00, 0.00, 0.00
113, 10926.20, 45021.24, 1153.15, 20874.20, -2529.28, 319.50, 11764.33, -54915.29, -23789.03, 30355.30, 4617.11, 11279.63, 0.00, 0.00, 0.00, 0.00, 0.00, 0.00, 0.00
114, 10926.20, 45021.24, 1153.15, 20874.20, -2529.28, 319.50, 11764.33, -54915.29, -23795.13, 30355.48, 4611.97, 11291.59, 0.00, 0.00, 0.00, 0.00, 0.00, 0.00, 0.00
115, 10939.05, 45030.49, 1159.85, 20892.98, -2516.78, 334.81, 11781.69, -54901.29, -23795.13, 30355.48, 4611.97, 11291.59, 0.00, 0.00, 0.00, 0.00, 0.00, 0.00, 0.00
116, 10939.05, 45030.49, 1159.85, 20892.98, -2516.78, 334.81, 11781.69, -54901.29, -23792.36, 30352.84, 4607.19, 11264.56, 0.00, 0.00, 0.00, 0.00, 0.00, 0.00, 0.00
117, 10912.03, 45004.77, 1143.36, 20870.47, -2533.10, 315.96, 11760.06, -54918.05, -23792.36, 30352.84, 4607.19, 11264.56, 0.00, 0.00, 0.00, 0.00, 0.00, 0.00, 0.00
118, 10912.03, 45004.77, 1143.36, 20870.47, -2533.10, 315.96, 11760.06, -54918.05, -23794.93, 30352.97, 4601.55, 11244.38, 0.00, 0.00, 0.00, 0.00, 0.00, 0.00, 0.00
119, 10920.28, 45014.31, 1154.49, 20889.09, -2523.51, 330.31, 11780.38, -54901.94, -23794.93, 30352.97, 4601.55, 11244.38, 0.00, 0.00, 0.00, 0.00, -0.07, 0.34, 0.95
120, 10920.28, 45014.31, 1154.49, 20889.09, -2523.51, 330.31, 11780.38, -54901.94, -23791.53, 30353.62, 4609.31, 11291.32, 0.00, 0.00, 0.00, 0.00, 0.00, 0.00, 0.00
121, 10920.44, 44996.68, 1142.42, 20873.33, -2523.02, 318.09, 11761.76, -54912.38, -23791.53, 30353.62, 4609.31, 11291.32, 0.00, 0.00, 0.00, 0.00, 0.00, 0.00, 0.00
122, 10920.44, 44996.68, 1142.42, 20873.33, -2523.02, 318.09, 11761.76, -54912.38, -23782.97, 30356.46, 4607.81, 11305.27, 0.00, 0.00, 0.00, 0.00, 0.00, 0.00, 0.00
123, 10935.23, 45030.47, 1156.79, 20891.53, -2515.51, 332.93, 11781.47, -54896.75, -23782.97, 30356.46, 4607.81, 11305.27, 0.00, 0.00, 0.00, 0.00, 0.00, 0.00, 0.00
124, 10935.23, 45030.47, 1156.79, 20891.53, -2515.51, 332.93, 11781.47, -54896.75, -23790.19, 30357.71, 4618.43, 11270.49, 0.00, 0.00, 0.00, 0.00, 0.00, 0.00, 0.00
125, 10924.26, 45023.83, 1151.00, 20872.66, -2531.54, 317.33, 11760.77, -54916.89, -23790.19, 30357.71, 4618.43, 11270.49, 0.00, 0.00, 0.00, 0.00, 0.00, 0.00, 0.00
126, 10924.26, 45023.83, 1151.00, 20872.66, -2531.54, 317.33, 11760.77, -54916.89, -23795.62, 30347.48, 4605.80, 11252.34, 0.00, 0.00, 0.00, 0.00, 0.00, 0.00, 0.00
127, 10925.87, 45016.12, 1155.97, 20889.22, -2521.41, 328.86, 11777.83, -54902.52, -23795.62, 30347.48, 4605.80, 11252.34, 0.00, 0.00, 0.00, 0.00, 0.00, 0.00, 0.00
128, 10925.87, 45016.12, 1155.97, 20889.22, -2521.41, 328.86, 11777.83, -54902.52, -23787.89, 30363.70, 4619.84, 11308.78, 0.00, 0.00, 0.00, 0.00, 0.00, 0.00, 0.00
129, 10921.53, 45010.06, 1144.25, 20874.34, -2527.36, 317.10, 11762.20, -54911.84, -23787.89, 30363.70, 4619.84, 11308.78, 0.00, 0.00, 0.00, 0.00, -0.07, 0.35, 0.95
130, 10921.53, 45010.06, 1144.25, 20874.34, -2527.36, 317.10, 11762.20, -54911.84, -23784.36, 30351.66, 4609.29, 11303.43, 0.00, 0.00, 0.00, 0.00, 0.00, 0.00, 0.00
131, 10929.02, 45015.83, 1153.33, 20887.03, -2517.23, 330.69, 11779.73, -54898.05, -23784.36, 30351.66, 4609.29, 11303.43, 0.00, 0.00, 0.00, 0.00, 0.00, 0.00, 0.00
132, 10929.02, 45015.83, 1153.33, 20887.03, -2517.23, 330.69, 11779.73, -54898.05, -23785.52, 30367.08, 4615.50, 11274.42, 0.00, 0.00, 0.00, 0.00, 0.00, 0.00, 0.00
133, 10912.70, 45005.35, 1147.87, 20873.42, -2524.61, 318.67, 11762.43, -54909.29, -23785.52, 30367.08, 4615.50, 11274.42, 0.00, 0.00, 0.00, 0.00, 0.00, 0.00, 0.00
134, 10912.70, 45005.35, 1147.87, 20873.42, -2524.61, 318.67, 11762.43, -54909.29, -23783.26, 30348.71, 4600.19, 11270.62, 0.00, 0.00, 0.00, 0.00, 0.00, 0.00, 0.00
135, 10917.69, 45009.48, 1144.25, 20879.46, -2522.13, 325.17, 11772.66, -54899.79, -23783.26, 30348.71, 4600.19, 11270.62, 0.00, 0.00, 0.00, 0.00, 0.00, 0.00, 0.00
136, 10917.69, 45009.48, 1144.25, 20879.46, -2522.13, 325.17, 11772.66, -54899.79, -23791.29, 30363.30, 4606.00, 11284.88, 0.00, 0.00, 0.00, 0.00, 0.00, 0.00, 0.00
137, 10913.78, 44990.95, 1129.72, 20868.79, -2531.89, 315.29, 11759.30, -54912.56, -23791.29, 30363.30, 4606.00, 11284.88, 0.00, 0.00, 0.00, 0.00, 0.00, 0.00, 0.00
138, 10913.78, 44990.95, 1129.72, 20868.79, -2531.89, 315.29, 11759.30, -54912.56, -23791.78, 30338.29, 4588.79, 11292.37, 0.00, 0.00, 0.00, 0.00, -0.08, 0.35, 0.95
139, 10910.74, 44994.17, 1131.78, 20868.86, -2525.90, 317.86, 11763.72, -54907.75, -23791.78, 30338.29, 4588.79, 11292.37, 0.00, 0.00, 0.00, 0.00, 0.00, 0.00, 0.00
140, 10910.74, 44994.17, 1131.78, 20868.86, -2525.90, 317.86, 11763.72, -54907.75, -23791.29, 30361.09, 4604.64, 11267.56, 0.00, 0.00, 0.00, 0.00, 0.00, 0.00, 0.00
141, 10906.44, 45000.90, 1133.77, 20867.10, -2528.68, 314.87, 11758.87, -54910.79, -23791.29, 30361.09, 4604.64, 11267.56, 0.00, 0.00, 0.00, 0.00, 0.00, 0.00, 0.00
142, 10906.44, 45000.90, 1133.77, 20867.10, -2528.68, 314.87, 11758.87, -54910.79, -23786.46, 30346.81, 4591.27, 11269.28, 0.00, 0.00, 0.00, 0.00, 0.00, 0.00, 0.00
143, 10903.31, 45009.06, 1142.51, 20869.87, -2525.88, 319.05, 11764.24, -54903.26, -23786.46, 30346.81, 4591.27, 11269.28, 0.00, 0.00, 0.00, 0.00, 0.00, 0.00, 0.00
144, 10903.31, 45009.06, 1142.51, 20869.87, -2525.88, 319.05, 11764.24, -54903.26, -23782.66, 30369.29, 4615.48, 11293.73, 0.00, 0.00, 0.00, 0.00, 0.00, 0.00, 0.00
145, 10924.08, 45010.06, 1142.40, 20873.78, -2517.68, 321.78, 11766.52, -54902.97, -23782.66, 30369.29, 4615.48, 11293.73, 0.00, 0.00, 0.00, 0.00, 0.00, 0.00, 0.00
146, 10924.08, 45010.06, 1142.40, 20873.78, -2517.68, 321.78, 11766.52, -54902.97, -23785.85, 30340.44, 4602.81, 11296.48, 0.00, 0.00, 0.00, 0.00, 0.00, 0.00, 0.00
147, 10921.31, 45005.97, 1142.49, 20873.11, -2521.57, 319.92, 11763.75, -54908.73, -23785.85, 30340.44, 4602.81, 11296.48, 0.00, 0.00, 0.00, 0.00, 0.00, 0.00, 0.00
148, 10921.31, 45005.97, 1142.49, 20873.11, -2521.57, 319.92, 11763.75, -54908.73, -23779.21, 30367.64, 4619.48, 11280.52, 0.00, 0.00, 0.00, 0.00, -0.08, 0.34, 0.95
149, 10922.40, 45029.49, 1150.73, 20878.05, -2513.83, 322.65, 11769.29, -54902.12, -23779.21, 30367.64, 4619.48, 11280.52, 0.00, 0.00, 0.00, 0.00, 0.00, 0.00, 0.00
150, 10922.40, 45029.49, 1150.73, 20878.05, -2513.83, 322.65, 11769.29, -54902.12, -23784.11, 30345.20, 4603.52, 11248.67, 0.00, 0.00, 0.00, 0.00, 0.00, 0.00, 0.00
151, 10917.26, 45004.81, 1136.74, 20870.31, -2526.84, 314.56, 11758.47, -54911.66, -23784.11, 30345.20, 4603.52, 11248.67, 0.00, 0.00, 0.00, 0.00, 0.00, 0.00, 0.00
152, 10917.26, 45004.81, 1136.74, 20870.31, -2526.84, 314.56, 11758.47, -54911.66, -23782.08, 30362.50, 4617.76, 11307.59, 0.00, 0.00, 0.00, 0.00, 0.00, 0.00, 0.00
153, 10924.33, 45003.61, 1148.90, 20878.61, -2511.75, 323.85, 11769.76, -54901.25, -23782.08, 30362.50, 4617.76, 11307.59, 0.00, 0.00, 0.00, 0.00, 0.00, 0.00, 0.00
154, 10924.33, 45003.61, 1148.90, 20878.61, -2511.75, 323.85, 11769.76, -54901.25, -23783.87, 30346.96, 4603.70, 11273.53, 0.00, 0.00, 0.00, 0.00, 0.00, 0.00, 0.00
155, 10912.48, 44998.38, 1133.75, 20864.30, -2525.93, 311.70, 11754.20, -54913.09, -23783.87, 30346.96, 4603.70, 11273.53, 0.00, 0.00, 0.00, 0.00, 0.00, 0.00, 0.00
156, 10912.48, 44998.38, 1133.75, 20864.30, -2525.93, 311.70, 11754.20, -54913.09, -23783.31, 30360.28, 4613.38, 11289.80, 0.00, 0.00, 0.00, 0.00, 0.00, 0.00, 0.00
157, 10917.84, 45017.02, 1144.88, 20878.05, -2511.69, 323.94, 11768.98, -54899.46, -23783.31, 30360.28, 4613.38, 11289.80, 0.00, 0.00, 0.00, 0.00, 0.00, 0.00, 0.00
158, 10917.84, 45017.02, 1144.88, 20878.05, -2511.69, 323.94, 11768.98, -54899.46, -23783.91, 30350.14, 4602.85, 11256.45, 0.00, 0.00, 0.00, 0.00, -0.08, 0.34, 0.94
159, 10907.61, 44999.47, 1131.65, 20861.46, -2526.44, 309.62, 11750.47, -54915.89, -23783.91, 30350.14, 4602.85, 11256.45, 0.00, 0.00, 0.00, 0.00, 0.00, 0.00, 0.00
160, 10907.61, 44999.47, 1131.65, 20861.46, -2526.44, 309.62, 11750.47, -54915.89, -23779.17, 30359.59, 4614.05, 11303.50, 0.00, 0.00, 0.00, 0.00, 0.00, 0.00, 0.00
161, 10922.45, 45018.82, 1147.81, 20877.04, -2508.18, 324.97, 11772.95, -54893.91, -23779.17, 30359.59, 4614.05, 11303.50, 0.00, 0.00, 0.00, 0.00, 0.00, 0.00, 0.00
162, 10922.45, 45018.82, 1147.81, 20877.04, -2508.18, 324.97, 11772.95, -54893.91, -23779.66, 30352.48, 4611.43, 11282.76, 0.00, 0.00, 0.00, 0.00, 0.00, 0.00, 0.00
163, 10901.30, 44993.93, 1132.34, 20856.72, -2527.07, 307.47, 11748.41, -54915.21, -23779.66, 30352.48, 4611.43, 11282.76, 0.00, 0.00, 0.00, 0.00, 0.00, 0.00, 0.00
164, 10901.30, 44993.93, 1132.34, 20856.72, -2527.07, 307.47, 11748.41, -54915.21, -23782.34, 30356.51, 4610.40, 11292.08, 0.00, 0.00, 0.00, 0.00, 0.00, 0.00, 0.00
165, 10921.33, 45016.64, 1143.11, 20872.37, -2509.92, 321.66, 11769.13, -54896.66, -23782.34, 30356.51, 4610.40, 11292.08, 0.00, 0.00, 0.00, 0.00, 0.00, 0.00, 0.00
166, 10921.33, 45016.64, 1143.11, 20872.37, -2509.92, 321.66, 11769.13, -54896.66, -23780.78, 30355.46, 4617.45, 11258.33, 0.00, 0.00, 0.00, 0.00, 0.00, 0.00, 0.00
167, 10907.76, 44987.96, 1132.65, 20857.39, -2526.51, 307.76, 11747.23, -54917.39, -23780.78, 30355.46, 4617.45, 11258.33, 0.00, 0.00, 0.00, 0.00, 0.00, 0.00, 0.00
168, 10907.76, 44987.96, 1132.65, 20857.39, -2526.51, 307.76, 11747.23, -54917.39, -23786.48, 30348.06, 4610.92, 11287.94, 0.00, 0.00, 0.00, 0.00, -0.08, 0.34, 0.95
169, 10910.33, 45007.89, 1148.50, 20876.60, -2510.84, 324.23, 11768.77, -54897.09, -23786.48, 30348.06, 4610.92, 11287.94, 0.00, 0.00, 0.00, 0.00, 0.00, 0.00, 0.00
170, 10910.33, 45007.89, 1148.50, 20876.60, -2510.84, 324.23, 11768.77, -54897.09, -23784.20, 30354.25, 4613.13, 11265.95, 0.00, 0.00, 0.00, 0.00, 0.00, 0.00, 0.00
171, 10904.59, 44995.74, 1131.71, 20859.16, -2523.56, 306.20, 11746.71, -54917.63, -23784.20, 30354.25, 4613.13, 11265.95, 0.00, 0.00, 0.00, 0.00, 0.00, 0.00, 0.00
172, 10904.59, 44995.74, 1131.71, 20859.16, -2523.56, 306.20, 11746.71, -54917.63, -23782.88, 30347.74, 4606.74, 11284.84, 0.00, 0.00, 0.00, 0.00, 0.00, 0.00, 0.00
173, 10926.00, 45019.94, 1141.84, 20877.78, -2510.17, 324.73, 11768.26, -54897.43, -23782.88, 30347.74, 4606.74, 11284.84, 0.00, 0.00, 0.00, 0.00, 0.00, 0.00, 0.00
174, 10926.00, 45019.94, 1141.84, 20877.78, -2510.17, 324.73, 11768.26, -54897.43, -23777.05, 30363.35, 4618.67, 11308.33, 0.00, 0.00, 0.00, 0.00, 0.00, 0.00, 0.00
175, 10907.18, 45001.21, 1137.26, 20863.63, -2519.24, 312.23, 11752.52, -54910.55, -23777.05, 30363.35, 4618.67, 11308.33, 0.00, 0.00, 0.00, 0.00, 0.00, 0.00, 0.00
176, 10907.18, 45001.21, 1137.26, 20863.63, -2519.24, 312.23, 11752.52, -54910.55, -23778.68, 30350.99, 4608.46, 11269.82, 0.00, 0.00, 0.00, 0.00, 0.00, 0.00, 0.00
177, 10914.63, 45005.55, 1146.60, 20878.90, -2508.31, 322.47, 11768.93, -54896.40, -23778.68, 30350.99, 4608.46, 11269.82, 0.00, 0.00, 0.00, 0.00, -0.08, 0.34, 0.95
178, 10914.63, 45005.55, 1146.60, 20878.90, -2508.31, 322.47, 11768.93, -54896.40, -23778.97, 30359.75, 4618.16, 11278.24, 0.00, 0.00, 0.00, 0.00, 0.00, 0.00, 0.00
179, 10904.57, 44987.98, 1131.83, 20860.14, -2520.90, 309.75, 11750.18, -54911.75, -23778.97, 30359.75, 4618.16, 11278.24, 0.00, 0.00, 0.00, 0.00, 0.00, 0.00, 0.00
180, 10904.57, 44987.98, 1131.83, 20860.14, -2520.90, 309.75, 11750.18, -54911.75, -23781.05, 30349.49, 4605.15, 11308.75, 0.00, 0.00, 0.00, 0.00, 0.00, 0.00, 0.00
181, 10919.61, 45006.02, 1140.10, 20878.03, -2509.79, 325.15, 11767.34, -54893.60, -23781.05, 30349.49, 4605.15, 11308.75, 0.00, 0.00, 0.00, 0.00, 0.00, 0.00, 0.00
182, 10919.61, 45006.02, 1140.10, 20878.03, -2509.79, 325.15, 11767.34, -54893.60, -23779.08, 30368.91, 4619.23, 11290.51, 0.00, 0.00, 0.00, 0.00, 0.00, 0.00, 0.00
183, 10907.43, 45002.42, 1139.89, 20864.99, -2513.65, 315.05, 11754.36, -54903.82, -23779.08, 30368.91, 4619.23, 11290.51, 0.00, 0.00, 0.00, 0.00, 0.00, 0.00, 0.00
184, 10907.43, 45002.42, 1139.89, 20864.99, -2513.65, 315.05, 11754.36, -54903.82, -23776.22, 30353.49, 4608.01, 11281.28, 0.00, 0.00, 0.00, 0.00, 0.00, 0.00, 0.00
185, 10919.59, 45011.65, 1144.52, 20875.28, -2506.99, 323.05, 11769.02, -54891.17, -23776.22, 30353.49, 4608.01, 11281.28, 0.00, 0.00, 0.00, 0.00, 0.00, 0.00, 0.00
186, 10919.59, 45011.65, 1144.52, 20875.28, -2506.99, 323.05, 11769.02, -54891.17, -23781.03, 30368.87, 4626.59, 11252.29, 0.00, 0.00, 0.00, 0.00, 0.00, 0.00, 0.00
187, 10924.86, 45008.43, 1141.88, 20864.68, -2512.00, 313.37, 11754.92, -54904.58, -23781.03, 30368.87, 4626.59, 11252.29, 0.00, 0.00, 0.00, 0.00, -0.08, 0.34, 0.95
188, 10924.86, 45008.43, 1141.88, 20864.68, -2512.00, 313.37, 11754.92, -54904.58, -23780.38, 30346.18, 4615.08, 11323.35, 0.00, 0.00, 0.00, 0.00, 0.00, 0.00, 0.00
189, 10917.60, 45016.01, 1146.44, 20872.46, -2505.38, 318.87, 11762.11, -54898.41, -23780.38, 30346.18, 4615.08, 11323.35, 0.00, 0.00, 0.00, 0.00, 0.00, 0.00, 0.00
190, 10917.60, 45016.01, 1146.44, 20872.46, -2505.38, 318.87, 11762.11, -54898.41, -23779.04, 30369.40, 4631.68, 11303.03, 0.00, 0.00, 0.00, 0.00, 0.00, 0.00, 0.00
191, 10904.28, 45000.43, 1145.10, 20866.94, -2512.87, 314.62, 11756.70, -54902.14, -23779.04, 30369.40, 4631.68, 11303.03, 0.00, 0.00, 0.00, 0.00, 0.00, 0.00, 0.00
192, 10904.28, 45000.43, 1145.10, 20866.94, -2512.87, 314.62, 11756.70, -54902.14, -23778.52, 30346.81, 4612.60, 11263.33, 0.00, 0.00, 0.00, 0.00, 0.00, 0.00, 0.00
193, 10917.37, 45013.64, 1143.45, 20871.21, -2505.09, 318.87, 11758.20, -54900.49, -23778.52, 30346.81, 4612.60, 11263.33, 0.00, 0.00, 0.00, 0.00, 0.00, 0.00, 0.00
194, 10917.37, 45013.64, 1143.45, 20871.21, -2505.09, 318.87, 11758.20, -54900.49, -23781.38, 30368.20, 4621.02, 11292.17, 0.00, 0.00, 0.00, 0.00, 0.00, 0.00, 0.00
195, 10913.44, 45010.38, 1135.54, 20867.57, -2510.55, 316.14, 11753.75, -54905.09, -23781.38, 30368.20, 4621.02, 11292.17, 0.00, 0.00, 0.00, 0.00, 0.00, 0.00, 0.00
196, 10913.44, 45010.38, 1135.54, 20867.57, -2510.55, 316.14, 11753.75, -54905.09, -23784.69, 30342.98, 4602.31, 11304.66, 0.00, 0.00, 0.00, 0.00, 0.00, 0.00, 0.00
197, 10905.37, 44989.28, 1130.64, 20859.32, -2514.62, 310.11, 11750.27, -54904.64, -23784.69, 30342.98, 4602.31, 11304.66, 0.00, 0.00, 0.00, 0.00, -0.08, 0.34, 0.96
198, 10905.37, 44989.28, 1130.64, 20859.32, -2514.62, 310.11, 11750.27, -54904.64, -23780.09, 30368.13, 4618.50, 11289.71, 0.00, 0.00, 0.00, 0.00, 0.00, 0.00, 0.00
199, 10905.59, 45001.37, 1139.07, 20872.01, -2505.61, 320.48, 11761.78, -54893.85, -23780.09, 30368.13, 4618.50, 11289.71, 0.00, 0.00, 0.00, 0.00, 0.00, 0.00, 0.00
200, 10905.59, 45001.37, 1139.07, 20872.01, -2505.61, 320.48, 11761.78, -54893.85, -23782.93, 30345.06, 4603.21, 11267.09, 0.00, 0.00, 0.00, 0.00, 0.00, 0.00, 0.00
201, 10900.01, 44996.52, 1129.17, 20857.78, -2517.37, 307.54, 11745.28, -54908.09, -23782.93, 30345.06, 4603.21, 11267.09, 0.00, 0.00, 0.00, 0.00, 0.00, 0.00, 0.00
202, 10900.01, 44996.52, 1129.17, 20857.78, -2517.37, 307.54, 11745.28, -54908.09, -23779.53, 30365.49, 4617.60, 11299.21, 0.00, 0.00, 0.00, 0.00, 0.00, 0.00, 0.00
203, 10915.70, 45002.26, 1143.72, 20875.05, -2500.20, 320.95, 11762.18, -54893.00, -23779.53, 30365.49, 4617.60, 11299.21, 0.00, 0.00, 0.00, 0.00, 0.00, 0.00, 0.00
204, 10915.70, 45002.26, 1143.72, 20875.05, -2500.20, 320.95, 11762.18, -54893.00, -23781.99, 30355.70, 4608.53, 11295.32, 0.00, 0.00, 0.00, 0.00, 0.00, 0.00, 0.00
205, 10904.19, 44999.16, 1129.10, 20859.79, -2509.41, 310.44, 11747.47, -54903.35, -23781.99, 30355.70, 4608.53, 11295.32, 0.00, 0.00, 0.00, 0.00, 0.00, 0.00, 0.00
206, 10904.19, 44999.16, 1129.10, 20859.79, -2509.41, 310.44, 11747.47, -54903.35, -23784.92, 30364.17, 4614.90, 11287.09, 0.00, 0.00, 0.00, 0.00, 0.00, 0.00, 0.00
207, 10901.28, 44995.91, 1137.14, 20870.49, -2505.90, 320.66, 11761.24, -54891.84, -23784.92, 30364.17, 4614.90, 11287.09, 0.00, 0.00, 0.00, 0.00, -0.08, 0.34, 0.95
208, 10901.28, 44995.91, 1137.14, 20870.49, -2505.90, 320.66, 11761.24, -54891.84, -23788.40, 30350.36, 4607.21, 11263.63, 0.00, 0.00, 0.00, 0.00, 0.00, 0.00, 0.00
209, 10899.98, 44978.50, 1122.37, 20852.34, -2513.57, 304.50, 11741.75, -54907.66, -23788.40, 30350.36, 4607.21, 11263.63, 0.00, 0.00, 0.00, 0.00, 0.00, 0.00, 0.00
210, 10899.98, 44978.50, 1122.37, 20852.34, -2513.57, 304.50, 11741.75, -54907.66, -23780.58, 30360.98, 4614.05, 11325.72, 0.00, 0.00, 0.00, 0.00, 0.00, 0.00, 0.00
211, 10900.14, 45002.11, 1140.27, 20873.71, -2497.96, 321.42, 11763.63, -54887.75, -23780.58, 30360.98, 4614.05, 11325.72, 0.00, 0.00, 0.00, 0.00, 0.00, 0.00, 0.00
212, 10900.14, 45002.11, 1140.27, 20873.71, -2497.96, 321.42, 11763.63, -54887.75, -23779.24, 30357.83, 4613.98, 11293.67, 0.00, 0.00, 0.00, 0.00, 0.00, 0.00, 0.00
213, 10897.53, 44991.67, 1126.37, 20853.73, -2512.78, 304.45, 11741.82, -54905.96, -23779.24, 30357.83, 4613.98, 11293.67, 0.00, 0.00, 0.00, 0.00, 0.00, 0.00, 0.00
214, 10897.53, 44991.67, 1126.37, 20853.73, -2512.78, 304.45, 11741.82, -54905.96, -23775.28, 30366.07, 4618.94, 11278.82, 0.00, 0.00, 0.00, 0.00, 0.00, 0.00, 0.00
215, 10903.47, 45005.82, 1137.93, 20873.64, -2498.99, 321.89, 11764.59, -54884.59, -23775.28, 30366.07, 4618.94, 11278.82, 0.00, 0.00, 0.00, 0.00, 0.00, 0.00, 0.00
216, 10903.47, 45005.82, 1137.93, 20873.64, -2498.99, 321.89, 11764.59, -54884.59, -23779.46, 30362.18, 4614.00, 11296.59, 0.00, 0.00, 0.00, 0.00, 0.00, 0.00, 0.00
217, 10896.01, 44990.11, 1125.95, 20851.12, -2510.75, 303.20, 11741.97, -54907.82, -23779.46, 30362.18, 4614.00, 11296.59, 0.00, 0.00, 0.00, 0.00, -0.07, 0.34, 0.95
218, 10896.01, 44990.11, 1125.95, 20851.12, -2510.75, 303.20, 11741.97, -54907.82, -23778.59, 30358.72, 4613.98, 11315.91, 0.00, 0.00, 0.00, 0.00, 0.00, 0.00, 0.00
219, 10910.51, 45006.22, 1140.18, 20873.85, -2495.97, 321.13, 11761.84, -54887.39, -23778.59, 30358.72, 4613.98, 11315.91, 0.00, 0.00, 0.00, 0.00, 0.00, 0.00, 0.00
