%OpenBCI Raw EEG Data
%
%Sample Rate = 250.0 Hz
%First Column = SampleIndex
%Other Columns = EEG data in microvolts followed by Accel Data (in G) interleaved with Aux Data
0, 0.00, 0.00, 0.00, 0.00, 0.00, 0.00, 0.00, 0.00, -25805.00, 30555.97, 2834.07, 13500.48, 0.00, 0.00, 0.00, 0.00, -0.10, 0.38, 0.92
1, 11947.86, 44512.43, 2034.48, 21267.68, -1231.56, 635.91, 11653.37, -46373.32, -25805.00, 30555.97, 2834.07, 13500.48, 0.00, 0.00, 0.00, 0.00, 0.00, 0.00, 0.00
2, 11947.86, 44512.43, 2034.48, 21267.68, -1231.56, 635.91, 11653.37, -46373.32, -24677.26, 30887.88, 2708.34, 13273.92, 0.00, 0.00, 0.00, 0.00, 0.00, 0.00, 0.00
3, 11971.55, 44548.10, 2055.13, 21296.81, -1205.72, 660.18, 11682.90, -46347.10, -24677.26, 30887.88, 2708.34, 13273.92, 0.00, 0.00, 0.00, 0.00, 0.00, 0.00, 0.00
4, 11971.55, 44548.10, 2055.13, 21296.81, -1205.72, 660.18, 11682.90, -46347.10, -24681.18, 30895.07, 2712.32, 13266.21, 0.00, 0.00, 0.00, 0.00, 0.00, 0.00, 0.00
5, 11956.62, 44539.56, 2041.09, 21274.93, -1224.52, 642.01, 11658.56, -46363.98, -24681.18, 30895.07, 2712.32, 13266.21, 0.00, 0.00, 0.00, 0.00, 0.00, 0.00, 0.00
6, 11956.62, 44539.56, 2041.09, 21274.93, -1224.52, 642.01, 11658.56, -46363.98, -24676.10, 30890.65, 2709.61, 13280.31, 0.00, 0.00, 0.00, 0.00, -0.09, 0.36, 0.93
7, 11969.36, 44547.36, 2053.95, 21297.39, -1203.75, 660.38, 11683.75, -46345.56, -24676.10, 30890.65, 2709.61, 13280.31, 0.00, 0.00, 0.00, 0.00, 0.00, 0.00, 0.00
8, 11969.36, 44547.36, 2053.95, 21297.39, -1203.75, 660.38, 11683.75, -46345.56, -24680.04, 30896.44, 2720.16, 13267.24, 0.00, 0.00, 0.00, 0.00, 0.00, 0.00, 0.00
9, 11950.40, 44518.79, 2037.20, 21270.88, -1228.12, 638.63, 11655.52, -46369.68, -24680.04, 30896.44, 2720.16, 13267.24, 0.00, 0.00, 0.00, 0.00, 0.00, 0.00, 0.00
10, 11950.40, 44518.79, 2037.20, 21270.88, -1228.12, 638.63, 11655.52, -46369.68, -24682.09, 30876.63, 2694.46, 13270.95, 0.00, 0.00, 0.00, 0.00, 0.00, 0.00, 0.00
11, 11955.08, 44540.12, 2043.37, 21291.98, -1214.91, 654.53, 11676.66, -46353.49, -24682.09, 30876.63, 2694.46, 13270.95, 0.00, 0.00, 0.00, 0.00, 0.00, 0.00, 0.00
12, 11955.08, 44540.12, 2043.37, 21291.98, -1214.91, 654.53, 11676.66, -46353.49, -24677.02, 30904.17, 2712.07, 13265.80, 0.00, 0.00, 0.00, 0.00, 0.00, 0.00, 0.00
13, 11949.73, 44525.21, 2033.92, 21273.29, -1223.00, 640.09, 11658.09, -46366.64, -24677.02, 30904.17, 2712.07, 13265.80, 0.00, 0.00, 0.00, 0.00, 0.00, 0.00, 0.00
14, 11949.73, 44525.21, 2033.92, 21273.29, -1223.00, 640.09, 11658.09, -46366.64, -24669.53, 30885.26, 2702.39, 13280.83, 0.00, 0.00, 0.00, 0.00, 0.00, 0.00, 0.00
15, 11965.60, 44549.13, 2050.08, 21296.00, -1203.22, 657.72, 11681.09, -46345.94, -24669.53, 30885.26, 2702.39, 13280.83, 0.00, 0.00, 0.00, 0.00, 0.00, 0.00, 0.00
16, 11965.60, 44549.13, 2050.08, 21296.00, -1203.22, 657.72, 11681.09, -46345.94, -24672.88, 30905.42, 2717.91, 13265.71, 0.00, 0.00, 0.00, 0.00, -0.09, 0.36, 0.93
17, 11946.85, 44526.73, 2031.42, 21274.77, -1221.28, 640.98, 11661.06, -46360.13, -24672.88, 30905.42, 2717.91, 13265.71, 0.00, 0.00, 0.00, 0.00, 0.00, 0.00, 0.00
18, 11946.85, 44526.73, 2031.42, 21274.77, -1221.28, 640.98, 11661.06, -46360.13, -24673.93, 30881.59, 2687.86, 13281.92, 0.00, 0.00, 0.00, 0.00, 0.00, 0.00, 0.00
19, 11948.26, 44524.38, 2034.88, 21285.97, -1213.21, 650.17, 11672.97, -46350.18, -24673.93, 30881.59, 2687.86, 13281.92, 0.00, 0.00, 0.00, 0.00, 0.00, 0.00, 0.00
20, 11948.26, 44524.38, 2034.88, 21285.97, -1213.21, 650.17, 11672.97, -46350.18, -24675.52, 30904.73, 2711.62, 13264.82, 0.00, 0.00, 0.00, 0.00, 0.00, 0.00, 0.00
21, 11947.59, 44523.11, 2033.56, 21280.89, -1217.95, 644.04, 11663.16, -46360.42, -24675.52, 30904.73, 2711.62, 13264.82, 0.00, 0.00, 0.00, 0.00, 0.00, 0.00, 0.00
22, 11947.59, 44523.11, 2033.56, 21280.89, -1217.95, 644.04, 11663.16, -46360.42, -24681.31, 30870.82, 2686.68, 13269.40, 0.00, 0.00, 0.00, 0.00, 0.00, 0.00, 0.00
23, 11949.55, 44528.59, 2033.85, 21286.66, -1215.13, 648.33, 11669.98, -46355.04, -24681.31, 30870.82, 2686.68, 13269.40, 0.00, 0.00, 0.00, 0.00, 0.00, 0.00, 0.00
24, 11949.55, 44528.59, 2033.85, 21286.66, -1215.13, 648.33, 11669.98, -46355.04, -24674.96, 30906.92, 2709.52, 13266.92, 0.00, 0.00, 0.00, 0.00, 0.00, 0.00, 0.00
25, 11952.44, 44535.83, 2036.00, 21282.01, -1212.56, 648.94, 11669.67, -46351.62, -24674.96, 30906.92, 2709.52, 13266.92, 0.00, 0.00, 0.00, 0.00, 0.00, 0.00, 0.00
26, 11952.44, 44535.83, 2036.00, 21282.01, -1212.56, 648.94, 11669.67, -46351.62, -24669.31, 30881.21, 2691.08, 13280.53, 0.00, 0.00, 0.00, 0.00, -0.08, 0.36, 0.93
27, 11939.94, 44539.29, 2031.30, 21281.18, -1214.95, 644.80, 11667.43, -46353.38, -24669.31, 30881.21, 2691.08, 13280.53, 0.00, 0.00, 0.00, 0.00, 0.00, 0.00, 0.00
28, 11939.94, 44539.29, 2031.30, 21281.18, -1214.95, 644.80, 11667.43, -46353.38, -24670.38, 30906.90, 2711.13, 13266.36, 0.00, 0.00, 0.00, 0.00, 0.00, 0.00, 0.00
29, 11952.28, 44534.80, 2035.06, 21285.61, -1209.30, 648.33, 11672.91, -46348.26, -24670.38, 30906.90, 2711.13, 13266.36, 0.00, 0.00, 0.00, 0.00, 0.00, 0.00, 0.00
30, 11952.28, 44534.80, 2035.06, 21285.61, -1209.30, 648.33, 11672.91, -46348.26, -24671.09, 30880.37, 2697.43, 13278.21, 0.00, 0.00, 0.00, 0.00, 0.00, 0.00, 0.00
31, 11942.67, 44520.36, 2030.41, 21277.25, -1215.76, 643.82, 11665.38, -46351.53, -24671.09, 30880.37, 2697.43, 13278.21, 0.00, 0.00, 0.00, 0.00, 0.00, 0.00, 0.00
32, 11942.67, 44520.36, 2030.41, 21277.25, -1215.76, 643.82, 11665.38, -46351.53, -24665.93, 30915.57, 2716.59, 13277.72, 0.00, 0.00, 0.00, 0.00, 0.00, 0.00, 0.00
33, 11955.61, 44535.47, 2042.19, 21297.43, -1199.62, 658.75, 11683.50, -46335.72, -24665.93, 30915.57, 2716.59, 13277.72, 0.00, 0.00, 0.00, 0.00, 0.00, 0.00, 0.00
34, 11955.61, 44535.47, 2042.19, 21297.43, -1199.62, 658.75, 11683.50, -46335.72, -24669.66, 30889.53, 2697.03, 13284.07, 0.00, 0.00, 0.00, 0.00, 0.00, 0.00, 0.00
35, 11935.81, 44518.88, 2025.27, 21273.56, -1223.83, 637.87, 11658.36, -46359.28, -24669.66, 30889.53, 2697.03, 13284.07, 0.00, 0.00, 0.00, 0.00, 0.00, 0.00, 0.00
36, 11935.81, 44518.88, 2025.27, 21273.56, -1223.83, 637.87, 11658.36, -46359.28, -24671.34, 30903.30, 2707.56, 13269.05, 0.00, 0.00, 0.00, 0.00, -0.08, 0.36, 0.93
37, 11963.91, 44550.29, 2041.61, 21297.08, -1203.57, 658.17, 11680.26, -46341.42, -24671.34, 30903.30, 2707.56, 13269.05, 0.00, 0.00, 0.00, 0.00, 0.00, 0.00, 0.00
38, 11963.91, 44550.29, 2041.61, 21297.08, -1203.57, 658.17, 11680.26, -46341.42, -24673.98, 30884.83, 2700.16, 13275.73, 0.00, 0.00, 0.00, 0.00, 0.00, 0.00, 0.00
39, 11939.79, 44526.21, 2023.75, 21271.62, -1225.39, 636.26, 11654.67, -46360.78, -24673.98, 30884.83, 2700.16, 13275.73, 0.00, 0.00, 0.00, 0.00, 0.00, 0.00, 0.00
40, 11939.79, 44526.21, 2023.75, 21271.62, -1225.39, 636.26, 11654.67, -46360.78, -24670.18, 30904.79, 2703.58, 13277.05, 0.00, 0.00, 0.00, 0.00, 0.00, 0.00, 0.00
41, 11960.42, 44542.00, 2046.28, 21301.50, -1199.57, 662.51, 11684.51, -46336.75, -24670.18, 30904.79, 2703.58, 13277.05, 0.00, 0.00, 0.00, 0.00, 0.00, 0.00, 0.00
42, 11960.42, 44542.00, 2046.28, 21301.50, -1199.57, 662.51, 11684.51, -46336.75, -24670.20, 30894.11, 2708.32, 13282.17, 0.00, 0.00, 0.00, 0.00, 0.00, 0.00, 0.00
43, 11945.87, 44521.43, 2027.84, 21274.88, -1225.75, 637.20, 11653.86, -46362.07, -24670.20, 30894.11, 2708.32, 13282.17, 0.00, 0.00, 0.00, 0.00, 0.00, 0.00, 0.00
44, 11945.87, 44521.43, 2027.84, 21274.88, -1225.75, 637.20, 11653.86, -46362.07, -24669.33, 30901.76, 2707.47, 13278.19, 0.00, 0.00, 0.00, 0.00, 0.00, 0.00, 0.00
45, 11969.85, 44554.27, 2051.40, 21306.64, -1199.33, 664.27, 11686.68, -46334.23, -24669.33, 30901.76, 2707.47, 13278.19, 0.00, 0.00, 0.00, 0.00, -0.08, 0.36, 0.94
46, 11969.85, 44554.27, 2051.40, 21306.64, -1199.33, 664.27, 11686.68, -46334.23, -24665.75, 30901.08, 2714.37, 13283.35, 0.00, 0.00, 0.00, 0.00, 0.00, 0.00, 0.00
47, 11942.25, 44523.67, 2029.81, 21274.95, -1218.93, 639.73, 11658.47, -46357.54, -24665.75, 30901.08, 2714.37, 13283.35, 0.00, 0.00, 0.00, 0.00, 0.00, 0.00, 0.00
48, 11942.25, 44523.67, 2029.81, 21274.95, -1218.93, 639.73, 11658.47, -46357.54, -24663.18, 30901.91, 2711.56, 13282.30, 0.00, 0.00, 0.00, 0.00, 0.00, 0.00, 0.00
49, 11964.75, 44559.23, 2051.62, 21305.82, -1194.81, 665.50, 11688.26, -46332.95, -24663.18, 30901.91, 2711.56, 13282.30, 0.00, 0.00, 0.00, 0.00, 0.00, 0.00, 0.00
50, 11964.75, 44559.23, 2051.62, 21305.82, -1194.81, 665.50, 11688.26, -46332.95, -24671.70, 30901.49, 2707.40, 13275.66, 0.00, 0.00, 0.00, 0.00, 0.00, 0.00, 0.00
51, 11932.48, 44515.15, 2023.26, 21268.87, -1228.32, 634.07, 11651.63, -46366.52, -24671.70, 30901.49, 2707.40, 13275.66, 0.00, 0.00, 0.00, 0.00, 0.00, 0.00, 0.00
52, 11932.48, 44515.15, 2023.26, 21268.87, -1228.32, 634.07, 11651.63, -46366.52, -24667.27, 30896.59, 2703.89, 13283.17, 0.00, 0.00, 0.00, 0.00, 0.00, 0.00, 0.00
53, 11964.20, 44554.76, 2046.19, 21303.34, -1196.67, 662.22, 11689.16, -46333.85, -24667.27, 30896.59, 2703.89, 13283.17, 0.00, 0.00, 0.00, 0.00, 0.00, 0.00, 0.00
54, 11964.20, 44554.76, 2046.19, 21303.34, -1196.67, 662.22, 11689.16, -46333.85, -24666.78, 30911.23, 2715.00, 13280.65, 0.00, 0.00, 0.00, 0.00, 0.00, 0.00, 0.00
55, 11944.71, 44519.98, 2027.53, 21274.90, -1219.33, 639.95, 11657.66, -46358.70, -24666.78, 30911.23, 2715.00, 13280.65, 0.00, 0.00, 0.00, 0.00, -0.08, 0.37, 0.94
56, 11944.71, 44519.98, 2027.53, 21274.90, -1219.33, 639.95, 11657.66, -46358.70, -24664.93, 30894.71, 2702.10, 13286.57, 0.00, 0.00, 0.00, 0.00, 0.00, 0.00, 0.00
57, 11963.17, 44549.37, 2044.56, 21305.15, -1198.14, 664.52, 11686.16, -46334.83, -24664.93, 30894.71, 2702.10, 13286.57, 0.00, 0.00, 0.00, 0.00, 0.00, 0.00, 0.00
58, 11963.17, 44549.37, 2044.56, 21305.15, -1198.14, 664.52, 11686.16, -46334.83, -24664.28, 30911.90, 2721.41, 13275.64, 0.00, 0.00, 0.00, 0.00, 0.00, 0.00, 0.00
59, 11944.15, 44528.72, 2029.38, 21276.60, -1220.43, 637.83, 11657.62, -46359.64, -24664.28, 30911.90, 2721.41, 13275.64, 0.00, 0.00, 0.00, 0.00, 0.00, 0.00, 0.00
60, 11944.15, 44528.72, 2029.38, 21276.60, -1220.43, 637.83, 11657.62, -46359.64, -24664.54, 30893.04, 2700.85, 13286.59, 0.00, 0.00, 0.00, 0.00, 0.00, 0.00, 0.00
61, 11959.23, 44550.54, 2045.97, 21299.56, -1200.80, 657.54, 11683.23, -46339.28, -24664.54, 30893.04, 2700.85, 13286.59, 0.00, 0.00, 0.00, 0.00, 0.00, 0.00, 0.00
62, 11959.23, 44550.54, 2045.97, 21299.56, -1200.80, 657.54, 11683.23, -46339.28, -24663.34, 30919.70, 2723.11, 13280.36, 0.00, 0.00, 0.00, 0.00, 0.00, 0.00, 0.00
63, 11949.82, 44534.39, 2032.35, 21279.29, -1217.07, 642.17, 11663.65, -46353.43, -24663.34, 30919.70, 2723.11, 13280.36, 0.00, 0.00, 0.00, 0.00, 0.00, 0.00, 0.00
64, 11949.82, 44534.39, 2032.35, 21279.29, -1217.07, 642.17, 11663.65, -46353.43, -24658.67, 30892.14, 2703.51, 13288.47, 0.00, 0.00, 0.00, 0.00, 0.00, 0.00, 0.00
65, 11963.39, 44564.50, 2044.60, 21295.82, -1202.41, 654.82, 11681.76, -46336.15, -24658.67, 30892.14, 2703.51, 13288.47, 0.00, 0.00, 0.00, 0.00, -0.08, 0.37, 0.93
66, 11963.39, 44564.50, 2044.60, 21295.82, -1202.41, 654.82, 11681.76, -46336.15, -24656.37, 30920.93, 2728.88, 13278.79, 0.00, 0.00, 0.00, 0.00, 0.00, 0.00, 0.00
67, 11956.51, 44534.64, 2037.85, 21286.64, -1208.18, 645.52, 11668.04, -46348.00, -24656.37, 30920.93, 2728.88, 13278.79, 0.00, 0.00, 0.00, 0.00, 0.00, 0.00, 0.00
68, 11956.51, 44534.64, 2037.85, 21286.64, -1208.18, 645.52, 11668.04, -46348.00, -24655.13, 30891.61, 2712.59, 13287.64, 0.00, 0.00, 0.00, 0.00, 0.00, 0.00, 0.00
69, 11960.13, 44544.23, 2044.04, 21293.01, -1202.59, 653.36, 11678.07, -46340.48, -24655.13, 30891.61, 2712.59, 13287.64, 0.00, 0.00, 0.00, 0.00, 0.00, 0.00, 0.00
70, 11960.13, 44544.23, 2044.04, 21293.01, -1202.59, 653.36, 11678.07, -46340.48, -24659.90, 30917.58, 2732.48, 13274.07, 0.00, 0.00, 0.00, 0.00, 0.00, 0.00, 0.00
71, 11955.21, 44548.66, 2044.29, 21286.50, -1206.93, 647.17, 11668.91, -46348.13, -24659.90, 30917.58, 2732.48, 13274.07, 0.00, 0.00, 0.00, 0.00, 0.00, 0.00, 0.00
72, 11955.21, 44548.66, 2044.29, 21286.50, -1206.93, 647.17, 11668.91, -46348.13, -24656.19, 30894.38, 2713.30, 13290.06, 0.00, 0.00, 0.00, 0.00, 0.00, 0.00, 0.00
73, 11955.52, 44548.23, 2044.34, 21292.25, -1203.75, 650.50, 11675.23, -46342.74, -24656.19, 30894.38, 2713.30, 13290.06, 0.00, 0.00, 0.00, 0.00, 0.00, 0.00, 0.00
74, 11955.52, 44548.23, 2044.34, 21292.25, -1203.75, 650.50, 11675.23, -46342.74, -24657.57, 30922.95, 2731.90, 13279.93, 0.00, 0.00, 0.00, 0.00, 0.00, 0.00, 0.00
75, 11961.87, 44545.46, 2045.48, 21294.17, -1199.75, 653.05, 11677.80, -46338.61, -24657.57, 30922.95, 2731.90, 13279.93, 0.00, 0.00, 0.00, 0.00, -0.08, 0.37, 0.94
76, 11961.87, 44545.46, 2045.48, 21294.17, -1199.75, 653.05, 11677.80, -46338.61, -24660.25, 30893.37, 2707.65, 13293.43, 0.00, 0.00, 0.00, 0.00, 0.00, 0.00, 0.00
77, 11955.70, 44544.50, 2037.52, 21284.85, -1209.43, 645.72, 11669.42, -46344.69, -24660.25, 30893.37, 2707.65, 13293.43, 0.00, 0.00, 0.00, 0.00, 0.00, 0.00, 0.00
78, 11955.70, 44544.50, 2037.52, 21284.85, -1209.43, 645.72, 11669.42, -46344.69, -24660.32, 30915.99, 2731.72, 13280.94, 0.00, 0.00, 0.00, 0.00, 0.00, 0.00, 0.00
79, 11965.38, 44555.95, 2047.53, 21298.33, -1196.58, 655.55, 11679.79, -46333.91, -24660.32, 30915.99, 2731.72, 13280.94, 0.00, 0.00, 0.00, 0.00, 0.00, 0.00, 0.00
80, 11965.38, 44555.95, 2047.53, 21298.33, -1196.58, 655.55, 11679.79, -46333.91, -24657.39, 30893.60, 2711.96, 13283.48, 0.00, 0.00, 0.00, 0.00, 0.00, 0.00, 0.00
81, 11948.79, 44538.33, 2035.53, 21282.44, -1210.88, 644.09, 11665.17, -46347.01, -24657.39, 30893.60, 2711.96, 13283.48, 0.00, 0.00, 0.00, 0.00, 0.00, 0.00, 0.00
82, 11948.79, 44538.33, 2035.53, 21282.44, -1210.88, 644.09, 11665.17, -46347.01, -24657.88, 30919.79, 2726.87, 13284.49, 0.00, 0.00, 0.00, 0.00, 0.00, 0.00, 0.00
83, 11967.48, 44557.39, 2048.20, 21302.11, -1191.46, 658.82, 11687.26, -46329.67, -24657.88, 30919.79, 2726.87, 13284.49, 0.00, 0.00, 0.00, 0.00, 0.00, 0.00, 0.00
84, 11967.48, 44557.39, 2048.20, 21302.11, -1191.46, 658.82, 11687.26, -46329.67, -24657.13, 30901.20, 2718.13, 13292.74, 0.00, 0.00, 0.00, 0.00, -0.08, 0.37, 0.93
85, 11944.79, 44528.43, 2030.34, 21277.32, -1210.70, 641.67, 11665.20, -46345.80, -24657.13, 30901.20, 2718.13, 13292.74, 0.00, 0.00, 0.00, 0.00, 0.00, 0.00, 0.00
86, 11944.79, 44528.43, 2030.34, 21277.32, -1210.70, 641.67, 11665.20, -46345.80, -24650.53, 30928.35, 2726.11, 13295.69, 0.00, 0.00, 0.00, 0.00, 0.00, 0.00, 0.00
87, 11962.27, 44552.55, 2049.86, 21304.97, -1187.41, 664.99, 11693.54, -46321.84, -24650.53, 30928.35, 2726.11, 13295.69, 0.00, 0.00, 0.00, 0.00, 0.00, 0.00, 0.00
88, 11962.27, 44552.55, 2049.86, 21304.97, -1187.41, 664.99, 11693.54, -46321.84, -24657.55, 30902.11, 2714.51, 13289.81, 0.00, 0.00, 0.00, 0.00, 0.00, 0.00, 0.00
89, 11936.21, 44525.07, 2023.93, 21269.72, -1220.83, 633.47, 11654.89, -46357.92, -24657.55, 30902.11, 2714.51, 13289.81, 0.00, 0.00, 0.00, 0.00, 0.00, 0.00, 0.00
90, 11936.21, 44525.07, 2023.93, 21269.72, -1220.83, 633.47, 11654.89, -46357.92, -24659.85, 30906.47, 2718.08, 13281.27, 0.00, 0.00, 0.00, 0.00, 0.00, 0.00, 0.00
91, 11956.08, 44568.41, 2046.64, 21296.61, -1195.53, 657.43, 11685.69, -46328.70, -24659.85, 30906.47, 2718.08, 13281.27, 0.00, 0.00, 0.00, 0.00, 0.00, 0.00, 0.00
92, 11956.08, 44568.41, 2046.64, 21296.61, -1195.53, 657.43, 11685.69, -46328.70, -24659.38, 30900.57, 2715.20, 13281.74, 0.00, 0.00, 0.00, 0.00, 0.00, 0.00, 0.00
93, 11938.83, 44523.09, 2024.58, 21269.52, -1218.42, 632.08, 11656.93, -46354.61, -24659.38, 30900.57, 2715.20, 13281.74, 0.00, 0.00, 0.00, 0.00, 0.00, 0.00, 0.00
94, 11938.83, 44523.09, 2024.58, 21269.52, -1218.42, 632.08, 11656.93, -46354.61, -24656.70, 30905.58, 2718.82, 13283.80, 0.00, 0.00, 0.00, 0.00, -0.08, 0.37, 0.94
95, 11968.96, 44553.84, 2050.66, 21303.98, -1188.00, 661.92, 11691.19, -46326.56, -24656.70, 30905.58, 2718.82, 13283.80, 0.00, 0.00, 0.00, 0.00, 0.00, 0.00, 0.00
96, 11968.96, 44553.84, 2050.66, 21303.98, -1188.00, 661.92, 11691.19, -46326.56, -24653.79, 30906.83, 2728.92, 13282.68, 0.00, 0.00, 0.00, 0.00, 0.00, 0.00, 0.00
97, 11945.40, 44531.69, 2032.35, 21275.57, -1214.24, 636.53, 11658.33, -46353.79, -24653.79, 30906.83, 2728.92, 13282.68, 0.00, 0.00, 0.00, 0.00, 0.00, 0.00, 0.00
98, 11945.40, 44531.69, 2032.35, 21275.57, -1214.24, 636.53, 11658.33, -46353.79, -24654.85, 30902.49, 2719.31, 13283.24, 0.00, 0.00, 0.00, 0.00, 0.00, 0.00, 0.00
99, 11966.18, 44563.39, 2051.89, 21307.83, -1188.76, 662.01, 11692.89, -46322.67, -24654.85, 30902.49, 2719.31, 13283.24, 0.00, 0.00, 0.00, 0.00, 0.00, 0.00, 0.00
100, 11966.18, 44563.39, 2051.89, 21307.83, -1188.76, 662.01, 11692.89, -46322.67, -24651.29, 30913.27, 2728.32, 13282.59, 0.00, 0.00, 0.00, 0.00, 0.00, 0.00, 0.00
101, 11948.44, 44540.57, 2032.47, 21278.46, -1213.39, 637.38, 11661.69, -46349.31, -24651.29, 30913.27, 2728.32, 13282.59, 0.00, 0.00, 0.00, 0.00, 0.00, 0.00, 0.00
102, 11948.44, 44540.57, 2032.47, 21278.46, -1213.39, 637.38, 11661.69, -46349.31, -24652.07, 30897.75, 2715.78, 13280.42, 0.00, 0.00, 0.00, 0.00, 0.00, 0.00, 0.00
103, 11968.17, 44562.70, 2050.21, 21305.17, -1191.48, 658.66, 11688.58, -46329.20, -24652.07, 30897.75, 2715.78, 13280.42, 0.00, 0.00, 0.00, 0.00, 0.00, 0.00, 0.00
104, 11968.17, 44562.70, 2050.21, 21305.17, -1191.48, 658.66, 11688.58, -46329.20, -24652.05, 30917.40, 2732.99, 13278.54, 0.00, 0.00, 0.00, 0.00, -0.08, 0.37, 0.94
105, 11956.64, 44536.43, 2035.39, 21282.53, -1212.69, 638.57, 11662.00, -46348.89, -24652.05, 30917.40, 2732.99, 13278.54, 0.00, 0.00, 0.00, 0.00, 0.00, 0.00, 0.00
106, 11956.64, 44536.43, 2035.39, 21282.53, -1212.69, 638.57, 11662.00, -46348.89, -24655.52, 30894.20, 2713.14, 13282.95, 0.00, 0.00, 0.00, 0.00, 0.00, 0.00, 0.00
107, 11971.10, 44564.48, 2052.87, 21309.19, -1191.64, 660.52, 11689.85, -46327.57, -24655.52, 30894.20, 2713.14, 13282.95, 0.00, 0.00, 0.00, 0.00, 0.00, 0.00, 0.00
108, 11971.10, 44564.48, 2052.87, 21309.19, -1191.64, 660.52, 11689.85, -46327.57, -24646.15, 30922.86, 2734.85, 13282.28, 0.00, 0.00, 0.00, 0.00, 0.00, 0.00, 0.00
109, 11960.24, 44556.82, 2043.82, 21288.00, -1206.26, 645.45, 11669.22, -46342.90, -24646.15, 30922.86, 2734.85, 13282.28, 0.00, 0.00, 0.00, 0.00, 0.00, 0.00, 0.00
110, 11960.24, 44556.82, 2043.82, 21288.00, -1206.26, 645.45, 11669.22, -46342.90, -24643.47, 30899.43, 2719.40, 13292.02, 0.00, 0.00, 0.00, 0.00, 0.00, 0.00, 0.00
111, 11961.63, 44557.80, 2049.83, 21302.46, -1194.45, 657.07, 11684.96, -46329.69, -24643.47, 30899.43, 2719.40, 13292.02, 0.00, 0.00, 0.00, 0.00, 0.00, 0.00, 0.00
112, 11961.63, 44557.80, 2049.83, 21302.46, -1194.45, 657.07, 11684.96, -46329.69, -24648.72, 30915.88, 2729.04, 13274.61, 0.00, 0.00, 0.00, 0.00, 0.00, 0.00, 0.00
113, 11949.31, 44535.11, 2030.30, 21281.41, -1211.53, 640.58, 11663.56, -46348.13, -24648.72, 30915.88, 2729.04, 13274.61, 0.00, 0.00, 0.00, 0.00, 0.00, 0.00, 0.00
114, 11949.31, 44535.11, 2030.30, 21281.41, -1211.53, 640.58, 11663.56, -46348.13, -24643.40, 30891.67, 2704.81, 13286.19, 0.00, 0.00, 0.00, 0.00, -0.08, 0.37, 0.94
115, 11957.29, 44547.32, 2036.62, 21295.33, -1202.37, 651.73, 11681.65, -46330.49, -24643.40, 30891.67, 2704.81, 13286.19, 0.00, 0.00, 0.00, 0.00, 0.00, 0.00, 0.00
116, 11957.29, 44547.32, 2036.62, 21295.33, -1202.37, 651.73, 11681.65, -46330.49, -24642.55, 30926.72, 2735.47, 13283.33, 0.00, 0.00, 0.00, 0.00, 0.00, 0.00, 0.00
117, 11962.79, 44552.50, 2039.10, 21287.60, -1203.69, 644.98, 11672.21, -46338.00, -24642.55, 30926.72, 2735.47, 13283.33, 0.00, 0.00, 0.00, 0.00, 0.00, 0.00, 0.00
118, 11962.79, 44552.50, 2039.10, 21287.60, -1203.69, 644.98, 11672.21, -46338.00, -24641.88, 30897.64, 2717.03, 13290.44, 0.00, 0.00, 0.00, 0.00, 0.00, 0.00, 0.00
119, 11964.82, 44556.70, 2041.59, 21292.43, -1199.28, 647.98, 11678.79, -46333.85, -24641.88, 30897.64, 2717.03, 13290.44, 0.00, 0.00, 0.00, 0.00, 0.00, 0.00, 0.00
120, 11964.82, 44556.70, 2041.59, 21292.43, -1199.28, 647.98, 11678.79, -46333.85, -24642.57, 30926.61, 2739.97, 13281.03, 0.00, 0.00, 0.00, 0.00, 0.00, 0.00, 0.00
121, 11960.57, 44557.13, 2043.62, 21292.14, -1201.07, 647.11, 11673.71, -46336.71, -24642.57, 30926.61, 2739.97, 13281.03, 0.00, 0.00, 0.00, 0.00, 0.00, 0.00, 0.00
122, 11960.57, 44557.13, 2043.62, 21292.14, -1201.07, 647.11, 11673.71, -46336.71, -24638.26, 30895.34, 2721.84, 13287.96, 0.00, 0.00, 0.00, 0.00, 0.00, 0.00, 0.00
123, 11964.42, 44558.20, 2043.44, 21291.27, -1201.34, 648.71, 11675.30, -46334.43, -24638.26, 30895.34, 2721.84, 13287.96, 0.00, 0.00, 0.00, 0.00, -0.08, 0.37, 0.94
124, 11964.42, 44558.20, 2043.44, 21291.27, -1201.34, 648.71, 11675.30, -46334.43, -24639.87, 30925.78, 2741.49, 13282.01, 0.00, 0.00, 0.00, 0.00, 0.00, 0.00, 0.00
125, 11964.29, 44567.23, 2046.17, 21298.13, -1198.68, 650.68, 11677.38, -46333.98, -24639.87, 30925.78, 2741.49, 13282.01, 0.00, 0.00, 0.00, 0.00, 0.00, 0.00, 0.00
126, 11964.29, 44567.23, 2046.17, 21298.13, -1198.68, 650.68, 11677.38, -46333.98, -24645.84, 30892.55, 2708.23, 13287.46, 0.00, 0.00, 0.00, 0.00, 0.00, 0.00, 0.00
127, 11949.33, 44544.16, 2030.70, 21282.06, -1212.07, 637.36, 11665.22, -46344.48, -24645.84, 30892.55, 2708.23, 13287.46, 0.00, 0.00, 0.00, 0.00, 0.00, 0.00, 0.00
128, 11949.33, 44544.16, 2030.70, 21282.06, -1212.07, 637.36, 11665.22, -46344.48, -24644.32, 30922.90, 2728.90, 13282.95, 0.00, 0.00, 0.00, 0.00, 0.00, 0.00, 0.00
129, 11964.78, 44552.30, 2044.67, 21299.22, -1193.40, 654.77, 11686.90, -46323.09, -24644.32, 30922.90, 2728.90, 13282.95, 0.00, 0.00, 0.00, 0.00, 0.00, 0.00, 0.00
130, 11964.78, 44552.30, 2044.67, 21299.22, -1193.40, 654.77, 11686.90, -46323.09, -24634.71, 30906.20, 2717.41, 13294.68, 0.00, 0.00, 0.00, 0.00, 0.00, 0.00, 0.00
131, 11951.54, 44539.67, 2033.09, 21282.08, -1211.96, 640.89, 11667.97, -46339.01, -24634.71, 30906.20, 2717.41, 13294.68, 0.00, 0.00, 0.00, 0.00, 0.00, 0.00, 0.00
132, 11951.54, 44539.67, 2033.09, 21282.08, -1211.96, 640.89, 11667.97, -46339.01, -24638.35, 30924.02, 2733.13, 13284.54, 0.00, 0.00, 0.00, 0.00, 0.00, 0.00, 0.00
133, 11971.30, 44566.20, 2053.34, 21308.56, -1185.51, 663.62, 11693.56, -46316.05, -24638.35, 30924.02, 2733.13, 13284.54, 0.00, 0.00, 0.00, 0.00, -0.08, 0.36, 0.94
134, 11971.30, 44566.20, 2053.34, 21308.56, -1185.51, 663.62, 11693.56, -46316.05, -24632.74, 30909.20, 2726.73, 13291.60, 0.00, 0.00, 0.00, 0.00, 0.00, 0.00, 0.00
135, 11952.24, 44549.30, 2031.26, 21277.50, -1211.82, 635.97, 11664.03, -46341.94, -24632.74, 30909.20, 2726.73, 13291.60, 0.00, 0.00, 0.00, 0.00, 0.00, 0.00, 0.00
136, 11952.24, 44549.30, 2031.26, 21277.50, -1211.82, 635.97, 11664.03, -46341.94, -24639.02, 30922.38, 2730.53, 13285.56, 0.00, 0.00, 0.00, 0.00, 0.00, 0.00, 0.00
137, 11970.07, 44567.21, 2045.59, 21304.10, -1192.85, 657.92, 11687.93, -46321.98, -24639.02, 30922.38, 2730.53, 13285.56, 0.00, 0.00, 0.00, 0.00, 0.00, 0.00, 0.00
138, 11970.07, 44567.21, 2045.59, 21304.10, -1192.85, 657.92, 11687.93, -46321.98, -24637.70, 30910.67, 2719.16, 13290.97, 0.00, 0.00, 0.00, 0.00, 0.00, 0.00, 0.00
139, 11942.18, 44527.63, 2025.74, 21277.68, -1217.72, 641.99, 11660.26, -46348.00, -24637.70, 30910.67, 2719.16, 13290.97, 0.00, 0.00, 0.00, 0.00, 0.00, 0.00, 0.00
140, 11942.18, 44527.63, 2025.74, 21277.68, -1217.72, 641.99, 11660.26, -46348.00, -24636.36, 30920.37, 2724.97, 13287.91, 0.00, 0.00, 0.00, 0.00, 0.00, 0.00, 0.00
141, 11974.50, 44571.32, 2053.01, 21313.10, -1185.85, 661.10, 11697.23, -46315.54, -24636.36, 30920.37, 2724.97, 13287.91, 0.00, 0.00, 0.00, 0.00, 0.00, 0.00, 0.00
142, 11974.50, 44571.32, 2053.01, 21313.10, -1185.85, 661.10, 11697.23, -46315.54, -24630.86, 30917.87, 2731.81, 13291.69, 0.00, 0.00, 0.00, 0.00, 0.00, 0.00, 0.00
143, 11956.31, 44542.73, 2035.53, 21284.45, -1209.39, 649.25, 11665.58, -46342.29, -24630.86, 30917.87, 2731.81, 13291.69, 0.00, 0.00, 0.00, 0.00, -0.08, 0.37, 0.94
144, 11956.31, 44542.73, 2035.53, 21284.45, -1209.39, 649.25, 11665.58, -46342.29, -24641.34, 30909.27, 2725.24, 13284.49, 0.00, 0.00, 0.00, 0.00, 0.00, 0.00, 0.00
145, 11978.21, 44573.36, 2053.99, 21309.93, -1189.87, 661.19, 11692.82, -46320.03, -24641.34, 30909.27, 2725.24, 13284.49, 0.00, 0.00, 0.00, 0.00, 0.00, 0.00, 0.00
146, 11978.21, 44573.36, 2053.99, 21309.93, -1189.87, 661.19, 11692.82, -46320.03, -24636.03, 30913.02, 2731.61, 13279.68, 0.00, 0.00, 0.00, 0.00, 0.00, 0.00, 0.00
147, 11959.01, 44548.01, 2036.49, 21284.60, -1213.25, 643.93, 11659.03, -46356.04, -24636.03, 30913.02, 2731.61, 13279.68, 0.00, 0.00, 0.00, 0.00, 0.00, 0.00, 0.00
148, 11959.01, 44548.01, 2036.49, 21284.60, -1213.25, 643.93, 11659.03, -46356.04, -24626.97, 30900.46, 2719.69, 13280.33, 0.00, 0.00, 0.00, 0.00, 0.00, 0.00, 0.00
149, 11969.76, 44567.77, 2045.14, 21308.54, -1195.48, 672.50, 11676.60, -46353.05, -24626.97, 30900.46, 2719.69, 13280.33, 0.00, 0.00, 0.00, 0.00, 0.00, 0.00, 0.00
150, 11969.76, 44567.77, 2045.14, 21308.54, -1195.48, 672.50, 11676.60, -46353.05, -24629.25, 30916.51, 2722.17, 13278.59, 0.00, 0.00, 0.00, 0.00, 0.00, 0.00, 0.00
151, 11954.76, 44542.67, 2033.83, 21281.68, -1211.29, 635.21, 11666.85, -46336.64, -24629.25, 30916.51, 2722.17, 13278.59, 0.00, 0.00, 0.00, 0.00, 0.00, 0.00, 0.00
152, 11954.76, 44542.67, 2033.83, 21281.68, -1211.29, 635.21, 11666.85, -46336.64, -24641.14, 30910.88, 2719.27, 13297.92, 0.00, 0.00, 0.00, 0.00, 0.00, 0.00, 0.00
153, 11969.69, 44571.99, 2050.68, 21310.42, -1190.43, 657.43, 11696.00, -46320.28, -24641.14, 30910.88, 2719.27, 13297.92, 0.00, 0.00, 0.00, 0.00, -0.08, 0.37, 0.94
154, 11969.69, 44571.99, 2050.68, 21310.42, -1190.43, 657.43, 11696.00, -46320.28, -24612.94, 30920.98, 2730.20, 13277.09, 0.00, 0.00, 0.00, 0.00, 0.00, 0.00, 0.00
155, 11935.63, 44549.13, 2032.82, 21288.34, -1216.16, 653.23, 11650.78, -46373.34, -24612.94, 30920.98, 2730.20, 13277.09, 0.00, 0.00, 0.00, 0.00, 0.00, 0.00, 0.00
156, 11935.63, 44549.13, 2032.82, 21288.34, -1216.16, 653.23, 11650.78, -46373.34, -24652.68, 30892.72, 2716.97, 13284.02, 0.00, 0.00, 0.00, 0.00, 0.00, 0.00, 0.00
157, 11969.11, 44572.77, 2049.05, 21314.60, -1196.20, 675.09, 11686.70, -46311.34, -24652.68, 30892.72, 2716.97, 13284.02, 0.00, 0.00, 0.00, 0.00, 0.00, 0.00, 0.00
158, 11969.11, 44572.77, 2049.05, 21314.60, -1196.20, 675.09, 11686.70, -46311.34, -24632.83, 30914.94, 2734.09, 13266.16, 0.00, 0.00, 0.00, 0.00, 0.00, 0.00, 0.00
159, 11945.55, 44554.85, 2032.96, 21285.10, -1213.92, 647.42, 11656.55, -46370.23, -24632.83, 30914.94, 2734.09, 13266.16, 0.00, 0.00, 0.00, 0.00, 0.00, 0.00, 0.00
160, 11945.55, 44554.85, 2032.96, 21285.10, -1213.92, 647.42, 11656.55, -46370.23, -24637.66, 30899.70, 2717.41, 13286.84, 0.00, 0.00, 0.00, 0.00, 0.00, 0.00, 0.00
161, 11949.58, 44564.23, 2054.42, 21303.34, -1197.29, 651.06, 11693.07, -46333.85, -24637.66, 30899.70, 2717.41, 13286.84, 0.00, 0.00, 0.00, 0.00, 0.00, 0.00, 0.00
162, 11949.58, 44564.23, 2054.42, 21303.34, -1197.29, 651.06, 11693.07, -46333.85, -24646.08, 30924.42, 2741.66, 13280.09, 0.00, 0.00, 0.00, 0.00, -0.08, 0.37, 0.94
163, 11959.55, 44545.82, 2028.33, 21288.78, -1196.71, 631.59, 11681.38, -46365.12, -24646.08, 30924.42, 2741.66, 13280.09, 0.00, 0.00, 0.00, 0.00, 0.00, 0.00, 0.00
164, 11959.55, 44545.82, 2028.33, 21288.78, -1196.71, 631.59, 11681.38, -46365.12, -24638.17, 30890.31, 2708.32, 13280.09, 0.00, 0.00, 0.00, 0.00, 0.00, 0.00, 0.00
165, 11948.75, 44571.14, 2040.94, 21303.38, -1200.51, 649.32, 11676.04, -46399.43, -24638.17, 30890.31, 2708.32, 13280.09, 0.00, 0.00, 0.00, 0.00, 0.00, 0.00, 0.00
166, 11948.75, 44571.14, 2040.94, 21303.38, -1200.51, 649.32, 11676.04, -46399.43, -24636.65, 30915.99, 2729.95, 13259.64, 0.00, 0.00, 0.00, 0.00, 0.00, 0.00, 0.00
167, 11946.49, 44542.02, 2050.46, 21303.18, -1195.89, 664.56, 11667.19, -46421.73, -24636.65, 30915.99, 2729.95, 13259.64, 0.00, 0.00, 0.00, 0.00, 0.00, 0.00, 0.00
168, 11946.49, 44542.02, 2050.46, 21303.18, -1195.89, 664.56, 11667.19, -46421.73, -24600.84, 30891.25, 2714.62, 13283.35, 0.00, 0.00, 0.00, 0.00, 0.00, 0.00, 0.00
169, 11954.58, 44577.27, 2046.57, 21308.01, -1195.37, 664.65, 11668.28, -46459.15, -24600.84, 30891.25, 2714.62, 13283.35, 0.00, 0.00, 0.00, 0.00, 0.00, 0.00, 0.00
170, 11954.58, 44577.27, 2046.57, 21308.01, -1195.37, 664.65, 11668.28, -46459.15, -24655.16, 30919.68, 2738.25, 13268.84, 0.00, 0.00, 0.00, 0.00, 0.00, 0.00, 0.00
171, 11956.48, 44553.15, 2030.70, 21310.35, -1187.62, 658.21, 11686.88, -46412.95, -24655.16, 30919.68, 2738.25, 13268.84, 0.00, 0.00, 0.00, 0.00, 0.00, 0.00, 0.00
172, 11956.48, 44553.15, 2030.70, 21310.35, -1187.62, 658.21, 11686.88, -46412.95, -24624.47, 30893.44, 2701.97, 13278.57, 0.00, 0.00, 0.00, 0.00, -0.08, 0.37, 0.94
173, 11940.10, 44558.11, 2028.38, 21304.79, -1216.05, 664.79, 11664.30, -46494.00, -24624.47, 30893.44, 2701.97, 13278.57, 0.00, 0.00, 0.00, 0.00, 0.00, 0.00, 0.00
174, 11940.10, 44558.11, 2028.38, 21304.79, -1216.05, 664.79, 11664.30, -46494.00, -24625.05, 30909.44, 2724.36, 13258.70, 0.00, 0.00, 0.00, 0.00, 0.00, 0.00, 0.00
175, 11946.11, 44579.68, 2057.03, 21299.29, -1190.99, 644.83, 11682.56, -46539.04, -24625.05, 30909.44, 2724.36, 13258.70, 0.00, 0.00, 0.00, 0.00, 0.00, 0.00, 0.00
176, 11946.11, 44579.68, 2057.03, 21299.29, -1190.99, 644.83, 11682.56, -46539.04, -24634.35, 30898.11, 2705.05, 13278.37, 0.00, 0.00, 0.00, 0.00, 0.00, 0.00, 0.00
177, 11932.17, 44547.90, 2014.03, 21296.65, -1183.77, 653.12, 11684.98, -46536.04, -24634.35, 30898.11, 2705.05, 13278.37, 0.00, 0.00, 0.00, 0.00, 0.00, 0.00, 0.00
178, 11932.17, 44547.90, 2014.03, 21296.65, -1183.77, 653.12, 11684.98, -46536.04, -24619.55, 30914.63, 2723.07, 13263.93, 0.00, 0.00, 0.00, 0.00, 0.00, 0.00, 0.00
179, 11952.06, 44523.64, 2040.78, 21338.90, -1192.20, 681.15, 11675.37, -46637.63, -24619.55, 30914.63, 2723.07, 13263.93, 0.00, 0.00, 0.00, 0.00, 0.00, 0.00, 0.00
180, 11952.06, 44523.64, 2040.78, 21338.90, -1192.20, 681.15, 11675.37, -46637.63, -24624.67, 30897.29, 2706.95, 13273.67, 0.00, 0.00, 0.00, 0.00, 0.00, 0.00, 0.00
181, 11936.28, 44543.94, 2031.86, 21306.51, -1196.49, 636.11, 11677.36, -46673.32, -24624.67, 30897.29, 2706.95, 13273.67, 0.00, 0.00, 0.00, 0.00, 0.00, 0.00, 0.00
182, 11936.28, 44543.94, 2031.86, 21306.51, -1196.49, 636.11, 11677.36, -46673.32, -24628.49, 30910.29, 2710.08, 13263.93, 0.00, 0.00, 0.00, 0.00, -0.07, 0.37, 0.94
183, 11922.17, 44571.25, 2036.78, 21328.82, -1178.72, 674.46, 11702.43, -46710.88, -24628.49, 30910.29, 2710.08, 13263.93, 0.00, 0.00, 0.00, 0.00, 0.00, 0.00, 0.00
184, 11922.17, 44571.25, 2036.78, 21328.82, -1178.72, 674.46, 11702.43, -46710.88, -24616.33, 30897.35, 2697.63, 13264.69, 0.00, 0.00, 0.00, 0.00, 0.00, 0.00, 0.00
185, 11934.83, 44570.43, 2029.63, 21320.05, -1200.91, 652.05, 11669.69, -46846.28, -24616.33, 30897.35, 2697.63, 13264.69, 0.00, 0.00, 0.00, 0.00, 0.00, 0.00, 0.00
186, 11934.83, 44570.43, 2029.63, 21320.05, -1200.91, 652.05, 11669.69, -46846.28, -24626.39, 30909.40, 2696.40, 13257.33, 0.00, 0.00, 0.00, 0.00, 0.00, 0.00, 0.00
187, 11971.33, 44591.97, 2030.43, 21339.50, -1166.83, 666.77, 11710.79, -46850.80, -24626.39, 30909.40, 2696.40, 13257.33, 0.00, 0.00, 0.00, 0.00, 0.00, 0.00, 0.00
188, 11971.33, 44591.97, 2030.43, 21339.50, -1166.83, 666.77, 11710.79, -46850.80, -24633.25, 30891.32, 2691.37, 13249.73, 0.00, 0.00, 0.00, 0.00, 0.00, 0.00, 0.00
189, 11919.18, 44534.15, 2006.18, 21306.22, -1180.08, 657.41, 11668.46, -46982.79, -24633.25, 30891.32, 2691.37, 13249.73, 0.00, 0.00, 0.00, 0.00, 0.00, 0.00, 0.00
190, 11919.18, 44534.15, 2006.18, 21306.22, -1180.08, 657.41, 11668.46, -46982.79, -24610.12, 30890.18, 2688.62, 13247.25, 0.00, 0.00, 0.00, 0.00, 0.00, 0.00, 0.00
191, 11929.82, 44546.02, 2036.89, 21338.07, -1176.93, 671.56, 11694.39, -47069.60, -24610.12, 30890.18, 2688.62, 13247.25, 0.00, 0.00, 0.00, 0.00, 0.00, 0.00, 0.00
192, 11929.82, 44546.02, 2036.89, 21338.07, -1176.93, 671.56, 11694.39, -47069.60, -24615.84, 30895.85, 2681.11, 13250.96, 0.00, 0.00, 0.00, 0.00, -0.08, 0.37, 0.94
193, 11867.73, 44533.17, 1999.23, 21320.90, -1211.71, 653.05, 11665.84, -47141.26, -24615.84, 30895.85, 2681.11, 13250.96, 0.00, 0.00, 0.00, 0.00, 0.00, 0.00, 0.00
194, 11867.73, 44533.17, 1999.23, 21320.90, -1211.71, 653.05, 11665.84, -47141.26, -24632.22, 30888.43, 2667.39, 13242.85, 0.00, 0.00, 0.00, 0.00, 0.00, 0.00, 0.00
195, 11919.67, 44544.63, 1989.28, 21331.41, -1173.00, 655.31, 11705.07, -47183.39, -24632.22, 30888.43, 2667.39, 13242.85, 0.00, 0.00, 0.00, 0.00, 0.00, 0.00, 0.00
196, 11919.67, 44544.63, 1989.28, 21331.41, -1173.00, 655.31, 11705.07, -47183.39, -24608.15, 30883.14, 2663.08, 13224.10, 0.00, 0.00, 0.00, 0.00, 0.00, 0.00, 0.00
197, 11882.12, 44532.99, 1975.27, 21305.39, -1207.17, 645.27, 11651.63, -47362.07, -24608.15, 30883.14, 2663.08, 13224.10, 0.00, 0.00, 0.00, 0.00, 0.00, 0.00, 0.00
198, 11882.12, 44532.99, 1975.27, 21305.39, -1207.17, 645.27, 11651.63, -47362.07, -24628.54, 30878.87, 2644.95, 13237.42, 0.00, 0.00, 0.00, 0.00, 0.00, 0.00, 0.00
199, 11902.73, 44512.20, 1992.64, 21355.04, -1186.10, 675.58, 11707.37, -47364.02, -24628.54, 30878.87, 2644.95, 13237.42, 0.00, 0.00, 0.00, 0.00, 0.00, 0.00, 0.00
200, 11902.73, 44512.20, 1992.64, 21355.04, -1186.10, 675.58, 11707.37, -47364.02, -24628.34, 30887.34, 2632.50, 13226.51, 0.00, 0.00, 0.00, 0.00, 0.00, 0.00, 0.00
201, 11875.77, 44496.78, 1968.92, 21330.58, -1205.68, 667.87, 11685.47, -47463.57, -24628.34, 30887.34, 2632.50, 13226.51, 0.00, 0.00, 0.00, 0.00, 0.00, 0.00, 0.00
202, 11875.77, 44496.78, 1968.92, 21330.58, -1205.68, 667.87, 11685.47, -47463.57, -24626.12, 30873.70, 2621.03, 13235.67, 0.00, 0.00, 0.00, 0.00, -0.08, 0.37, 0.93
203, 11877.29, 44528.14, 1979.76, 21340.51, -1155.09, 663.78, 11722.84, -47579.06, -24626.12, 30873.70, 2621.03, 13235.67, 0.00, 0.00, 0.00, 0.00, 0.00, 0.00, 0.00
204, 11877.29, 44528.14, 1979.76, 21340.51, -1155.09, 663.78, 11722.84, -47579.06, -24626.82, 30897.02, 2616.92, 13217.52, 0.00, 0.00, 0.00, 0.00, 0.00, 0.00, 0.00
205, 11886.39, 44539.54, 1923.97, 21322.45, -1213.10, 656.38, 11675.79, -47750.66, -24626.82, 30897.02, 2616.92, 13217.52, 0.00, 0.00, 0.00, 0.00, 0.00, 0.00, 0.00
206, 11886.39, 44539.54, 1923.97, 21322.45, -1213.10, 656.38, 11675.79, -47750.66, -24583.68, 30857.39, 2578.81, 13206.48, 0.00, 0.00, 0.00, 0.00, 0.00, 0.00, 0.00
207, 11890.21, 44565.58, 1921.18, 21336.53, -1196.24, 664.29, 11700.51, -47903.03, -24583.68, 30857.39, 2578.81, 13206.48, 0.00, 0.00, 0.00, 0.00, 0.00, 0.00, 0.00
208, 11890.21, 44565.58, 1921.18, 21336.53, -1196.24, 664.29, 11700.51, -47903.03, -24648.38, 30900.57, 2601.59, 13212.83, 0.00, 0.00, 0.00, 0.00, 0.00, 0.00, 0.00
209, 11779.28, 44465.15, 1920.35, 21320.41, -1208.00, 644.96, 11723.36, -47947.39, -24648.38, 30900.57, 2601.59, 13212.83, 0.00, 0.00, 0.00, 0.00, 0.00, 0.00, 0.00
210, 11779.28, 44465.15, 1920.35, 21320.41, -1208.00, 644.96, 11723.36, -47947.39, -24627.08, 30865.95, 2555.05, 13201.95, 0.00, 0.00, 0.00, 0.00, 0.00, 0.00, 0.00
211, 11841.42, 44472.64, 1879.65, 21313.82, -1213.97, 658.19, 11705.34, -48194.23, -24627.08, 30865.95, 2555.05, 13201.95, 0.00, 0.00, 0.00, 0.00, -0.08, 0.37, 0.93
212, 11841.42, 44472.64, 1879.65, 21313.82, -1213.97, 658.19, 11705.34, -48194.23, -24586.16, 30877.48, 2563.97, 13163.63, 0.00, 0.00, 0.00, 0.00, 0.00, 0.00, 0.00
213, 11822.53, 44494.97, 1877.05, 21310.49, -1226.66, 664.45, 11679.19, -48368.48, -24586.16, 30877.48, 2563.97, 13163.63, 0.00, 0.00, 0.00, 0.00, 0.00, 0.00, 0.00
214, 11822.53, 44494.97, 1877.05, 21310.49, -1226.66, 664.45, 11679.19, -48368.48, -24649.46, 30857.74, 2553.78, 13195.15, 0.00, 0.00, 0.00, 0.00, 0.00, 0.00, 0.00
215, 11812.90, 44473.82, 1883.60, 21333.62, -1227.62, 666.31, 11725.05, -48396.84, -24649.46, 30857.74, 2553.78, 13195.15, 0.00, 0.00, 0.00, 0.00, 0.00, 0.00, 0.00
216, 11812.90, 44473.82, 1883.60, 21333.62, -1227.62, 666.31, 11725.05, -48396.84, -24642.30, 30883.58, 2553.82, 13167.64, 0.00, 0.00, 0.00, 0.00, 0.00, 0.00, 0.00
217, 11848.84, 44493.02, 1843.46, 21309.46, -1244.68, 633.29, 11728.99, -48521.41, -24642.30, 30883.58, 2553.82, 13167.64, 0.00, 0.00, 0.00, 0.00, 0.00, 0.00, 0.00
218, 11848.84, 44493.02, 1843.46, 21309.46, -1244.68, 633.29, 11728.99, -48521.41, -24614.25, 30852.83, 2548.90, 13172.93, 0.00, 0.00, 0.00, 0.00, 0.00, 0.00, 0.00
219, 11827.04, 44548.72, 1852.78, 21313.17, -1261.17, 654.97, 11719.51, -48630.33, -24614.25, 30852.83, 2548.90, 13172.93, 0.00, 0.00, 0.00, 0.00, 0.00, 0.00, 0.00
220, 11827.04, 44548.72, 1852.78, 21313.17, -1261.17, 654.97, 11719.51, -48630.33, -24594.90, 30871.60, 2544.28, 13150.25, 0.00, 0.00, 0.00, 0.00, 0.00, 0.00, 0.00
221, 11797.59, 44508.02, 1816.33, 21312.46, -1270.56, 669.01, 11721.61, -48686.08, -24594.90, 30871.60, 2544.28, 13150.25, 0.00, 0.00, 0.00, 0.00, -0.07, 0.37, 0.93
222, 11797.59, 44508.02, 1816.33, 21312.46, -1270.56, 669.01, 11721.61, -48686.08, -24652.48, 30859.22, 2531.69, 13152.73, 0.00, 0.00, 0.00, 0.00, 0.00, 0.00, 0.00
223, 11817.81, 44547.98, 1802.69, 21332.59, -1345.24, 658.57, 11729.19, -48707.07, -24652.48, 30859.22, 2531.69, 13152.73, 0.00, 0.00, 0.00, 0.00, 0.00, 0.00, 0.00
224, 11817.81, 44547.98, 1802.69, 21332.59, -1345.24, 658.57, 11729.19, -48707.07, -24612.49, 30861.32, 2499.75, 13124.03, 0.00, 0.00, 0.00, 0.00, 0.00, 0.00, 0.00
225, 11737.64, 44391.55, 1749.78, 21318.27, -1311.60, 641.03, 11751.27, -48781.00, -24612.49, 30861.32, 2499.75, 13124.03, 0.00, 0.00, 0.00, 0.00, 0.00, 0.00, 0.00
226, 11737.64, 44391.55, 1749.78, 21318.27, -1311.60, 641.03, 11751.27, -48781.00, -24646.37, 30851.87, 2437.88, 13155.88, 0.00, 0.00, 0.00, 0.00, 0.00, 0.00, 0.00
227, 11735.72, 44387.07, 1676.45, 21298.96, -1300.02, 636.51, 11734.06, -48875.33, -24646.37, 30851.87, 2437.88, 13155.88, 0.00, 0.00, 0.00, 0.00, 0.00, 0.00, 0.00
228, 11735.72, 44387.07, 1676.45, 21298.96, -1300.02, 636.51, 11734.06, -48875.33, -24613.29, 30850.32, 2407.08, 13112.90, 0.00, 0.00, 0.00, 0.00, 0.00, 0.00, 0.00
229, 11785.00, 44443.83, 1658.45, 21336.46, -1321.35, 674.44, 11770.88, -48895.07, -24613.29, 30850.32, 2407.08, 13112.90, 0.00, 0.00, 0.00, 0.00, 0.00, 0.00, 0.00
230, 11785.00, 44443.83, 1658.45, 21336.46, -1321.35, 674.44, 11770.88, -48895.07, -24635.20, 30855.31, 2410.28, 13139.85, 0.00, 0.00, 0.00, 0.00, 0.00, 0.00, 0.00
231, 11714.68, 44449.19, 1605.30, 21280.07, -1380.40, 650.84, 11701.25, -49089.82, -24635.20, 30855.31, 2410.28, 13139.85, 0.00, 0.00, 0.00, 0.00, -0.08, 0.38, 0.93
232, 11714.68, 44449.19, 1605.30, 21280.07, -1380.40, 650.84, 11701.25, -49089.82, -24616.40, 30849.94, 2392.60, 13090.46, 0.00, 0.00, 0.00, 0.00, 0.00, 0.00, 0.00
233, 11672.08, 44436.23, 1575.17, 21254.41, -1486.48, 649.45, 11738.87, -49086.02, -24616.40, 30849.94, 2392.60, 13090.46, 0.00, 0.00, 0.00, 0.00, 0.00, 0.00, 0.00
234, 11672.08, 44436.23, 1575.17, 21254.41, -1486.48, 649.45, 11738.87, -49086.02, -24611.15, 30847.15, 2425.19, 13095.55, 0.00, 0.00, 0.00, 0.00, 0.00, 0.00, 0.00
235, 11709.27, 44430.30, 1517.21, 21230.33, -1476.47, 613.22, 11722.33, -49192.88, -24611.15, 30847.15, 2425.19, 13095.55, 0.00, 0.00, 0.00, 0.00, 0.00, 0.00, 0.00
236, 11709.27, 44430.30, 1517.21, 21230.33, -1476.47, 613.22, 11722.33, -49192.88, -24661.19, 30856.63, 2448.59, 13104.36, 0.00, 0.00, 0.00, 0.00, 0.00, 0.00, 0.00
237, 11734.87, 44484.55, 1447.77, 21201.43, -1524.41, 585.86, 11789.45, -49212.95, -24661.19, 30856.63, 2448.59, 13104.36, 0.00, 0.00, 0.00, 0.00, 0.00, 0.00, 0.00
238, 11734.87, 44484.55, 1447.77, 21201.43, -1524.41, 585.86, 11789.45, -49212.95, -24607.55, 30833.43, 2479.23, 13099.46, 0.00, 0.00, 0.00, 0.00, 0.00, 0.00, 0.00
239, 11702.61, 44365.89, 1418.22, 21135.99, -1516.45, 564.29, 11683.03, -49387.56, -24607.55, 30833.43, 2479.23, 13099.46, 0.00, 0.00, 0.00, 0.00, 0.00, 0.00, 0.00
240, 11702.61, 44365.89, 1418.22, 21135.99, -1516.45, 564.29, 11683.03, -49387.56, -24573.71, 30854.84, 2437.68, 13070.96, 0.00, 0.00, 0.00, 0.00, 0.00, 0.00, 0.00
241, 11696.89, 44453.10, 1283.55, 21204.85, -1600.94, 636.06, 11701.74, -49465.71, -24573.71, 30854.84, 2437.68, 13070.96, 0.00, 0.00, 0.00, 0.00, -0.08, 0.38, 0.94
242, 11696.89, 44453.10, 1283.55, 21204.85, -1600.94, 636.06, 11701.74, -49465.71, -24644.70, 30852.25, 2427.91, 13059.05, 0.00, 0.00, 0.00, 0.00, 0.00, 0.00, 0.00
243, 11637.93, 44427.46, 1238.60, 21182.01, -1713.93, 618.12, 11692.38, -49482.22, -24644.70, 30852.25, 2427.91, 13059.05, 0.00, 0.00, 0.00, 0.00, 0.00, 0.00, 0.00
244, 11637.93, 44427.46, 1238.60, 21182.01, -1713.93, 618.12, 11692.38, -49482.22, -24598.65, 30854.39, 2398.34, 13073.62, 0.00, 0.00, 0.00, 0.00, 0.00, 0.00, 0.00
245, 11736.68, 44488.82, 1191.57, 21170.19, -1689.03, 570.64, 11749.75, -49608.71, -24598.65, 30854.39, 2398.34, 13073.62, 0.00, 0.00, 0.00, 0.00, 0.00, 0.00, 0.00
246, 11736.68, 44488.82, 1191.57, 21170.19, -1689.03, 570.64, 11749.75, -49608.71, -24589.80, 30882.69, 2389.38, 13054.54, 0.00, 0.00, 0.00, 0.00, 0.00, 0.00, 0.00
247, 11611.95, 44295.64, 1045.91, 21143.90, -1780.99, 562.41, 11694.66, -49651.85, -24589.80, 30882.69, 2389.38, 13054.54, 0.00, 0.00, 0.00, 0.00, 0.00, 0.00, 0.00
248, 11611.95, 44295.64, 1045.91, 21143.90, -1780.99, 562.41, 11694.66, -49651.85, -24650.31, 30845.61, 2347.04, 13032.12, 0.00, 0.00, 0.00, 0.00, 0.00, 0.00, 0.00
249, 11580.66, 44339.91, 982.87, 21178.88, -1781.75, 592.14, 11697.79, -49801.94, -24650.31, 30845.61, 2347.04, 13032.12, 0.00, 0.00, 0.00, 0.00, 0.00, 0.00, 0.00
250, 11580.66, 44339.91, 982.87, 21178.88, -1781.75, 592.14, 11697.79, -49801.94, -24573.51, 30834.57, 2362.71, 12984.91, 0.00, 0.00, 0.00, 0.00, -0.08, 0.37, 0.95
251, 11561.04, 44428.79, 944.25, 21143.65, -1927.61, 546.05, 11619.80, -50020.21, -24573.51, 30834.57, 2362.71, 12984.91, 0.00, 0.00, 0.00, 0.00, 0.00, 0.00, 0.00
252, 11561.04, 44428.79, 944.25, 21143.65, -1927.61, 546.05, 11619.80, -50020.21, -24636.58, 30843.57, 2342.95, 13005.09, 0.00, 0.00, 0.00, 0.00, 0.00, 0.00, 0.00
253, 11612.25, 44367.12, 817.94, 21170.10, -1890.31, 590.00, 11651.83, -49989.88, -24636.58, 30843.57, 2342.95, 13005.09, 0.00, 0.00, 0.00, 0.00, 0.00, 0.00, 0.00
254, 11612.25, 44367.12, 817.94, 21170.10, -1890.31, 590.00, 11651.83, -49989.88, -24588.19, 30864.18, 2376.68, 12942.96, 0.00, 0.00, 0.00, 0.00, 0.00, 0.00, 0.00
255, 11555.61, 44342.80, 771.87, 21146.13, -2063.65, 542.75, 11596.24, -50243.25, -24588.19, 30864.18, 2376.68, 12942.96, 0.00, 0.00, 0.00, 0.00, 0.00, 0.00, 0.00
0, 11555.61, 44342.80, 771.87, 21146.13, -2063.65, 542.75, 11596.24, -50243.25, -24622.84, 30830.34, 2308.60, 12927.26, 0.00, 0.00, 0.00, 0.00, 0.00, 0.00, 0.00
1, 11500.75, 44348.07, 629.13, 21113.10, -2106.90, 559.71, 11563.12, -50364.31, -24622.84, 30830.34, 2308.60, 12927.26, 0.00, 0.00, 0.00, 0.00, 0.00, 0.00, 0.00
2, 11500.75, 44348.07, 629.13, 21113.10, -2106.90, 559.71, 11563.12, -50364.31, -24593.56, 30849.59, 2348.03, 12898.70, 0.00, 0.00, 0.00, 0.00, 0.00, 0.00, 0.00
3, 11515.44, 44353.08, 613.26, 21078.12, -2166.26, 493.93, 11551.74, -50455.89, -24593.56, 30849.59, 2348.03, 12898.70, 0.00, 0.00, 0.00, 0.00, 0.00, 0.00, 0.00
4, 11515.44, 44353.08, 613.26, 21078.12, -2166.26, 493.93, 11551.74, -50455.89, -24648.23, 30819.14, 2323.51, 12900.35, 0.00, 0.00, 0.00, 0.00, -0.08, 0.37, 0.95
5, 11537.17, 44384.17, 528.86, 21098.08, -2158.93, 492.05, 11544.07, -50568.65, -24648.23, 30819.14, 2323.51, 12900.35, 0.00, 0.00, 0.00, 0.00, 0.00, 0.00, 0.00
6, 11537.17, 44384.17, 528.86, 21098.08, -2158.93, 492.05, 11544.07, -50568.65, -24613.43, 30855.35, 2330.48, 12864.39, 0.00, 0.00, 0.00, 0.00, 0.00, 0.00, 0.00
7, 11489.51, 44314.70, 381.41, 21072.53, -2259.81, 508.14, 11476.55, -50786.25, -24613.43, 30855.35, 2330.48, 12864.39, 0.00, 0.00, 0.00, 0.00, 0.00, 0.00, 0.00
8, 11489.51, 44314.70, 381.41, 21072.53, -2259.81, 508.14, 11476.55, -50786.25, -24584.66, 30813.13, 2256.92, 12830.37, 0.00, 0.00, 0.00, 0.00, 0.00, 0.00, 0.00
9, 11459.96, 44332.74, 377.36, 21090.95, -2398.52, 517.40, 11432.07, -51089.11, -24584.66, 30813.13, 2256.92, 12830.37, 0.00, 0.00, 0.00, 0.00, 0.00, 0.00, 0.00
10, 11459.96, 44332.74, 377.36, 21090.95, -2398.52, 517.40, 11432.07, -51089.11, -24641.93, 30837.25, 2260.48, 12801.76, 0.00, 0.00, 0.00, 0.00, 0.00, 0.00, 0.00
11, 11444.99, 44320.82, 290.55, 21057.82, -2483.97, 465.30, 11424.29, -51328.01, -24641.93, 30837.25, 2260.48, 12801.76, 0.00, 0.00, 0.00, 0.00, 0.00, 0.00, 0.00
12, 11444.99, 44320.82, 290.55, 21057.82, -2483.97, 465.30, 11424.29, -51328.01, -24604.60, 30805.06, 2260.36, 12806.81, 0.00, 0.00, 0.00, 0.00, 0.00, 0.00, 0.00
13, 11404.08, 44328.29, 259.84, 21052.64, -2650.58, 465.41, 11370.60, -51544.62, -24604.60, 30805.06, 2260.36, 12806.81, 0.00, 0.00, 0.00, 0.00, 0.00, 0.00, 0.00
14, 11404.08, 44328.29, 259.84, 21052.64, -2650.58, 465.41, 11370.60, -51544.62, -24610.30, 30861.95, 2302.77, 12791.25, 0.00, 0.00, 0.00, 0.00, -0.08, 0.37, 0.94
15, 11431.13, 44322.03, 144.77, 21065.85, -2690.32, 478.71, 11328.58, -51749.56, -24610.30, 30861.95, 2302.77, 12791.25, 0.00, 0.00, 0.00, 0.00, 0.00, 0.00, 0.00
16, 11431.13, 44322.03, 144.77, 21065.85, -2690.32, 478.71, 11328.58, -51749.56, -24604.60, 30803.01, 2245.30, 12748.47, 0.00, 0.00, 0.00, 0.00, 0.00, 0.00, 0.00
17, 11344.09, 44264.90, 112.05, 21054.11, -2787.22, 461.59, 11241.70, -52001.36, -24604.60, 30803.01, 2245.30, 12748.47, 0.00, 0.00, 0.00, 0.00, 0.00, 0.00, 0.00
18, 11344.09, 44264.90, 112.05, 21054.11, -2787.22, 461.59, 11241.70, -52001.36, -24579.68, 30825.78, 2276.91, 12743.94, 0.00, 0.00, 0.00, 0.00, 0.00, 0.00, 0.00
19, 11390.69, 44344.16, 27.11, 21083.91, -2850.63, 476.52, 11253.81, -52081.98, -24579.68, 30825.78, 2276.91, 12743.94, 0.00, 0.00, 0.00, 0.00, 0.00, 0.00, 0.00
20, 11390.69, 44344.16, 27.11, 21083.91, -2850.63, 476.52, 11253.81, -52081.98, -24646.17, 30819.05, 2246.60, 12761.10, 0.00, 0.00, 0.00, 0.00, 0.00, 0.00, 0.00
21, 11415.66, 44318.39, -15.13, 21059.23, -2985.70, 424.46, 11256.27, -52203.37, -24646.17, 30819.05, 2246.60, 12761.10, 0.00, 0.00, 0.00, 0.00, 0.00, 0.00, 0.00
22, 11415.66, 44318.39, -15.13, 21059.23, -2985.70, 424.46, 11256.27, -52203.37, -24619.19, 30830.86, 2233.61, 12734.91, 0.00, 0.00, 0.00, 0.00, 0.00, 0.00, 0.00
23, 11337.43, 44365.08, -66.47, 21047.92, -3161.61, 423.95, 11216.64, -52420.36, -24619.19, 30830.86, 2233.61, 12734.91, 0.00, 0.00, 0.00, 0.00, 0.00, 0.00, 0.00
24, 11337.43, 44365.08, -66.47, 21047.92, -3161.61, 423.95, 11216.64, -52420.36, -24612.40, 30774.78, 2204.33, 12688.64, 0.00, 0.00, 0.00, 0.00, -0.08, 0.37, 0.94
25, 11297.93, 44220.11, -177.85, 21040.19, -3219.19, 436.75, 11119.50, -52628.34, -24612.40, 30774.78, 2204.33, 12688.64, 0.00, 0.00, 0.00, 0.00, 0.00, 0.00, 0.00
26, 11297.93, 44220.11, -177.85, 21040.19, -3219.19, 436.75, 11119.50, -52628.34, -24578.11, 30816.06, 2203.57, 12689.29, 0.00, 0.00, 0.00, 0.00, 0.00, 0.00, 0.00
27, 11315.46, 44262.96, -139.68, 21062.34, -3227.39, 407.47, 11131.73, -52697.16, -24578.11, 30816.06, 2203.57, 12689.29, 0.00, 0.00, 0.00, 0.00, 0.00, 0.00, 0.00
28, 11315.46, 44262.96, -139.68, 21062.34, -3227.39, 407.47, 11131.73, -52697.16, -24657.55, 30821.91, 2195.16, 12689.71, 0.00, 0.00, 0.00, 0.00, 0.00, 0.00, 0.00
29, 11263.07, 44260.27, -294.53, 21041.33, -3389.53, 403.61, 11128.62, -52780.43, -24657.55, 30821.91, 2195.16, 12689.71, 0.00, 0.00, 0.00, 0.00, 0.00, 0.00, 0.00
30, 11263.07, 44260.27, -294.53, 21041.33, -3389.53, 403.61, 11128.62, -52780.43, -24628.98, 30810.09, 2180.23, 12692.17, 0.00, 0.00, 0.00, 0.00, 0.00, 0.00, 0.00
31, 11215.72, 44298.86, -255.88, 21042.85, -3511.66, 398.87, 11101.57, -52963.13, -24628.98, 30810.09, 2180.23, 12692.17, 0.00, 0.00, 0.00, 0.00, 0.00, 0.00, 0.00
32, 11215.72, 44298.86, -255.88, 21042.85, -3511.66, 398.87, 11101.57, -52963.13, -24586.85, 30821.04, 2173.42, 12664.30, 0.00, 0.00, 0.00, 0.00, 0.00, 0.00, 0.00
33, 11260.74, 44297.09, -427.14, 21013.95, -3687.61, 352.31, 11079.45, -53064.80, -24586.85, 30821.04, 2173.42, 12664.30, 0.00, 0.00, 0.00, 0.00, -0.08, 0.37, 0.94
34, 11260.74, 44297.09, -427.14, 21013.95, -3687.61, 352.31, 11079.45, -53064.80, -24651.04, 30785.75, 2134.30, 12645.61, 0.00, 0.00, 0.00, 0.00, 0.00, 0.00, 0.00
35, 11213.89, 44256.41, -422.89, 21058.76, -3725.03, 413.35, 11051.19, -53218.72, -24651.04, 30785.75, 2134.30, 12645.61, 0.00, 0.00, 0.00, 0.00, 0.00, 0.00, 0.00
36, 11213.89, 44256.41, -422.89, 21058.76, -3725.03, 413.35, 11051.19, -53218.72, -24606.54, 30812.06, 2142.10, 12649.70, 0.00, 0.00, 0.00, 0.00, 0.00, 0.00, 0.00
37, 11140.38, 44194.79, -502.85, 20984.78, -3846.38, 348.44, 11011.05, -53374.11, -24606.54, 30812.06, 2142.10, 12649.70, 0.00, 0.00, 0.00, 0.00, 0.00, 0.00, 0.00
38, 11140.38, 44194.79, -502.85, 20984.78, -3846.38, 348.44, 11011.05, -53374.11, -24635.13, 30798.89, 2102.43, 12632.69, 0.00, 0.00, 0.00, 0.00, 0.00, 0.00, 0.00
39, 11139.53, 44252.38, -545.99, 21061.40, -3920.07, 412.37, 10979.38, -53471.05, -24635.13, 30798.89, 2102.43, 12632.69, 0.00, 0.00, 0.00, 0.00, 0.00, 0.00, 0.00
40, 11139.53, 44252.38, -545.99, 21061.40, -3920.07, 412.37, 10979.38, -53471.05, -24604.98, 30828.26, 2114.18, 12623.77, 0.00, 0.00, 0.00, 0.00, 0.00, 0.00, 0.00
41, 11149.99, 44209.40, -658.39, 21001.27, -4067.86, 305.95, 11017.22, -53529.61, -24604.98, 30828.26, 2114.18, 12623.77, 0.00, 0.00, 0.00, 0.00, 0.00, 0.00, 0.00
42, 11149.99, 44209.40, -658.39, 21001.27, -4067.86, 305.95, 11017.22, -53529.61, -24632.11, 30818.14, 2063.04, 12625.74, 0.00, 0.00, 0.00, 0.00, 0.00, 0.00, 0.00
43, 11138.10, 44260.43, -693.11, 21016.74, -4217.55, 340.55, 11016.30, -53663.47, -24632.11, 30818.14, 2063.04, 12625.74, 0.00, 0.00, 0.00, 0.00, -0.08, 0.36, 0.94
44, 11138.10, 44260.43, -693.11, 21016.74, -4217.55, 340.55, 11016.30, -53663.47, -24560.41, 30807.05, 2070.84, 12593.38, 0.00, 0.00, 0.00, 0.00, 0.00, 0.00, 0.00
45, 11009.66, 44184.41, -809.27, 21001.63, -4287.71, 373.14, 10857.25, -53887.02, -24560.41, 30807.05, 2070.84, 12593.38, 0.00, 0.00, 0.00, 0.00, 0.00, 0.00, 0.00
46, 11009.66, 44184.41, -809.27, 21001.63, -4287.71, 373.14, 10857.25, -53887.02, -24675.34, 30813.51, 2030.61, 12600.48, 0.00, 0.00, 0.00, 0.00, 0.00, 0.00, 0.00
47, 11014.31, 44168.79, -821.58, 21005.83, -4411.18, 305.19, 10965.07, -53870.34, -24675.34, 30813.51, 2030.61, 12600.48, 0.00, 0.00, 0.00, 0.00, 0.00, 0.00, 0.00
48, 11014.31, 44168.79, -821.58, 21005.83, -4411.18, 305.19, 10965.07, -53870.34, -24604.69, 30831.35, 2027.93, 12556.41, 0.00, 0.00, 0.00, 0.00, 0.00, 0.00, 0.00
49, 10931.41, 44184.70, -915.66, 20976.33, -4634.57, 320.50, 10872.20, -54115.85, -24604.69, 30831.35, 2027.93, 12556.41, 0.00, 0.00, 0.00, 0.00, 0.00, 0.00, 0.00
50, 10931.41, 44184.70, -915.66, 20976.33, -4634.57, 320.50, 10872.20, -54115.85, -24591.19, 30783.98, 2004.59, 12536.91, 0.00, 0.00, 0.00, 0.00, 0.00, 0.00, 0.00
51, 10983.18, 44185.55, -1020.20, 21015.15, -4711.14, 338.25, 10832.30, -54207.83, -24591.19, 30783.98, 2004.59, 12536.91, 0.00, 0.00, 0.00, 0.00, 0.00, 0.00, 0.00
52, 10983.18, 44185.55, -1020.20, 21015.15, -4711.14, 338.25, 10832.30, -54207.83, -24622.88, 30829.18, 2005.40, 12528.00, 0.00, 0.00, 0.00, 0.00, 0.00, 0.00, 0.00
53, 10883.35, 44127.01, -1080.77, 20961.20, -4873.02, 274.84, 10850.70, -54298.71, -24622.88, 30829.18, 2005.40, 12528.00, 0.00, 0.00, 0.00, 0.00, -0.08, 0.37, 0.94
54, 10883.35, 44127.01, -1080.77, 20961.20, -4873.02, 274.84, 10850.70, -54298.71, -24622.46, 30797.55, 1966.15, 12548.36, 0.00, 0.00, 0.00, 0.00, 0.00, 0.00, 0.00
55, 10860.89, 44174.40, -1142.42, 20994.57, -4934.71, 280.42, 10884.23, -54312.97, -24622.46, 30797.55, 1966.15, 12548.36, 0.00, 0.00, 0.00, 0.00, 0.00, 0.00, 0.00
56, 10860.89, 44174.40, -1142.42, 20994.57, -4934.71, 280.42, 10884.23, -54312.97, -24672.46, 30814.90, 1950.10, 12523.08, 0.00, 0.00, 0.00, 0.00, 0.00, 0.00, 0.00
57, 10863.39, 44105.69, -1252.77, 20951.45, -5125.46, 266.72, 10827.83, -54475.11, -24672.46, 30814.90, 1950.10, 12523.08, 0.00, 0.00, 0.00, 0.00, 0.00, 0.00, 0.00
58, 10863.39, 44105.69, -1252.77, 20951.45, -5125.46, 266.72, 10827.83, -54475.11, -24639.00, 30775.80, 1904.88, 12507.88, 0.00, 0.00, 0.00, 0.00, 0.00, 0.00, 0.00
59, 10809.66, 44131.48, -1282.81, 20970.29, -5281.63, 269.79, 10804.30, -54605.78, -24639.00, 30775.80, 1904.88, 12507.88, 0.00, 0.00, 0.00, 0.00, 0.00, 0.00, 0.00
60, 10809.66, 44131.48, -1282.81, 20970.29, -5281.63, 269.79, 10804.30, -54605.78, -24613.92, 30808.37, 1931.19, 12471.02, 0.00, 0.00, 0.00, 0.00, 0.00, 0.00, 0.00
61, 10737.15, 44121.76, -1315.58, 20980.55, -5428.64, 292.00, 10765.61, -54730.82, -24613.92, 30808.37, 1931.19, 12471.02, 0.00, 0.00, 0.00, 0.00, 0.00, 0.00, 0.00
62, 10737.15, 44121.76, -1315.58, 20980.55, -5428.64, 292.00, 10765.61, -54730.82, -24605.34, 30773.90, 1902.38, 12456.20, 0.00, 0.00, 0.00, 0.00, 0.00, 0.00, 0.00
63, 10759.77, 44093.48, -1468.76, 20961.44, -5538.61, 262.99, 10709.61, -54884.30, -24605.34, 30773.90, 1902.38, 12456.20, 0.00, 0.00, 0.00, 0.00, -0.08, 0.37, 0.94
64, 10759.77, 44093.48, -1468.76, 20961.44, -5538.61, 262.99, 10709.61, -54884.30, -24626.48, 30833.16, 1905.73, 12456.34, 0.00, 0.00, 0.00, 0.00, 0.00, 0.00, 0.00
65, 10698.28, 44108.48, -1471.95, 20958.25, -5673.72, 231.18, 10811.34, -54764.27, -24626.48, 30833.16, 1905.73, 12456.34, 0.00, 0.00, 0.00, 0.00, 0.00, 0.00, 0.00
66, 10698.28, 44108.48, -1471.95, 20958.25, -5673.72, 231.18, 10811.34, -54764.27, -24639.33, 30787.16, 1855.62, 12461.32, 0.00, 0.00, 0.00, 0.00, 0.00, 0.00, 0.00
67, 10688.58, 44079.61, -1547.95, 20935.85, -5849.03, 221.53, 10746.76, -54957.55, -24639.33, 30787.16, 1855.62, 12461.32, 0.00, 0.00, 0.00, 0.00, 0.00, 0.00, 0.00
68, 10688.58, 44079.61, -1547.95, 20935.85, -5849.03, 221.53, 10746.76, -54957.55, -24625.56, 30816.75, 1882.84, 12451.58, 0.00, 0.00, 0.00, 0.00, 0.00, 0.00, 0.00
69, 10672.60, 44113.82, -1603.49, 20965.67, -5886.22, 221.13, 10766.77, -54976.93, -24625.56, 30816.75, 1882.84, 12451.58, 0.00, 0.00, 0.00, 0.00, 0.00, 0.00, 0.00
70, 10672.60, 44113.82, -1603.49, 20965.67, -5886.22, 221.13, 10766.77, -54976.93, -24643.91, 30772.83, 1816.50, 12434.74, 0.00, 0.00, 0.00, 0.00, 0.00, 0.00, 0.00
71, 10585.99, 44001.02, -1747.41, 20943.61, -6079.50, 215.47, 10710.06, -55126.75, -24643.91, 30772.83, 1816.50, 12434.74, 0.00, 0.00, 0.00, 0.00, 0.00, 0.00, 0.00
72, 10585.99, 44001.02, -1747.41, 20943.61, -6079.50, 215.47, 10710.06, -55126.75, -24640.25, 30800.19, 1790.75, 12432.08, 0.00, 0.00, 0.00, 0.00, -0.08, 0.37, 0.94
73, 10575.66, 44062.02, -1782.69, 20959.72, -6193.69, 227.88, 10703.20, -55185.89, -24640.25, 30800.19, 1790.75, 12432.08, 0.00, 0.00, 0.00, 0.00, 0.00, 0.00, 0.00
74, 10575.66, 44062.02, -1782.69, 20959.72, -6193.69, 227.88, 10703.20, -55185.89, -24625.92, 30772.16, 1757.76, 12419.39, 0.00, 0.00, 0.00, 0.00, 0.00, 0.00, 0.00
75, 10519.18, 44024.26, -1874.33, 20921.10, -6354.69, 205.61, 10624.21, -55370.75, -24625.92, 30772.16, 1757.76, 12419.39, 0.00, 0.00, 0.00, 0.00, 0.00, 0.00, 0.00
76, 10519.18, 44024.26, -1874.33, 20921.10, -6354.69, 205.61, 10624.21, -55370.75, -24634.30, 30805.82, 1761.30, 12403.03, 0.00, 0.00, 0.00, 0.00, 0.00, 0.00, 0.00
77, 10524.85, 44048.11, -1852.38, 20973.67, -6413.77, 202.17, 10692.31, -55362.61, -24634.30, 30805.82, 1761.30, 12403.03, 0.00, 0.00, 0.00, 0.00, 0.00, 0.00, 0.00
78, 10524.85, 44048.11, -1852.38, 20973.67, -6413.77, 202.17, 10692.31, -55362.61, -24652.50, 30806.92, 1741.04, 12418.72, 0.00, 0.00, 0.00, 0.00, 0.00, 0.00, 0.00
79, 10474.50, 43994.51, -2010.32, 20885.02, -6601.03, 141.17, 10712.68, -55412.57, -24652.50, 30806.92, 1741.04, 12418.72, 0.00, 0.00, 0.00, 0.00, 0.00, 0.00, 0.00
80, 10474.50, 43994.51, -2010.32, 20885.02, -6601.03, 141.17, 10712.68, -55412.57, -24636.85, 30790.55, 1734.90, 12444.24, 0.00, 0.00, 0.00, 0.00, 0.00, 0.00, 0.00
81, 10442.18, 44073.55, -2026.03, 20940.23, -6618.44, 185.85, 10654.63, -55538.50, -24636.85, 30790.55, 1734.90, 12444.24, 0.00, 0.00, 0.00, 0.00, 0.00, 0.00, 0.00
82, 10442.18, 44073.55, -2026.03, 20940.23, -6618.44, 185.85, 10654.63, -55538.50, -24626.73, 30774.28, 1729.85, 12386.11, 0.00, 0.00, 0.00, 0.00, -0.08, 0.37, 0.94
83, 10423.15, 43999.59, -2126.68, 20922.80, -6802.24, 175.35, 10608.27, -55666.55, -24626.73, 30774.28, 1729.85, 12386.11, 0.00, 0.00, 0.00, 0.00, 0.00, 0.00, 0.00
84, 10423.15, 43999.59, -2126.68, 20922.80, -6802.24, 175.35, 10608.27, -55666.55, -24653.95, 30825.78, 1712.12, 12431.91, 0.00, 0.00, 0.00, 0.00, 0.00, 0.00, 0.00
85, 10415.62, 43988.59, -2163.65, 20911.38, -6961.52, 150.45, 10651.03, -55763.09, -24653.95, 30825.78, 1712.12, 12431.91, 0.00, 0.00, 0.00, 0.00, 0.00, 0.00, 0.00
86, 10415.62, 43988.59, -2163.65, 20911.38, -6961.52, 150.45, 10651.03, -55763.09, -24644.16, 30791.31, 1696.88, 12406.47, 0.00, 0.00, 0.00, 0.00, 0.00, 0.00, 0.00
87, 10257.15, 43943.39, -2216.56, 20915.82, -6989.46, 138.22, 10607.74, -55793.51, -24644.16, 30791.31, 1696.88, 12406.47, 0.00, 0.00, 0.00, 0.00, 0.00, 0.00, 0.00
88, 10257.15, 43943.39, -2216.56, 20915.82, -6989.46, 138.22, 10607.74, -55793.51, -24634.50, 30784.52, 1651.08, 12390.51, 0.00, 0.00, 0.00, 0.00, 0.00, 0.00, 0.00
89, 10360.55, 43990.00, -2335.31, 20920.81, -7136.44, 154.74, 10549.60, -55974.89, -24634.50, 30784.52, 1651.08, 12390.51, 0.00, 0.00, 0.00, 0.00, 0.00, 0.00, 0.00
90, 10360.55, 43990.00, -2335.31, 20920.81, -7136.44, 154.74, 10549.60, -55974.89, -24646.17, 30801.87, 1623.23, 12380.47, 0.00, 0.00, 0.00, 0.00, 0.00, 0.00, 0.00
91, 10297.90, 43960.16, -2451.94, 20862.98, -7315.28, 88.45, 10568.80, -56064.10, -24646.17, 30801.87, 1623.23, 12380.47, 0.00, 0.00, 0.00, 0.00, 0.00, 0.00, 0.00
92, 10297.90, 43960.16, -2451.94, 20862.98, -7315.28, 88.45, 10568.80, -56064.10, -24602.27, 30788.52, 1602.82, 12396.48, 0.00, 0.00, 0.00, 0.00, -0.08, 0.37, 0.94
93, 10227.46, 43912.73, -2413.52, 20928.90, -7311.23, 161.38, 10590.28, -56100.53, -24602.27, 30788.52, 1602.82, 12396.48, 0.00, 0.00, 0.00, 0.00, 0.00, 0.00, 0.00
94, 10227.46, 43912.73, -2413.52, 20928.90, -7311.23, 161.38, 10590.28, -56100.53, -24677.42, 30814.79, 1576.11, 12386.46, 0.00, 0.00, 0.00, 0.00, 0.00, 0.00, 0.00
95, 10197.04, 43954.08, -2519.40, 20842.22, -7488.59, 80.49, 10508.09, -56199.46, -24677.42, 30814.79, 1576.11, 12386.46, 0.00, 0.00, 0.00, 0.00, 0.00, 0.00, 0.00
96, 10197.04, 43954.08, -2519.40, 20842.22, -7488.59, 80.49, 10508.09, -56199.46, -24581.42, 30810.16, 1538.76, 12390.93, 0.00, 0.00, 0.00, 0.00, 0.00, 0.00, 0.00
97, 10142.51, 43959.71, -2577.49, 20856.77, -7596.51, 90.73, 10521.23, -56332.83, -24581.42, 30810.16, 1538.76, 12390.93, 0.00, 0.00, 0.00, 0.00, 0.00, 0.00, 0.00
98, 10142.51, 43959.71, -2577.49, 20856.77, -7596.51, 90.73, 10521.23, -56332.83, -24591.05, 30824.60, 1575.86, 12356.67, 0.00, 0.00, 0.00, 0.00, 0.00, 0.00, 0.00
99, 10167.90, 43887.98, -2714.13, 20851.38, -7647.05, 93.18, 10443.23, -56434.89, -24591.05, 30824.60, 1575.86, 12356.67, 0.00, 0.00, 0.00, 0.00, 0.00, 0.00, 0.00
100, 10167.90, 43887.98, -2714.13, 20851.38, -7647.05, 93.18, 10443.23, -56434.89, -24636.11, 30783.29, 1519.78, 12357.18, 0.00, 0.00, 0.00, 0.00, 0.00, 0.00, 0.00
101, 10068.75, 43853.70, -2685.29, 20818.26, -7750.78, 63.70, 10515.42, -56379.30, -24636.11, 30783.29, 1519.78, 12357.18, 0.00, 0.00, 0.00, 0.00, 0.00, 0.00, 0.00
102, 10068.75, 43853.70, -2685.29, 20818.26, -7750.78, 63.70, 10515.42, -56379.30, -24636.63, 30813.26, 1535.34, 12359.98, 0.00, 0.00, 0.00, 0.00, -0.08, 0.37, 0.94
103, 10099.41, 43935.82, -2839.63, 20849.39, -7868.73, 52.39, 10432.77, -56628.41, -24636.63, 30813.26, 1535.34, 12359.98, 0.00, 0.00, 0.00, 0.00, 0.00, 0.00, 0.00
104, 10099.41, 43935.82, -2839.63, 20849.39, -7868.73, 52.39, 10432.77, -56628.41, -24631.96, 30772.65, 1498.93, 12369.32, 0.00, 0.00, 0.00, 0.00, 0.00, 0.00, 0.00
105, 10060.54, 43942.19, -2859.26, 20844.86, -7869.04, 57.06, 10478.74, -56561.73, -24631.96, 30772.65, 1498.93, 12369.32, 0.00, 0.00, 0.00, 0.00, 0.00, 0.00, 0.00
106, 10060.54, 43942.19, -2859.26, 20844.86, -7869.04, 57.06, 10478.74, -56561.73, -24625.01, 30814.72, 1474.46, 12372.20, 0.00, 0.00, 0.00, 0.00, 0.00, 0.00, 0.00
107, 10046.75, 43905.20, -2946.76, 20828.54, -8023.14, 56.80, 10438.55, -56742.36, -24625.01, 30814.72, 1474.46, 12372.20, 0.00, 0.00, 0.00, 0.00, 0.00, 0.00, 0.00
108, 10046.75, 43905.20, -2946.76, 20828.54, -8023.14, 56.80, 10438.55, -56742.36, -24609.72, 30815.43, 1457.53, 12365.50, 0.00, 0.00, 0.00, 0.00, 0.00, 0.00, 0.00
109, 9921.72, 43880.74, -2971.28, 20822.24, -8046.61, 18.82, 10440.50, -56784.71, -24609.72, 30815.43, 1457.53, 12365.50, 0.00, 0.00, 0.00, 0.00, 0.00, 0.00, 0.00
110, 9921.72, 43880.74, -2971.28, 20822.24, -8046.61, 18.82, 10440.50, -56784.71, -24599.08, 30839.82, 1465.89, 12379.69, 0.00, 0.00, 0.00, 0.00, 0.00, 0.00, 0.00
111, 9926.14, 43855.71, -3080.52, 20813.54, -8138.96, 39.65, 10413.45, -56857.25, -24599.08, 30839.82, 1465.89, 12379.69, 0.00, 0.00, 0.00, 0.00, -0.08, 0.37, 0.94
112, 9926.14, 43855.71, -3080.52, 20813.54, -8138.96, 39.65, 10413.45, -56857.25, -24531.93, 30817.00, 1427.74, 12367.09, 0.00, 0.00, 0.00, 0.00, 0.00, 0.00, 0.00
113, 9876.52, 43885.05, -3151.48, 20791.37, -8322.49, 29.75, 10391.44, -57012.88, -24531.93, 30817.00, 1427.74, 12367.09, 0.00, 0.00, 0.00, 0.00, 0.00, 0.00, 0.00
114, 9876.52, 43885.05, -3151.48, 20791.37, -8322.49, 29.75, 10391.44, -57012.88, -24529.74, 30876.27, 1456.57, 12335.91, 0.00, 0.00, 0.00, 0.00, 0.00, 0.00, 0.00
115, 9851.93, 43868.49, -3192.37, 20797.85, -8180.83, -17.72, 10401.58, -56984.56, -24529.74, 30876.27, 1456.57, 12335.91, 0.00, 0.00, 0.00, 0.00, 0.00, 0.00, 0.00
116, 9851.93, 43868.49, -3192.37, 20797.85, -8180.83, -17.72, 10401.58, -56984.56, -24654.11, 30765.52, 1444.66, 12365.07, 0.00, 0.00, 0.00, 0.00, 0.00, 0.00, 0.00
117, 9769.63, 43808.64, -3281.84, 20802.30, -8386.24, 2.21, 10400.38, -57054.50, -24654.11, 30765.52, 1444.66, 12365.07, 0.00, 0.00, 0.00, 0.00, 0.00, 0.00, 0.00
118, 9769.63, 43808.64, -3281.84, 20802.30, -8386.24, 2.21, 10400.38, -57054.50, -24510.07, 30847.04, 1414.51, 12350.54, 0.00, 0.00, 0.00, 0.00, 0.00, 0.00, 0.00
119, 9833.14, 43938.30, -3387.00, 20814.53, -8407.05, 17.48, 10354.83, -57168.03, -24510.07, 30847.04, 1414.51, 12350.54, 0.00, 0.00, 0.00, 0.00, 0.00, 0.00, 0.00
120, 9833.14, 43938.30, -3387.00, 20814.53, -8407.05, 17.48, 10354.83, -57168.03, -24566.62, 30838.21, 1403.33, 12372.63, 0.00, 0.00, 0.00, 0.00, 0.00, 0.00, 0.00
121, 9675.51, 43813.48, -3370.91, 20768.84, -8481.10, -24.25, 10351.63, -57194.13, -24566.62, 30838.21, 1403.33, 12372.63, 0.00, 0.00, 0.00, 0.00, -0.08, 0.37, 0.94
122, 9675.51, 43813.48, -3370.91, 20768.84, -8481.10, -24.25, 10351.63, -57194.13, -24564.74, 30868.16, 1372.96, 12331.17, 0.00, 0.00, 0.00, 0.00, 0.00, 0.00, 0.00
123, 9681.66, 43831.32, -3493.85, 20788.17, -8515.79, -40.90, 10368.79, -57239.15, -24564.74, 30868.16, 1372.96, 12331.17, 0.00, 0.00, 0.00, 0.00, 0.00, 0.00, 0.00
124, 9681.66, 43831.32, -3493.85, 20788.17, -8515.79, -40.90, 10368.79, -57239.15, -24565.88, 30826.14, 1362.34, 12370.24, 0.00, 0.00, 0.00, 0.00, 0.00, 0.00, 0.00
125, 9592.56, 43802.45, -3516.42, 20756.88, -8648.11, -19.16, 10328.05, -57362.15, -24565.88, 30826.14, 1362.34, 12370.24, 0.00, 0.00, 0.00, 0.00, 0.00, 0.00, 0.00
126, 9592.56, 43802.45, -3516.42, 20756.88, -8648.11, -19.16, 10328.05, -57362.15, -24587.19, 30813.18, 1319.65, 12354.57, 0.00, 0.00, 0.00, 0.00, 0.00, 0.00, 0.00
127, 9552.33, 43818.71, -3649.06, 20775.68, -8637.81, -50.87, 10332.38, -57396.37, -24587.19, 30813.18, 1319.65, 12354.57, 0.00, 0.00, 0.00, 0.00, 0.00, 0.00, 0.00
128, 9552.33, 43818.71, -3649.06, 20775.68, -8637.81, -50.87, 10332.38, -57396.37, -24596.55, 30818.07, 1334.09, 12330.65, 0.00, 0.00, 0.00, 0.00, 0.00, 0.00, 0.00
129, 9523.21, 43757.56, -3694.27, 20734.06, -8729.34, -64.08, 10304.31, -57460.59, -24596.55, 30818.07, 1334.09, 12330.65, 0.00, 0.00, 0.00, 0.00, 0.00, 0.00, 0.00
130, 9523.21, 43757.56, -3694.27, 20734.06, -8729.34, -64.08, 10304.31, -57460.59, -24549.68, 30824.08, 1337.42, 12341.09, 0.00, 0.00, 0.00, 0.00, 0.00, 0.00, 0.00
131, 9419.65, 43779.76, -3710.48, 20766.45, -8760.59, -19.92, 10298.32, -57521.36, -24549.68, 30824.08, 1337.42, 12341.09, 0.00, 0.00, 0.00, 0.00, -0.08, 0.36, 0.94
132, 9419.65, 43779.76, -3710.48, 20766.45, -8760.59, -19.92, 10298.32, -57521.36, -24551.07, 30847.93, 1309.77, 12339.10, 0.00, 0.00, 0.00, 0.00, 0.00, 0.00, 0.00
133, 9468.06, 43826.18, -3832.18, 20757.48, -8852.41, -90.37, 10283.10, -57572.10, -24551.07, 30847.93, 1309.77, 12339.10, 0.00, 0.00, 0.00, 0.00, 0.00, 0.00, 0.00
134, 9468.06, 43826.18, -3832.18, 20757.48, -8852.41, -90.37, 10283.10, -57572.10, -24599.95, 30829.13, 1314.17, 12358.30, 0.00, 0.00, 0.00, 0.00, 0.00, 0.00, 0.00
135, 9401.97, 43821.75, -3844.08, 20735.60, -8846.55, -83.04, 10344.90, -57616.43, -24599.95, 30829.13, 1314.17, 12358.30, 0.00, 0.00, 0.00, 0.00, 0.00, 0.00, 0.00
136, 9401.97, 43821.75, -3844.08, 20735.60, -8846.55, -83.04, 10344.90, -57616.43, -24594.03, 30842.43, 1280.46, 12355.71, 0.00, 0.00, 0.00, 0.00, 0.00, 0.00, 0.00
137, 9330.58, 43737.60, -3931.65, 20732.03, -8960.48, -49.96, 10228.25, -57734.26, -24594.03, 30842.43, 1280.46, 12355.71, 0.00, 0.00, 0.00, 0.00, 0.00, 0.00, 0.00
138, 9330.58, 43737.60, -3931.65, 20732.03, -8960.48, -49.96, 10228.25, -57734.26, -24601.49, 30797.62, 1220.25, 12310.07, 0.00, 0.00, 0.00, 0.00, 0.00, 0.00, 0.00
139, 9316.52, 43797.73, -4048.53, 20742.51, -8936.70, -108.16, 10294.54, -57700.13, -24601.49, 30797.62, 1220.25, 12310.07, 0.00, 0.00, 0.00, 0.00, 0.00, 0.00, 0.00
140, 9316.52, 43797.73, -4048.53, 20742.51, -8936.70, -108.16, 10294.54, -57700.13, -24605.67, 30818.63, 1220.99, 12295.87, 0.00, 0.00, 0.00, 0.00, 0.00, 0.00, 0.00
141, 9184.67, 43732.33, -3987.01, 20705.22, -9051.23, -106.84, 10249.84, -57805.34, -24605.67, 30818.63, 1220.99, 12295.87, 0.00, 0.00, 0.00, 0.00, -0.08, 0.36, 0.94
142, 9184.67, 43732.33, -3987.01, 20705.22, -9051.23, -106.84, 10249.84, -57805.34, -24573.53, 30790.69, 1207.13, 12296.48, 0.00, 0.00, 0.00, 0.00, 0.00, 0.00, 0.00
143, 9254.09, 43804.30, -4144.53, 20716.00, -9103.53, -95.02, 10251.90, -57923.47, -24573.53, 30790.69, 1207.13, 12296.48, 0.00, 0.00, 0.00, 0.00, 0.00, 0.00, 0.00
144, 9254.09, 43804.30, -4144.53, 20716.00, -9103.53, -95.02, 10251.90, -57923.47, -24552.43, 30846.30, 1230.15, 12305.24, 0.00, 0.00, 0.00, 0.00, 0.00, 0.00, 0.00
145, 9151.74, 43770.26, -4165.56, 20682.36, -9112.38, -136.52, 10231.53, -57889.99, -24552.43, 30846.30, 1230.15, 12305.24, 0.00, 0.00, 0.00, 0.00, 0.00, 0.00, 0.00
146, 9151.74, 43770.26, -4165.56, 20682.36, -9112.38, -136.52, 10231.53, -57889.99, -24603.50, 30808.28, 1219.20, 12333.16, 0.00, 0.00, 0.00, 0.00, 0.00, 0.00, 0.00
147, 9171.97, 43760.47, -4213.91, 20705.49, -9079.28, -115.67, 10201.58, -57947.57, -24603.50, 30808.28, 1219.20, 12333.16, 0.00, 0.00, 0.00, 0.00, 0.00, 0.00, 0.00
148, 9171.97, 43760.47, -4213.91, 20705.49, -9079.28, -115.67, 10201.58, -57947.57, -24577.55, 30830.10, 1196.49, 12305.57, 0.00, 0.00, 0.00, 0.00, 0.00, 0.00, 0.00
149, 9010.39, 43629.78, -4378.53, 20673.33, -9217.17, -100.43, 10212.78, -58019.98, -24577.55, 30830.10, 1196.49, 12305.57, 0.00, 0.00, 0.00, 0.00, 0.00, 0.00, 0.00
150, 9010.39, 43629.78, -4378.53, 20673.33, -9217.17, -100.43, 10212.78, -58019.98, -24548.52, 30844.36, 1183.30, 12331.61, 0.00, 0.00, 0.00, 0.00, -0.08, 0.36, 0.94
151, 8991.10, 43705.13, -4252.58, 20694.76, -9214.86, -166.65, 10236.16, -58042.63, -24548.52, 30844.36, 1183.30, 12331.61, 0.00, 0.00, 0.00, 0.00, 0.00, 0.00, 0.00
152, 8991.10, 43705.13, -4252.58, 20694.76, -9214.86, -166.65, 10236.16, -58042.63, -24587.95, 30850.32, 1176.46, 12318.90, 0.00, 0.00, 0.00, 0.00, 0.00, 0.00, 0.00
153, 9031.67, 43723.14, -4439.95, 20666.09, -9209.05, -152.53, 10222.86, -58041.15, -24587.95, 30850.32, 1176.46, 12318.90, 0.00, 0.00, 0.00, 0.00, 0.00, 0.00, 0.00
154, 9031.67, 43723.14, -4439.95, 20666.09, -9209.05, -152.53, 10222.86, -58041.15, -24566.33, 30813.51, 1118.79, 12309.84, 0.00, 0.00, 0.00, 0.00, 0.00, 0.00, 0.00
155, 8926.17, 43714.89, -4479.36, 20654.35, -9319.56, -150.09, 10166.33, -58164.22, -24566.33, 30813.51, 1118.79, 12309.84, 0.00, 0.00, 0.00, 0.00, 0.00, 0.00, 0.00
156, 8926.17, 43714.89, -4479.36, 20654.35, -9319.56, -150.09, 10166.33, -58164.22, -24574.67, 30853.74, 1069.98, 12314.40, 0.00, 0.00, 0.00, 0.00, 0.00, 0.00, 0.00
157, 8827.04, 43675.82, -4538.23, 20648.12, -9280.56, -174.86, 10202.54, -58173.21, -24574.67, 30853.74, 1069.98, 12314.40, 0.00, 0.00, 0.00, 0.00, 0.00, 0.00, 0.00
158, 8827.04, 43675.82, -4538.23, 20648.12, -9280.56, -174.86, 10202.54, -58173.21, -24587.72, 30836.09, 1007.37, 12292.95, 0.00, 0.00, 0.00, 0.00, 0.00, 0.00, 0.00
159, 8832.18, 43620.59, -4646.68, 20601.27, -9362.56, -193.74, 10185.06, -58210.24, -24587.72, 30836.09, 1007.37, 12292.95, 0.00, 0.00, 0.00, 0.00, 0.00, 0.00, 0.00
160, 8832.18, 43620.59, -4646.68, 20601.27, -9362.56, -193.74, 10185.06, -58210.24, -24566.69, 30819.12, 1010.61, 12281.12, 0.00, 0.00, 0.00, 0.00, -0.08, 0.36, 0.94
161, 8782.25, 43647.23, -4655.13, 20605.13, -9323.36, -163.28, 10140.18, -58283.58, -24566.69, 30819.12, 1010.61, 12281.12, 0.00, 0.00, 0.00, 0.00, 0.00, 0.00, 0.00
162, 8782.25, 43647.23, -4655.13, 20605.13, -9323.36, -163.28, 10140.18, -58283.58, -24508.82, 30828.24, 947.78, 12264.13, 0.00, 0.00, 0.00, 0.00, 0.00, 0.00, 0.00
163, 8719.15, 43638.56, -4770.78, 20574.31, -9459.59, -186.46, 10125.97, -58372.47, -24508.82, 30828.24, 947.78, 12264.13, 0.00, 0.00, 0.00, 0.00, 0.00, 0.00, 0.00
164, 8719.15, 43638.56, -4770.78, 20574.31, -9459.59, -186.46, 10125.97, -58372.47, -24602.47, 30823.14, 971.25, 12299.58, 0.00, 0.00, 0.00, 0.00, 0.00, 0.00, 0.00
165, 8673.64, 43613.68, -4717.29, 20610.54, -9362.03, -189.30, 10192.40, -58284.94, -24602.47, 30823.14, 971.25, 12299.58, 0.00, 0.00, 0.00, 0.00, 0.00, 0.00, 0.00
166, 8673.64, 43613.68, -4717.29, 20610.54, -9362.03, -189.30, 10192.40, -58284.94, -24548.41, 30831.88, 987.50, 12318.43, 0.00, 0.00, 0.00, 0.00, 0.00, 0.00, 0.00
167, 8586.33, 43561.94, -4755.49, 20606.90, -9402.40, -196.49, 10135.80, -58378.38, -24548.41, 30831.88, 987.50, 12318.43, 0.00, 0.00, 0.00, 0.00, 0.00, 0.00, 0.00
168, 8586.33, 43561.94, -4755.49, 20606.90, -9402.40, -196.49, 10135.80, -58378.38, -24573.80, 30847.96, 919.80, 12301.66, 0.00, 0.00, 0.00, 0.00, 0.00, 0.00, 0.00
169, 8549.34, 43584.94, -4907.33, 20578.76, -9482.71, -190.17, 10127.78, -58441.74, -24573.80, 30847.96, 919.80, 12301.66, 0.00, 0.00, 0.00, 0.00, 0.00, 0.00, 0.00
170, 8549.34, 43584.94, -4907.33, 20578.76, -9482.71, -190.17, 10127.78, -58441.74, -24542.44, 30831.15, 877.15, 12271.06, 0.00, 0.00, 0.00, 0.00, -0.08, 0.37, 0.94
171, 8542.41, 43550.90, -4987.28, 20572.52, -9496.05, -207.87, 10101.71, -58454.55, -24542.44, 30831.15, 877.15, 12271.06, 0.00, 0.00, 0.00, 0.00, 0.00, 0.00, 0.00
172, 8542.41, 43550.90, -4987.28, 20572.52, -9496.05, -207.87, 10101.71, -58454.55, -24580.30, 30818.00, 770.82, 12275.20, 0.00, 0.00, 0.00, 0.00, 0.00, 0.00, 0.00
173, 8468.14, 43537.62, -4985.09, 20578.63, -9501.21, -219.58, 10178.98, -58422.16, -24580.30, 30818.00, 770.82, 12275.20, 0.00, 0.00, 0.00, 0.00, 0.00, 0.00, 0.00
174, 8468.14, 43537.62, -4985.09, 20578.63, -9501.21, -219.58, 10178.98, -58422.16, -24583.54, 30839.19, 686.82, 12314.25, 0.00, 0.00, 0.00, 0.00, 0.00, 0.00, 0.00
175, 8340.37, 43440.08, -5132.14, 20550.84, -9486.42, -237.67, 10139.60, -58484.59, -24583.54, 30839.19, 686.82, 12314.25, 0.00, 0.00, 0.00, 0.00, 0.00, 0.00, 0.00
176, 8340.37, 43440.08, -5132.14, 20550.84, -9486.42, -237.67, 10139.60, -58484.59, -24558.78, 30850.30, 621.24, 12279.22, 0.00, 0.00, 0.00, 0.00, 0.00, 0.00, 0.00
177, 8294.40, 43419.38, -5167.70, 20570.22, -9488.09, -182.21, 10126.26, -58549.25, -24558.78, 30850.30, 621.24, 12279.22, 0.00, 0.00, 0.00, 0.00, 0.00, 0.00, 0.00
178, 8294.40, 43419.38, -5167.70, 20570.22, -9488.09, -182.21, 10126.26, -58549.25, -24561.77, 30826.34, 511.25, 12260.31, 0.00, 0.00, 0.00, 0.00, 0.00, 0.00, 0.00
179, 8218.27, 43348.93, -5283.37, 20499.37, -9507.18, -203.71, 10090.78, -58578.02, -24561.77, 30826.34, 511.25, 12260.31, 0.00, 0.00, 0.00, 0.00, 0.00, 0.00, 0.00
180, 8218.27, 43348.93, -5283.37, 20499.37, -9507.18, -203.71, 10090.78, -58578.02, -24546.89, 30847.06, 476.11, 12271.98, 0.00, 0.00, 0.00, 0.00, -0.08, 0.36, 0.94
181, 8197.79, 43364.30, -5283.42, 20532.78, -9548.93, -201.21, 10147.87, -58581.64, -24546.89, 30847.06, 476.11, 12271.98, 0.00, 0.00, 0.00, 0.00, 0.00, 0.00, 0.00
182, 8197.79, 43364.30, -5283.42, 20532.78, -9548.93, -201.21, 10147.87, -58581.64, -24557.57, 30828.91, 482.78, 12273.54, 0.00, 0.00, 0.00, 0.00, 0.00, 0.00, 0.00
183, 8104.32, 43326.04, -5330.04, 20463.33, -9522.87, -222.94, 10093.11, -58658.31, -24557.57, 30828.91, 482.78, 12273.54, 0.00, 0.00, 0.00, 0.00, 0.00, 0.00, 0.00
184, 8104.32, 43326.04, -5330.04, 20463.33, -9522.87, -222.94, 10093.11, -58658.31, -24581.42, 30834.05, 476.90, 12265.41, 0.00, 0.00, 0.00, 0.00, 0.00, 0.00, 0.00
185, 8159.35, 43423.76, -5331.63, 20520.94, -9540.60, -206.80, 10123.13, -58604.59, -24581.42, 30834.05, 476.90, 12265.41, 0.00, 0.00, 0.00, 0.00, 0.00, 0.00, 0.00
186, 8159.35, 43423.76, -5331.63, 20520.94, -9540.60, -206.80, 10123.13, -58604.59, -24578.29, 30837.87, 507.09, 12249.60, 0.00, 0.00, 0.00, 0.00, 0.00, 0.00, 0.00
187, 8088.34, 43303.20, -5395.13, 20464.21, -9561.14, -228.41, 10087.68, -58636.52, -24578.29, 30837.87, 507.09, 12249.60, 0.00, 0.00, 0.00, 0.00, 0.00, 0.00, 0.00
188, 8088.34, 43303.20, -5395.13, 20464.21, -9561.14, -228.41, 10087.68, -58636.52, -24558.67, 30818.76, 488.50, 12251.55, 0.00, 0.00, 0.00, 0.00, 0.00, 0.00, 0.00
189, 8079.66, 43313.54, -5392.20, 20511.79, -9547.84, -202.53, 10133.30, -58584.16, -24558.67, 30818.76, 488.50, 12251.55, 0.00, 0.00, 0.00, 0.00, -0.08, 0.36, 0.93
190, 8079.66, 43313.54, -5392.20, 20511.79, -9547.84, -202.53, 10133.30, -58584.16, -24542.73, 30863.58, 516.44, 12258.41, 0.00, 0.00, 0.00, 0.00, 0.00, 0.00, 0.00
191, 8053.53, 43339.09, -5467.93, 20458.39, -9488.27, -241.76, 10117.52, -58513.27, -24542.73, 30863.58, 516.44, 12258.41, 0.00, 0.00, 0.00, 0.00, 0.00, 0.00, 0.00
192, 8053.53, 43339.09, -5467.93, 20458.39, -9488.27, -241.76, 10117.52, -58513.27, -24540.14, 30838.86, 461.83, 12278.24, 0.00, 0.00, 0.00, 0.00, 0.00, 0.00, 0.00
193, 7991.40, 43315.40, -5455.66, 20506.09, -9421.66, -215.63, 10151.67, -58427.93, -24540.14, 30838.86, 461.83, 12278.24, 0.00, 0.00, 0.00, 0.00, 0.00, 0.00, 0.00
194, 7991.40, 43315.40, -5455.66, 20506.09, -9421.66, -215.63, 10151.67, -58427.93, -24577.93, 30851.73, 396.77, 12262.28, 0.00, 0.00, 0.00, 0.00, 0.00, 0.00, 0.00
195, 7930.69, 43292.31, -5574.01, 20452.70, -9387.64, -244.57, 10138.75, -58391.79, -24577.93, 30851.73, 396.77, 12262.28, 0.00, 0.00, 0.00, 0.00, 0.00, 0.00, 0.00
196, 7930.69, 43292.31, -5574.01, 20452.70, -9387.64, -244.57, 10138.75, -58391.79, -24569.30, 30836.64, 324.10, 12262.05, 0.00, 0.00, 0.00, 0.00, 0.00, 0.00, 0.00
197, 7881.25, 43265.18, -5578.64, 20500.26, -9275.42, -219.18, 10166.67, -58336.46, -24569.30, 30836.64, 324.10, 12262.05, 0.00, 0.00, 0.00, 0.00, 0.00, 0.00, 0.00
198, 7881.25, 43265.18, -5578.64, 20500.26, -9275.42, -219.18, 10166.67, -58336.46, -24533.59, 30877.06, 299.87, 12294.49, 0.00, 0.00, 0.00, 0.00, 0.00, 0.00, 0.00
199, 7840.05, 43220.98, -5582.84, 20526.61, -9124.34, -212.41, 10186.20, -58260.16, -24533.59, 30877.06, 299.87, 12294.49, 0.00, 0.00, 0.00, 0.00, -0.08, 0.37, 0.94
200, 7840.05, 43220.98, -5582.84, 20526.61, -9124.34, -212.41, 10186.20, -58260.16, -24550.69, 30842.66, 226.96, 12309.89, 0.00, 0.00, 0.00, 0.00, 0.00, 0.00, 0.00
201, 7784.20, 43186.21, -5608.10, 20498.76, -9012.20, -230.45, 10208.98, -58226.25, -24550.69, 30842.66, 226.96, 12309.89, 0.00, 0.00, 0.00, 0.00, 0.00, 0.00, 0.00
202, 7784.20, 43186.21, -5608.10, 20498.76, -9012.20, -230.45, 10208.98, -58226.25, -24560.70, 30865.99, 201.61, 12312.10, 0.00, 0.00, 0.00, 0.00, 0.00, 0.00, 0.00
203, 7744.16, 43146.29, -5599.18, 20512.75, -8930.15, -224.90, 10231.56, -58196.18, -24560.70, 30865.99, 201.61, 12312.10, 0.00, 0.00, 0.00, 0.00, 0.00, 0.00, 0.00
204, 7744.16, 43146.29, -5599.18, 20512.75, -8930.15, -224.90, 10231.56, -58196.18, -24564.83, 30837.43, 217.30, 12335.99, 0.00, 0.00, 0.00, 0.00, 0.00, 0.00, 0.00
205, 7753.26, 43165.84, -5564.91, 20525.79, -8875.45, -231.16, 10240.63, -58153.29, -24564.83, 30837.43, 217.30, 12335.99, 0.00, 0.00, 0.00, 0.00, 0.00, 0.00, 0.00
206, 7753.26, 43165.84, -5564.91, 20525.79, -8875.45, -231.16, 10240.63, -58153.29, -24557.75, 30867.80, 297.17, 12352.71, 0.00, 0.00, 0.00, 0.00, 0.00, 0.00, 0.00
207, 7770.40, 43199.30, -5454.81, 20552.32, -8842.44, -227.70, 10281.74, -58095.98, -24557.75, 30867.80, 297.17, 12352.71, 0.00, 0.00, 0.00, 0.00, 0.00, 0.00, 0.00
208, 7770.40, 43199.30, -5454.81, 20552.32, -8842.44, -227.70, 10281.74, -58095.98, -24550.24, 30842.30, 365.74, 12388.86, 0.00, 0.00, 0.00, 0.00, 0.00, 0.00, 0.00
209, 7783.61, 43230.39, -5365.58, 20535.49, -8849.82, -274.03, 10257.68, -58057.65, -24550.24, 30842.30, 365.74, 12388.86, 0.00, 0.00, 0.00, 0.00, -0.08, 0.37, 0.94
210, 7783.61, 43230.39, -5365.58, 20535.49, -8849.82, -274.03, 10257.68, -58057.65, -24560.34, 30873.84, 458.01, 12393.95, 0.00, 0.00, 0.00, 0.00, 0.00, 0.00, 0.00
211, 7860.44, 43289.23, -5213.52, 20555.71, -8812.93, -267.46, 10296.76, -57989.95, -24560.34, 30873.84, 458.01, 12393.95, 0.00, 0.00, 0.00, 0.00, 0.00, 0.00, 0.00
212, 7860.44, 43289.23, -5213.52, 20555.71, -8812.93, -267.46, 10296.76, -57989.95, -24555.69, 30833.98, 565.70, 12431.68, 0.00, 0.00, 0.00, 0.00, 0.00, 0.00, 0.00
213, 7880.46, 43270.18, -5104.78, 20528.51, -8825.83, -299.80, 10266.67, -57995.96, -24555.69, 30833.98, 565.70, 12431.68, 0.00, 0.00, 0.00, 0.00, 0.00, 0.00, 0.00
214, 7880.46, 43270.18, -5104.78, 20528.51, -8825.83, -299.80, 10266.67, -57995.96, -24564.41, 30859.44, 685.28, 12404.79, 0.00, 0.00, 0.00, 0.00, 0.00, 0.00, 0.00
215, 7964.84, 43355.97, -4961.19, 20524.62, -8795.99, -310.02, 10281.42, -57962.68, -24564.41, 30859.44, 685.28, 12404.79, 0.00, 0.00, 0.00, 0.00, 0.00, 0.00, 0.00
216, 7964.84, 43355.97, -4961.19, 20524.62, -8795.99, -310.02, 10281.42, -57962.68, -24578.58, 30818.83, 777.04, 12471.74, 0.00, 0.00, 0.00, 0.00, 0.00, 0.00, 0.00
217, 8004.36, 43393.96, -4805.76, 20478.13, -8802.23, -351.77, 10248.18, -58000.52, -24578.58, 30818.83, 777.04, 12471.74, 0.00, 0.00, 0.00, 0.00, 0.00, 0.00, 0.00
218, 8004.36, 43393.96, -4805.76, 20478.13, -8802.23, -351.77, 10248.18, -58000.52, -24579.47, 30840.60, 909.78, 12476.68, 0.00, 0.00, 0.00, 0.00, 0.00, 0.00, 0.00
219, 8067.19, 43485.63, -4642.90, 20486.49, -8743.76, -341.80, 10274.56, -57979.95, -24579.47, 30840.60, 909.78, 12476.68, 0.00, 0.00, 0.00, 0.00, -0.08, 0.36, 0.94
220, 8067.19, 43485.63, -4642.90, 20486.49, -8743.76, -341.80, 10274.56, -57979.95, -24570.38, 30835.39, 981.64, 12493.78, 0.00, 0.00, 0.00, 0.00, 0.00, 0.00, 0.00
221, 8042.65, 43411.09, -4572.32, 20433.92, -8737.88, -376.43, 10246.13, -58009.35, -24570.38, 30835.39, 981.64, 12493.78, 0.00, 0.00, 0.00, 0.00, 0.00, 0.00, 0.00
222, 8042.65, 43411.09, -4572.32, 20433.92, -8737.88, -376.43, 10246.13, -58009.35, -24553.35, 30864.12, 1086.92, 12513.31, 0.00, 0.00, 0.00, 0.00, 0.00, 0.00, 0.00
223, 8081.94, 43469.76, -4462.86, 20446.88, -8683.03, -362.08, 10274.22, -58004.16, -24553.35, 30864.12, 1086.92, 12513.31, 0.00, 0.00, 0.00, 0.00, 0.00, 0.00, 0.00
224, 8081.94, 43469.76, -4462.86, 20446.88, -8683.03, -362.08, 10274.22, -58004.16, -24562.51, 30835.30, 1149.77, 12536.51, 0.00, 0.00, 0.00, 0.00, 0.00, 0.00, 0.00
225, 8116.34, 43493.68, -4375.87, 20417.27, -8675.11, -392.07, 10249.59, -58036.23, -24562.51, 30835.30, 1149.77, 12536.51, 0.00, 0.00, 0.00, 0.00, 0.00, 0.00, 0.00
226, 8116.34, 43493.68, -4375.87, 20417.27, -8675.11, -392.07, 10249.59, -58036.23, -24533.43, 30857.41, 1215.51, 12555.29, 0.00, 0.00, 0.00, 0.00, 0.00, 0.00, 0.00
227, 8187.06, 43532.50, -4279.60, 20445.86, -8604.97, -372.36, 10280.62, -58035.70, -24533.43, 30857.41, 1215.51, 12555.29, 0.00, 0.00, 0.00, 0.00, 0.00, 0.00, 0.00
228, 8187.06, 43532.50, -4279.60, 20445.86, -8604.97, -372.36, 10280.62, -58035.70, -24520.60, 30867.89, 1269.33, 12572.65, 0.00, 0.00, 0.00, 0.00, -0.08, 0.36, 0.94
229, 8206.29, 43525.08, -4237.29, 20400.06, -8585.51, -404.99, 10255.74, -58067.66, -24520.60, 30867.89, 1269.33, 12572.65, 0.00, 0.00, 0.00, 0.00, 0.00, 0.00, 0.00
230, 8206.29, 43525.08, -4237.29, 20400.06, -8585.51, -404.99, 10255.74, -58067.66, -24575.03, 30849.09, 1314.42, 12593.58, 0.00, 0.00, 0.00, 0.00, 0.00, 0.00, 0.00
231, 8250.90, 43599.45, -4148.60, 20435.28, -8530.72, -385.50, 10290.27, -58058.68, -24575.03, 30849.09, 1314.42, 12593.58, 0.00, 0.00, 0.00, 0.00, 0.00, 0.00, 0.00
232, 8250.90, 43599.45, -4148.60, 20435.28, -8530.72, -385.50, 10290.27, -58058.68, -24546.69, 30863.44, 1358.38, 12597.53, 0.00, 0.00, 0.00, 0.00, 0.00, 0.00, 0.00
233, 8257.25, 43548.53, -4110.13, 20406.54, -8522.09, -414.36, 10267.79, -58072.07, -24546.69, 30863.44, 1358.38, 12597.53, 0.00, 0.00, 0.00, 0.00, 0.00, 0.00, 0.00
234, 8257.25, 43548.53, -4110.13, 20406.54, -8522.09, -414.36, 10267.79, -58072.07, -24522.72, 30866.91, 1392.02, 12622.57, 0.00, 0.00, 0.00, 0.00, 0.00, 0.00, 0.00
235, 8316.66, 43610.11, -4040.48, 20433.43, -8456.76, -391.09, 10314.08, -58035.52, -24522.72, 30866.91, 1392.02, 12622.57, 0.00, 0.00, 0.00, 0.00, 0.00, 0.00, 0.00
236, 8316.66, 43610.11, -4040.48, 20433.43, -8456.76, -391.09, 10314.08, -58035.52, -24573.80, 30863.09, 1445.31, 12630.70, 0.00, 0.00, 0.00, 0.00, 0.00, 0.00, 0.00
237, 8327.28, 43595.64, -4017.23, 20401.35, -8452.29, -420.57, 10286.29, -58058.88, -24573.80, 30863.09, 1445.31, 12630.70, 0.00, 0.00, 0.00, 0.00, 0.00, 0.00, 0.00
238, 8327.28, 43595.64, -4017.23, 20401.35, -8452.29, -420.57, 10286.29, -58058.88, -24534.97, 30855.89, 1449.18, 12651.98, 0.00, 0.00, 0.00, 0.00, -0.07, 0.36, 0.94
239, 8354.17, 43577.36, -3939.87, 20437.25, -8391.54, -393.57, 10329.99, -58005.90, -24534.97, 30855.89, 1449.18, 12651.98, 0.00, 0.00, 0.00, 0.00, 0.00, 0.00, 0.00
240, 8354.17, 43577.36, -3939.87, 20437.25, -8391.54, -393.57, 10329.99, -58005.90, -24549.32, 30875.40, 1500.14, 12652.96, 0.00, 0.00, 0.00, 0.00, 0.00, 0.00, 0.00
241, 8377.59, 43600.92, -3919.40, 20425.47, -8369.74, -410.33, 10317.52, -58011.94, -24549.32, 30875.40, 1500.14, 12652.96, 0.00, 0.00, 0.00, 0.00, 0.00, 0.00, 0.00
242, 8377.59, 43600.92, -3919.40, 20425.47, -8369.74, -410.33, 10317.52, -58011.94, -24573.71, 30842.30, 1500.25, 12672.52, 0.00, 0.00, 0.00, 0.00, 0.00, 0.00, 0.00
243, 8422.16, 43636.64, -3857.29, 20452.81, -8306.60, -393.32, 10354.22, -57968.40, -24573.71, 30842.30, 1500.25, 12672.52, 0.00, 0.00, 0.00, 0.00, 0.00, 0.00, 0.00
244, 8422.16, 43636.64, -3857.29, 20452.81, -8306.60, -393.32, 10354.22, -57968.40, -24546.21, 30889.24, 1533.37, 12677.15, 0.00, 0.00, 0.00, 0.00, 0.00, 0.00, 0.00
245, 8423.86, 43630.18, -3809.56, 20453.72, -8285.28, -399.58, 10349.95, -57960.62, -24546.21, 30889.24, 1533.37, 12677.15, 0.00, 0.00, 0.00, 0.00, 0.00, 0.00, 0.00
246, 8423.86, 43630.18, -3809.56, 20453.72, -8285.28, -399.58, 10349.95, -57960.62, -24556.30, 30842.79, 1550.00, 12696.33, 0.00, 0.00, 0.00, 0.00, 0.00, 0.00, 0.00
247, 8479.09, 43655.17, -3777.36, 20476.95, -8226.38, -388.34, 10383.95, -57928.01, -24556.30, 30842.79, 1550.00, 12696.33, 0.00, 0.00, 0.00, 0.00, 0.00, 0.00, 0.00
248, 8479.09, 43655.17, -3777.36, 20476.95, -8226.38, -388.34, 10383.95, -57928.01, -24566.47, 30880.07, 1577.00, 12685.82, 0.00, 0.00, 0.00, 0.00, -0.07, 0.36, 0.94
249, 8472.67, 43584.65, -3741.57, 20471.87, -8205.44, -392.21, 10386.10, -57904.70, -24566.47, 30880.07, 1577.00, 12685.82, 0.00, 0.00, 0.00, 0.00, 0.00, 0.00, 0.00
250, 8472.67, 43584.65, -3741.57, 20471.87, -8205.44, -392.21, 10386.10, -57904.70, -24540.18, 30855.00, 1574.73, 12725.47, 0.00, 0.00, 0.00, 0.00, 0.00, 0.00, 0.00
251, 8509.00, 43654.21, -3730.30, 20490.20, -8155.32, -387.74, 10403.24, -57885.36, -24540.18, 30855.00, 1574.73, 12725.47, 0.00, 0.00, 0.00, 0.00, 0.00, 0.00, 0.00
252, 8509.00, 43654.21, -3730.30, 20490.20, -8155.32, -387.74, 10403.24, -57885.36, -24567.92, 30877.37, 1595.22, 12717.92, 0.00, 0.00, 0.00, 0.00, 0.00, 0.00, 0.00
253, 8555.29, 43705.46, -3695.93, 20497.51, -8113.37, -381.77, 10423.04, -57845.42, -24567.92, 30877.37, 1595.22, 12717.92, 0.00, 0.00, 0.00, 0.00, 0.00, 0.00, 0.00
254, 8555.29, 43705.46, -3695.93, 20497.51, -8113.37, -381.77, 10423.04, -57845.42, -24544.52, 30864.29, 1596.38, 12745.59, 0.00, 0.00, 0.00, 0.00, 0.00, 0.00, 0.00
255, 8537.72, 43571.64, -3673.75, 20495.70, -8090.50, -383.27, 10430.93, -57819.98, -24544.52, 30864.29, 1596.38, 12745.59, 0.00, 0.00, 0.00, 0.00, 0.00, 0.00, 0.00
0, 8537.72, 43571.64, -3673.75, 20495.70, -8090.50, -383.27, 10430.93, -57819.98, -24543.98, 30890.71, 1612.21, 12741.39, 0.00, 0.00, 0.00, 0.00, 0.00, 0.00, 0.00
1, 8536.04, 43622.27, -3631.69, 20516.98, -8049.00, -375.49, 10453.87, -57780.11, -24543.98, 30890.71, 1612.21, 12741.39, 0.00, 0.00, 0.00, 0.00, 0.00, 0.00, 0.00
2, 8536.04, 43622.27, -3631.69, 20516.98, -8049.00, -375.49, 10453.87, -57780.11, -24570.22, 30860.85, 1613.30, 12754.04, 0.00, 0.00, 0.00, 0.00, -0.08, 0.37, 0.94
3, 8535.35, 43600.88, -3594.99, 20503.59, -8036.01, -386.82, 10445.95, -57773.11, -24570.22, 30860.85, 1613.30, 12754.04, 0.00, 0.00, 0.00, 0.00, 0.00, 0.00, 0.00
4, 8535.35, 43600.88, -3594.99, 20503.59, -8036.01, -386.82, 10445.95, -57773.11, -24553.53, 30883.49, 1628.97, 12753.55, 0.00, 0.00, 0.00, 0.00, 0.00, 0.00, 0.00
5, 8596.12, 43618.09, -3607.84, 20528.71, -7984.09, -371.84, 10477.85, -57722.04, -24553.53, 30883.49, 1628.97, 12753.55, 0.00, 0.00, 0.00, 0.00, 0.00, 0.00, 0.00
6, 8596.12, 43618.09, -3607.84, 20528.71, -7984.09, -371.84, 10477.85, -57722.04, -24550.98, 30856.36, 1617.75, 12759.78, 0.00, 0.00, 0.00, 0.00, 0.00, 0.00, 0.00
7, 8609.33, 43656.69, -3597.83, 20513.94, -7973.96, -386.77, 10470.34, -57708.74, -24550.98, 30856.36, 1617.75, 12759.78, 0.00, 0.00, 0.00, 0.00, 0.00, 0.00, 0.00
8, 8609.33, 43656.69, -3597.83, 20513.94, -7973.96, -386.77, 10470.34, -57708.74, -24571.41, 30878.04, 1640.69, 12766.47, 0.00, 0.00, 0.00, 0.00, 0.00, 0.00, 0.00
9, 8636.45, 43662.32, -3539.94, 20552.21, -7913.88, -359.91, 10506.55, -57661.00, -24571.41, 30878.04, 1640.69, 12766.47, 0.00, 0.00, 0.00, 0.00, 0.00, 0.00, 0.00
10, 8636.45, 43662.32, -3539.94, 20552.21, -7913.88, -359.91, 10506.55, -57661.00, -24547.58, 30865.84, 1636.19, 12773.78, 0.00, 0.00, 0.00, 0.00, 0.00, 0.00, 0.00
11, 8594.87, 43543.79, -3540.36, 20530.14, -7900.63, -382.53, 10490.86, -57644.92, -24547.58, 30865.84, 1636.19, 12773.78, 0.00, 0.00, 0.00, 0.00, -0.08, 0.36, 0.94
12, 8594.87, 43543.79, -3540.36, 20530.14, -7900.63, -382.53, 10490.86, -57644.92, -24549.10, 30882.02, 1650.81, 12775.00, 0.00, 0.00, 0.00, 0.00, 0.00, 0.00, 0.00
13, 8650.17, 43608.27, -3505.47, 20566.20, -7843.41, -353.22, 10532.50, -57598.52, -24549.10, 30882.02, 1650.81, 12775.00, 0.00, 0.00, 0.00, 0.00, 0.00, 0.00, 0.00
14, 8650.17, 43608.27, -3505.47, 20566.20, -7843.41, -353.22, 10532.50, -57598.52, -24560.10, 30862.10, 1661.20, 12780.75, 0.00, 0.00, 0.00, 0.00, 0.00, 0.00, 0.00
15, 8638.84, 43610.55, -3510.97, 20540.87, -7843.96, -377.52, 10514.35, -57590.39, -24560.10, 30862.10, 1661.20, 12780.75, 0.00, 0.00, 0.00, 0.00, 0.00, 0.00, 0.00
16, 8638.84, 43610.55, -3510.97, 20540.87, -7843.96, -377.52, 10514.35, -57590.39, -24546.69, 30880.61, 1661.65, 12795.34, 0.00, 0.00, 0.00, 0.00, 0.00, 0.00, 0.00
17, 8701.65, 43650.30, -3448.58, 20585.67, -7778.83, -341.69, 10562.85, -57530.55, -24546.69, 30880.61, 1661.65, 12795.34, 0.00, 0.00, 0.00, 0.00, 0.00, 0.00, 0.00
18, 8701.65, 43650.30, -3448.58, 20585.67, -7778.83, -341.69, 10562.85, -57530.55, -24559.54, 30866.53, 1676.96, 12790.79, 0.00, 0.00, 0.00, 0.00, 0.00, 0.00, 0.00
19, 8691.07, 43620.77, -3503.10, 20556.54, -7769.58, -370.75, 10538.78, -57521.25, -24559.54, 30866.53, 1676.96, 12790.79, 0.00, 0.00, 0.00, 0.00, 0.00, 0.00, 0.00
20, 8691.07, 43620.77, -3503.10, 20556.54, -7769.58, -370.75, 10538.78, -57521.25, -24542.17, 30877.62, 1670.97, 12804.42, 0.00, 0.00, 0.00, 0.00, 0.00, 0.00, 0.00
21, 8724.11, 43667.21, -3451.24, 20599.93, -7717.50, -338.41, 10586.10, -57469.84, -24542.17, 30877.62, 1670.97, 12804.42, 0.00, 0.00, 0.00, 0.00, -0.09, 0.36, 0.94
22, 8724.11, 43667.21, -3451.24, 20599.93, -7717.50, -338.41, 10586.10, -57469.84, -24543.44, 30877.59, 1686.39, 12800.17, 0.00, 0.00, 0.00, 0.00, 0.00, 0.00, 0.00
23, 8697.89, 43559.44, -3469.37, 20569.75, -7722.13, -363.84, 10559.08, -57464.14, -24543.44, 30877.59, 1686.39, 12800.17, 0.00, 0.00, 0.00, 0.00, 0.00, 0.00, 0.00
24, 8697.89, 43559.44, -3469.37, 20569.75, -7722.13, -363.84, 10559.08, -57464.14, -24548.50, 30860.09, 1676.31, 12802.79, 0.00, 0.00, 0.00, 0.00, 0.00, 0.00, 0.00
25, 8737.16, 43628.52, -3423.42, 20609.29, -7667.18, -336.15, 10600.29, -57410.52, -24548.50, 30860.09, 1676.31, 12802.79, 0.00, 0.00, 0.00, 0.00, 0.00, 0.00, 0.00
26, 8737.16, 43628.52, -3423.42, 20609.29, -7667.18, -336.15, 10600.29, -57410.52, -24574.33, 30868.63, 1702.69, 12800.08, 0.00, 0.00, 0.00, 0.00, 0.00, 0.00, 0.00
27, 8735.82, 43609.10, -3433.45, 20585.04, -7668.32, -360.11, 10576.96, -57401.98, -24574.33, 30868.63, 1702.69, 12800.08, 0.00, 0.00, 0.00, 0.00, 0.00, 0.00, 0.00
28, 8735.82, 43609.10, -3433.45, 20585.04, -7668.32, -360.11, 10576.96, -57401.98, -24548.16, 30864.96, 1688.43, 12818.52, 0.00, 0.00, 0.00, 0.00, 0.00, 0.00, 0.00
29, 8774.76, 43615.74, -3408.35, 20631.69, -7609.70, -327.05, 10623.31, -57342.88, -24548.16, 30864.96, 1688.43, 12818.52, 0.00, 0.00, 0.00, 0.00, 0.00, 0.00, 0.00
30, 8774.76, 43615.74, -3408.35, 20631.69, -7609.70, -327.05, 10623.31, -57342.88, -24553.21, 30882.35, 1745.16, 12812.33, 0.00, 0.00, 0.00, 0.00, 0.00, 0.00, 0.00
31, 8797.62, 43592.83, -3380.72, 20661.64, -7569.84, -324.55, 10626.38, -57319.21, -24553.21, 30882.35, 1745.16, 12812.33, 0.00, 0.00, 0.00, 0.00, -0.08, 0.36, 0.94
32, 8797.62, 43592.83, -3380.72, 20661.64, -7569.84, -324.55, 10626.38, -57319.21, -24563.96, 30846.39, 1657.23, 12823.42, 0.00, 0.00, 0.00, 0.00, 0.00, 0.00, 0.00
33, 8780.30, 43584.49, -3424.35, 20623.57, -7579.59, -339.99, 10619.54, -57303.21, -24563.96, 30846.39, 1657.23, 12823.42, 0.00, 0.00, 0.00, 0.00, 0.00, 0.00, 0.00
34, 8780.30, 43584.49, -3424.35, 20623.57, -7579.59, -339.99, 10619.54, -57303.21, -24559.09, 30871.63, 1665.65, 12809.94, 0.00, 0.00, 0.00, 0.00, 0.00, 0.00, 0.00
35, 8794.74, 43594.37, -3418.52, 20640.23, -7561.53, -342.94, 10609.95, -57286.63, -24559.09, 30871.63, 1665.65, 12809.94, 0.00, 0.00, 0.00, 0.00, 0.00, 0.00, 0.00
36, 8794.74, 43594.37, -3418.52, 20640.23, -7561.53, -342.94, 10609.95, -57286.63, -24572.26, 30832.64, 1609.06, 12818.55, 0.00, 0.00, 0.00, 0.00, 0.00, 0.00, 0.00
37, 8813.61, 43616.16, -3413.31, 20665.37, -7522.05, -324.84, 10636.90, -57243.84, -24572.26, 30832.64, 1609.06, 12818.55, 0.00, 0.00, 0.00, 0.00, 0.00, 0.00, 0.00
38, 8813.61, 43616.16, -3413.31, 20665.37, -7522.05, -324.84, 10636.90, -57243.84, -24572.48, 30869.84, 1652.58, 12816.53, 0.00, 0.00, 0.00, 0.00, 0.00, 0.00, 0.00
39, 8823.33, 43622.85, -3397.98, 20656.56, -7510.61, -337.82, 10627.45, -57227.88, -24572.48, 30869.84, 1652.58, 12816.53, 0.00, 0.00, 0.00, 0.00, 0.00, 0.00, 0.00
40, 8823.33, 43622.85, -3397.98, 20656.56, -7510.61, -337.82, 10627.45, -57227.88, -24567.79, 30832.82, 1631.88, 12823.89, 0.00, 0.00, 0.00, 0.00, 0.00, 0.00, 0.00
41, 8857.68, 43587.87, -3384.28, 20678.11, -7466.38, -324.70, 10653.53, -57188.30, -24567.79, 30832.82, 1631.88, 12823.89, 0.00, 0.00, 0.00, 0.00, -0.08, 0.37, 0.94
42, 8857.68, 43587.87, -3384.28, 20678.11, -7466.38, -324.70, 10653.53, -57188.30, -24573.24, 30869.75, 1691.16, 12822.99, 0.00, 0.00, 0.00, 0.00, 0.00, 0.00, 0.00
43, 8865.93, 43601.61, -3351.11, 20686.25, -7427.57, -320.37, 10663.61, -57149.59, -24573.24, 30869.75, 1691.16, 12822.99, 0.00, 0.00, 0.00, 0.00, 0.00, 0.00, 0.00
44, 8865.93, 43601.61, -3351.11, 20686.25, -7427.57, -320.37, 10663.61, -57149.59, -24559.72, 30843.91, 1671.87, 12842.60, 0.00, 0.00, 0.00, 0.00, 0.00, 0.00, 0.00
45, 8868.34, 43582.28, -3347.93, 20694.85, -7409.98, -315.70, 10675.80, -57118.83, -24559.72, 30843.91, 1671.87, 12842.60, 0.00, 0.00, 0.00, 0.00, 0.00, 0.00, 0.00
46, 8868.34, 43582.28, -3347.93, 20694.85, -7409.98, -315.70, 10675.80, -57118.83, -24551.31, 30890.24, 1705.30, 12852.63, 0.00, 0.00, 0.00, 0.00, 0.00, 0.00, 0.00
47, 8908.09, 43629.69, -3332.24, 20708.78, -7367.20, -303.20, 10692.45, -57080.23, -24551.31, 30890.24, 1705.30, 12852.63, 0.00, 0.00, 0.00, 0.00, 0.00, 0.00, 0.00
48, 8908.09, 43629.69, -3332.24, 20708.78, -7367.20, -303.20, 10692.45, -57080.23, -24561.24, 30852.02, 1694.35, 12854.96, 0.00, 0.00, 0.00, 0.00, 0.00, 0.00, 0.00
49, 8909.11, 43624.19, -3341.05, 20699.30, -7362.75, -318.04, 10682.30, -57070.59, -24561.24, 30852.02, 1694.35, 12854.96, 0.00, 0.00, 0.00, 0.00, 0.00, 0.00, 0.00
50, 8909.11, 43624.19, -3341.05, 20699.30, -7362.75, -318.04, 10682.30, -57070.59, -24573.31, 30866.44, 1712.81, 12835.78, 0.00, 0.00, 0.00, 0.00, 0.00, 0.00, 0.00
51, 8937.81, 43641.40, -3320.80, 20716.67, -7320.84, -305.75, 10701.81, -57032.80, -24573.31, 30866.44, 1712.81, 12835.78, 0.00, 0.00, 0.00, 0.00, -0.08, 0.37, 0.94
52, 8937.81, 43641.40, -3320.80, 20716.67, -7320.84, -305.75, 10701.81, -57032.80, -24566.55, 30839.15, 1708.01, 12844.25, 0.00, 0.00, 0.00, 0.00, 0.00, 0.00, 0.00
53, 8924.34, 43576.54, -3332.18, 20702.21, -7314.68, -320.52, 10690.59, -57015.01, -24566.55, 30839.15, 1708.01, 12844.25, 0.00, 0.00, 0.00, 0.00, 0.00, 0.00, 0.00
54, 8924.34, 43576.54, -3332.18, 20702.21, -7314.68, -320.52, 10690.59, -57015.01, -24560.03, 30865.43, 1729.58, 12844.85, 0.00, 0.00, 0.00, 0.00, 0.00, 0.00, 0.00
55, 8980.91, 43652.13, -3296.86, 20740.81, -7270.11, -294.39, 10722.87, -56968.78, -24560.03, 30865.43, 1729.58, 12844.85, 0.00, 0.00, 0.00, 0.00, 0.00, 0.00, 0.00
56, 8980.91, 43652.13, -3296.86, 20740.81, -7270.11, -294.39, 10722.87, -56968.78, -24564.52, 30842.37, 1723.90, 12846.42, 0.00, 0.00, 0.00, 0.00, 0.00, 0.00, 0.00
57, 8969.22, 43623.00, -3312.48, 20715.13, -7263.38, -317.46, 10703.92, -56961.74, -24564.52, 30842.37, 1723.90, 12846.42, 0.00, 0.00, 0.00, 0.00, 0.00, 0.00, 0.00
58, 8969.22, 43623.00, -3312.48, 20715.13, -7263.38, -317.46, 10703.92, -56961.74, -24570.02, 30857.63, 1734.23, 12844.14, 0.00, 0.00, 0.00, 0.00, 0.00, 0.00, 0.00
59, 9006.30, 43624.23, -3287.45, 20751.58, -7214.56, -287.78, 10741.04, -56906.15, -24570.02, 30857.63, 1734.23, 12844.14, 0.00, 0.00, 0.00, 0.00, 0.00, 0.00, 0.00
60, 9006.30, 43624.23, -3287.45, 20751.58, -7214.56, -287.78, 10741.04, -56906.15, -24569.60, 30846.23, 1738.63, 12852.86, 0.00, 0.00, 0.00, 0.00, -0.07, 0.37, 0.94
61, 8989.96, 43614.71, -3299.48, 20727.00, -7211.70, -311.83, 10716.88, -56887.29, -24569.60, 30846.23, 1738.63, 12852.86, 0.00, 0.00, 0.00, 0.00, 0.00, 0.00, 0.00
62, 8989.96, 43614.71, -3299.48, 20727.00, -7211.70, -311.83, 10716.88, -56887.29, -24552.41, 30859.20, 1735.79, 12855.54, 0.00, 0.00, 0.00, 0.00, 0.00, 0.00, 0.00
63, 9038.42, 43683.58, -3280.34, 20761.57, -7161.07, -284.60, 10758.68, -56812.79, -24552.41, 30859.20, 1735.79, 12855.54, 0.00, 0.00, 0.00, 0.00, 0.00, 0.00, 0.00
64, 9038.42, 43683.58, -3280.34, 20761.57, -7161.07, -284.60, 10758.68, -56812.79, -24568.90, 30850.59, 1754.14, 12854.78, 0.00, 0.00, 0.00, 0.00, 0.00, 0.00, 0.00
65, 9031.22, 43618.63, -3288.30, 20730.15, -7165.68, -312.48, 10729.02, -56812.50, -24568.90, 30850.59, 1754.14, 12854.78, 0.00, 0.00, 0.00, 0.00, 0.00, 0.00, 0.00
66, 9031.22, 43618.63, -3288.30, 20730.15, -7165.68, -312.48, 10729.02, -56812.50, -24555.60, 30848.65, 1762.17, 12856.05, 0.00, 0.00, 0.00, 0.00, 0.00, 0.00, 0.00
67, 9065.46, 43649.85, -3255.55, 20777.58, -7106.09, -274.84, 10779.04, -56748.11, -24555.60, 30848.65, 1762.17, 12856.05, 0.00, 0.00, 0.00, 0.00, 0.00, 0.00, 0.00
68, 9065.46, 43649.85, -3255.55, 20777.58, -7106.09, -274.84, 10779.04, -56748.11, -24556.45, 30855.87, 1772.07, 12863.41, 0.00, 0.00, 0.00, 0.00, 0.00, 0.00, 0.00
69, 9062.78, 43633.66, -3278.24, 20738.84, -7123.03, -312.68, 10740.10, -56758.30, -24556.45, 30855.87, 1772.07, 12863.41, 0.00, 0.00, 0.00, 0.00, 0.00, 0.00, 0.00
70, 9062.78, 43633.66, -3278.24, 20738.84, -7123.03, -312.68, 10740.10, -56758.30, -24580.99, 30830.63, 1761.18, 12852.72, 0.00, 0.00, 0.00, 0.00, -0.08, 0.37, 0.94
71, 9092.26, 43661.00, -3255.00, 20774.65, -7071.96, -279.91, 10786.06, -56698.50, -24580.99, 30830.63, 1761.18, 12852.72, 0.00, 0.00, 0.00, 0.00, 0.00, 0.00, 0.00
72, 9092.26, 43661.00, -3255.00, 20774.65, -7071.96, -279.91, 10786.06, -56698.50, -24565.77, 30854.68, 1785.84, 12862.69, 0.00, 0.00, 0.00, 0.00, 0.00, 0.00, 0.00
73, 9071.52, 43644.21, -3264.14, 20748.52, -7072.92, -303.56, 10755.75, -56696.85, -24565.77, 30854.68, 1785.84, 12862.69, 0.00, 0.00, 0.00, 0.00, 0.00, 0.00, 0.00
74, 9071.52, 43644.21, -3264.14, 20748.52, -7072.92, -303.56, 10755.75, -56696.85, -24566.69, 30834.32, 1766.73, 12863.65, 0.00, 0.00, 0.00, 0.00, 0.00, 0.00, 0.00
75, 9131.67, 43674.77, -3253.61, 20782.00, -7025.87, -279.06, 10794.19, -56645.24, -24566.69, 30834.32, 1766.73, 12863.65, 0.00, 0.00, 0.00, 0.00, 0.00, 0.00, 0.00
76, 9131.67, 43674.77, -3253.61, 20782.00, -7025.87, -279.06, 10794.19, -56645.24, -24570.69, 30855.78, 1784.14, 12860.41, 0.00, 0.00, 0.00, 0.00, 0.00, 0.00, 0.00
77, 9111.69, 43618.09, -3276.54, 20755.27, -7029.06, -300.97, 10771.48, -56639.32, -24570.69, 30855.78, 1784.14, 12860.41, 0.00, 0.00, 0.00, 0.00, 0.00, 0.00, 0.00
78, 9111.69, 43618.09, -3276.54, 20755.27, -7029.06, -300.97, 10771.48, -56639.32, -24567.38, 30830.81, 1780.79, 12868.59, 0.00, 0.00, 0.00, 0.00, 0.00, 0.00, 0.00
79, 9138.85, 43651.61, -3238.48, 20789.80, -6979.73, -276.76, 10803.69, -56596.71, -24567.38, 30830.81, 1780.79, 12868.59, 0.00, 0.00, 0.00, 0.00, 0.00, 0.00, 0.00
80, 9138.85, 43651.61, -3238.48, 20789.80, -6979.73, -276.76, 10803.69, -56596.71, -24569.06, 30857.77, 1796.07, 12864.88, 0.00, 0.00, 0.00, 0.00, -0.08, 0.36, 0.94
81, 9139.38, 43660.06, -3264.41, 20763.72, -6981.05, -297.77, 10783.82, -56585.72, -24569.06, 30857.77, 1796.07, 12864.88, 0.00, 0.00, 0.00, 0.00, 0.00, 0.00, 0.00
82, 9139.38, 43660.06, -3264.41, 20763.72, -6981.05, -297.77, 10783.82, -56585.72, -24546.26, 30838.37, 1788.83, 12873.24, 0.00, 0.00, 0.00, 0.00, 0.00, 0.00, 0.00
83, 9200.56, 43695.65, -3236.11, 20793.11, -6935.34, -274.79, 10818.71, -56537.77, -24546.26, 30838.37, 1788.83, 12873.24, 0.00, 0.00, 0.00, 0.00, 0.00, 0.00, 0.00
84, 9200.56, 43695.65, -3236.11, 20793.11, -6935.34, -274.79, 10818.71, -56537.77, -24573.62, 30857.34, 1828.44, 12871.63, 0.00, 0.00, 0.00, 0.00, 0.00, 0.00, 0.00
85, 9148.39, 43611.40, -3245.00, 20774.58, -6928.50, -290.84, 10801.68, -56530.24, -24573.62, 30857.34, 1828.44, 12871.63, 0.00, 0.00, 0.00, 0.00, 0.00, 0.00, 0.00
86, 9148.39, 43611.40, -3245.00, 20774.58, -6928.50, -290.84, 10801.68, -56530.24, -24565.66, 30826.97, 1799.87, 12882.47, 0.00, 0.00, 0.00, 0.00, 0.00, 0.00, 0.00
87, 9188.69, 43657.83, -3244.47, 20792.96, -6892.56, -278.48, 10823.92, -56492.98, -24565.66, 30826.97, 1799.87, 12882.47, 0.00, 0.00, 0.00, 0.00, 0.00, 0.00, 0.00
88, 9188.69, 43657.83, -3244.47, 20792.96, -6892.56, -278.48, 10823.92, -56492.98, -24558.62, 30864.32, 1826.45, 12877.17, 0.00, 0.00, 0.00, 0.00, 0.00, 0.00, 0.00
89, 9215.31, 43689.21, -3235.33, 20787.61, -6881.59, -283.15, 10819.83, -56472.44, -24558.62, 30864.32, 1826.45, 12877.17, 0.00, 0.00, 0.00, 0.00, 0.00, 0.00, 0.00
90, 9215.31, 43689.21, -3235.33, 20787.61, -6881.59, -283.15, 10819.83, -56472.44, -24560.99, 30826.07, 1813.55, 12882.96, 0.00, 0.00, 0.00, 0.00, -0.08, 0.36, 0.94
91, 9206.62, 43649.69, -3228.40, 20799.17, -6854.92, -277.23, 10832.77, -56443.45, -24560.99, 30826.07, 1813.55, 12882.96, 0.00, 0.00, 0.00, 0.00, 0.00, 0.00, 0.00
92, 9206.62, 43649.69, -3228.40, 20799.17, -6854.92, -277.23, 10832.77, -56443.45, -24561.53, 30866.80, 1837.16, 12881.67, 0.00, 0.00, 0.00, 0.00, 0.00, 0.00, 0.00
93, 9222.75, 43655.84, -3231.41, 20795.17, -6832.95, -277.72, 10836.82, -56417.39, -24561.53, 30866.80, 1837.16, 12881.67, 0.00, 0.00, 0.00, 0.00, 0.00, 0.00, 0.00
94, 9222.75, 43655.84, -3231.41, 20795.17, -6832.95, -277.72, 10836.82, -56417.39, -24544.52, 30838.99, 1821.64, 12899.30, 0.00, 0.00, 0.00, 0.00, 0.00, 0.00, 0.00
95, 9237.82, 43628.68, -3235.08, 20801.25, -6812.14, -276.13, 10840.22, -56392.67, -24544.52, 30838.99, 1821.64, 12899.30, 0.00, 0.00, 0.00, 0.00, 0.00, 0.00, 0.00
96, 9237.82, 43628.68, -3235.08, 20801.25, -6812.14, -276.13, 10840.22, -56392.67, -24554.33, 30866.55, 1853.18, 12885.47, 0.00, 0.00, 0.00, 0.00, 0.00, 0.00, 0.00
97, 9267.01, 43677.07, -3225.85, 20807.91, -6787.33, -270.43, 10849.71, -56365.89, -24554.33, 30866.55, 1853.18, 12885.47, 0.00, 0.00, 0.00, 0.00, 0.00, 0.00, 0.00
98, 9267.01, 43677.07, -3225.85, 20807.91, -6787.33, -270.43, 10849.71, -56365.89, -24566.89, 30825.38, 1832.33, 12892.13, 0.00, 0.00, 0.00, 0.00, 0.00, 0.00, 0.00
99, 9261.94, 43668.76, -3234.92, 20798.83, -6778.37, -282.77, 10838.20, -56354.71, -24566.89, 30825.38, 1832.33, 12892.13, 0.00, 0.00, 0.00, 0.00, -0.08, 0.36, 0.94
100, 9261.94, 43668.76, -3234.92, 20798.83, -6778.37, -282.77, 10838.20, -56354.71, -24549.84, 30860.52, 1849.45, 12888.04, 0.00, 0.00, 0.00, 0.00, 0.00, 0.00, 0.00
101, 9297.43, 43687.31, -3225.22, 20820.13, -6744.17, -264.40, 10863.86, -56315.82, -24549.84, 30860.52, 1849.45, 12888.04, 0.00, 0.00, 0.00, 0.00, 0.00, 0.00, 0.00
102, 9297.43, 43687.31, -3225.22, 20820.13, -6744.17, -264.40, 10863.86, -56315.82, -24561.08, 30836.67, 1837.69, 12892.98, 0.00, 0.00, 0.00, 0.00, 0.00, 0.00, 0.00
103, 9277.14, 43649.71, -3230.92, 20803.01, -6745.96, -282.77, 10846.99, -56311.64, -24561.08, 30836.67, 1837.69, 12892.98, 0.00, 0.00, 0.00, 0.00, 0.00, 0.00, 0.00
104, 9277.14, 43649.71, -3230.92, 20803.01, -6745.96, -282.77, 10846.99, -56311.64, -24568.99, 30852.31, 1850.32, 12889.09, 0.00, 0.00, 0.00, 0.00, 0.00, 0.00, 0.00
105, 9319.94, 43695.38, -3224.69, 20830.44, -6691.73, -258.72, 10880.92, -56262.40, -24568.99, 30852.31, 1850.32, 12889.09, 0.00, 0.00, 0.00, 0.00, 0.00, 0.00, 0.00
106, 9319.94, 43695.38, -3224.69, 20830.44, -6691.73, -258.72, 10880.92, -56262.40, -24552.99, 30832.73, 1858.17, 12894.65, 0.00, 0.00, 0.00, 0.00, 0.00, 0.00, 0.00
107, 9300.61, 43622.20, -3237.29, 20795.37, -6703.62, -288.45, 10852.75, -56269.71, -24552.99, 30832.73, 1858.17, 12894.65, 0.00, 0.00, 0.00, 0.00, 0.00, 0.00, 0.00
108, 9300.61, 43622.20, -3237.29, 20795.37, -6703.62, -288.45, 10852.75, -56269.71, -24565.28, 30851.40, 1866.55, 12900.24, 0.00, 0.00, 0.00, 0.00, 0.00, 0.00, 0.00
109, 9333.35, 43648.69, -3215.79, 20832.67, -6655.12, -260.08, 10888.74, -56216.54, -24565.28, 30851.40, 1866.55, 12900.24, 0.00, 0.00, 0.00, 0.00, -0.08, 0.37, 0.94
110, 9333.35, 43648.69, -3215.79, 20832.67, -6655.12, -260.08, 10888.74, -56216.54, -24553.17, 30839.51, 1864.69, 12902.28, 0.00, 0.00, 0.00, 0.00, 0.00, 0.00, 0.00
111, 9321.17, 43644.06, -3244.20, 20800.69, -6664.82, -285.43, 10862.03, -56213.54, -24553.17, 30839.51, 1864.69, 12902.28, 0.00, 0.00, 0.00, 0.00, 0.00, 0.00, 0.00
112, 9321.17, 43644.06, -3244.20, 20800.69, -6664.82, -285.43, 10862.03, -56213.54, -24541.43, 30846.37, 1866.37, 12895.41, 0.00, 0.00, 0.00, 0.00, 0.00, 0.00, 0.00
113, 9357.71, 43681.66, -3213.49, 20839.09, -6605.81, -255.68, 10904.10, -56163.52, -24541.43, 30846.37, 1866.37, 12895.41, 0.00, 0.00, 0.00, 0.00, 0.00, 0.00, 0.00
114, 9357.71, 43681.66, -3213.49, 20839.09, -6605.81, -255.68, 10904.10, -56163.52, -24558.73, 30841.70, 1875.15, 12901.85, 0.00, 0.00, 0.00, 0.00, 0.00, 0.00, 0.00
115, 9367.62, 43719.16, -3217.13, 20813.03, -6622.60, -281.25, 10870.19, -56170.96, -24558.73, 30841.70, 1875.15, 12901.85, 0.00, 0.00, 0.00, 0.00, 0.00, 0.00, 0.00
116, 9367.62, 43719.16, -3217.13, 20813.03, -6622.60, -281.25, 10870.19, -56170.96, -24563.45, 30830.32, 1880.74, 12892.13, 0.00, 0.00, 0.00, 0.00, 0.00, 0.00, 0.00
117, 9380.04, 43661.98, -3220.44, 20837.88, -6576.24, -259.77, 10902.78, -56129.00, -24563.45, 30830.32, 1880.74, 12892.13, 0.00, 0.00, 0.00, 0.00, 0.00, 0.00, 0.00
118, 9380.04, 43661.98, -3220.44, 20837.88, -6576.24, -259.77, 10902.78, -56129.00, -24561.77, 30836.42, 1879.38, 12892.26, 0.00, 0.00, 0.00, 0.00, 0.00, 0.00, 0.00
119, 9361.22, 43618.78, -3230.43, 20813.05, -6581.25, -284.49, 10877.92, -56125.86, -24561.77, 30836.42, 1879.38, 12892.26, 0.00, 0.00, 0.00, 0.00, -0.08, 0.37, 0.94
120, 9361.22, 43618.78, -3230.43, 20813.05, -6581.25, -284.49, 10877.92, -56125.86, -24561.53, 30827.81, 1886.06, 12902.86, 0.00, 0.00, 0.00, 0.00, 0.00, 0.00, 0.00
121, 9399.89, 43690.91, -3202.85, 20855.94, -6537.28, -250.07, 10921.46, -56079.61, -24561.53, 30827.81, 1886.06, 12902.86, 0.00, 0.00, 0.00, 0.00, 0.00, 0.00, 0.00
122, 9399.89, 43690.91, -3202.85, 20855.94, -6537.28, -250.07, 10921.46, -56079.61, -24551.76, 30848.56, 1913.56, 12903.80, 0.00, 0.00, 0.00, 0.00, 0.00, 0.00, 0.00
123, 9429.91, 43733.78, -3186.55, 20857.93, -6522.66, -258.97, 10908.41, -56064.32, -24551.76, 30848.56, 1913.56, 12903.80, 0.00, 0.00, 0.00, 0.00, 0.00, 0.00, 0.00
124, 9429.91, 43733.78, -3186.55, 20857.93, -6522.66, -258.97, 10908.41, -56064.32, -24546.10, 30836.00, 1901.95, 12911.46, 0.00, 0.00, 0.00, 0.00, 0.00, 0.00, 0.00
125, 9438.56, 43665.63, -3205.89, 20862.04, -6503.11, -246.54, 10929.47, -56036.98, -24546.10, 30836.00, 1901.95, 12911.46, 0.00, 0.00, 0.00, 0.00, 0.00, 0.00, 0.00
126, 9438.56, 43665.63, -3205.89, 20862.04, -6503.11, -246.54, 10929.47, -56036.98, -24560.88, 30842.03, 1884.72, 12899.75, 0.00, 0.00, 0.00, 0.00, 0.00, 0.00, 0.00
127, 9407.54, 43629.96, -3230.18, 20831.91, -6517.03, -276.09, 10897.59, -56037.39, -24560.88, 30842.03, 1884.72, 12899.75, 0.00, 0.00, 0.00, 0.00, 0.00, 0.00, 0.00
128, 9407.54, 43629.96, -3230.18, 20831.91, -6517.03, -276.09, 10897.59, -56037.39, -24546.60, 30827.93, 1865.28, 12910.81, 0.00, 0.00, 0.00, 0.00, 0.00, 0.00, 0.00
129, 9436.68, 43675.35, -3205.75, 20872.15, -6470.74, -247.03, 10929.51, -55995.90, -24546.60, 30827.93, 1865.28, 12910.81, 0.00, 0.00, 0.00, 0.00, -0.08, 0.37, 0.93
130, 9436.68, 43675.35, -3205.75, 20872.15, -6470.74, -247.03, 10929.51, -55995.90, -24578.25, 30832.93, 1900.46, 12892.46, 0.00, 0.00, 0.00, 0.00, 0.00, 0.00, 0.00
131, 9434.38, 43652.13, -3205.62, 20846.35, -6472.73, -270.32, 10905.64, -55987.56, -24578.25, 30832.93, 1900.46, 12892.46, 0.00, 0.00, 0.00, 0.00, 0.00, 0.00, 0.00
132, 9434.38, 43652.13, -3205.62, 20846.35, -6472.73, -270.32, 10905.64, -55987.56, -24559.45, 30813.98, 1886.71, 12904.76, 0.00, 0.00, 0.00, 0.00, 0.00, 0.00, 0.00
133, 9483.91, 43693.90, -3204.73, 20874.29, -6430.04, -251.12, 10938.21, -55951.87, -24559.45, 30813.98, 1886.71, 12904.76, 0.00, 0.00, 0.00, 0.00, 0.00, 0.00, 0.00
134, 9483.91, 43693.90, -3204.73, 20874.29, -6430.04, -251.12, 10938.21, -55951.87, -24568.54, 30845.07, 1920.06, 12898.70, 0.00, 0.00, 0.00, 0.00, 0.00, 0.00, 0.00
135, 9475.24, 43664.40, -3203.50, 20863.90, -6422.48, -257.89, 10930.61, -55934.19, -24568.54, 30845.07, 1920.06, 12898.70, 0.00, 0.00, 0.00, 0.00, 0.00, 0.00, 0.00
136, 9475.24, 43664.40, -3203.50, 20863.90, -6422.48, -257.89, 10930.61, -55934.19, -24553.14, 30823.88, 1906.89, 12921.81, 0.00, 0.00, 0.00, 0.00, 0.00, 0.00, 0.00
137, 9489.16, 43706.51, -3198.07, 20872.95, -6395.55, -252.89, 10940.49, -55910.25, -24553.14, 30823.88, 1906.89, 12921.81, 0.00, 0.00, 0.00, 0.00, 0.00, 0.00, 0.00
138, 9489.16, 43706.51, -3198.07, 20872.95, -6395.55, -252.89, 10940.49, -55910.25, -24572.48, 30837.76, 1927.86, 12900.60, 0.00, 0.00, 0.00, 0.00, -0.08, 0.36, 0.93
139, 9481.43, 43654.79, -3193.66, 20873.02, -6385.11, -253.78, 10939.55, -55894.58, -24572.48, 30837.76, 1927.86, 12900.60, 0.00, 0.00, 0.00, 0.00, 0.00, 0.00, 0.00
140, 9481.43, 43654.79, -3193.66, 20873.02, -6385.11, -253.78, 10939.55, -55894.58, -24552.92, 30815.41, 1915.83, 12916.94, 0.00, 0.00, 0.00, 0.00, 0.00, 0.00, 0.00
141, 9486.53, 43667.68, -3189.84, 20874.70, -6363.79, -252.49, 10948.40, -55862.35, -24552.92, 30815.41, 1915.83, 12916.94, 0.00, 0.00, 0.00, 0.00, 0.00, 0.00, 0.00
142, 9486.53, 43667.68, -3189.84, 20874.70, -6363.79, -252.49, 10948.40, -55862.35, -24547.96, 30849.47, 1938.12, 12914.32, 0.00, 0.00, 0.00, 0.00, 0.00, 0.00, 0.00
143, 9530.02, 43707.63, -3191.61, 20880.46, -6333.81, -248.17, 10954.37, -55840.45, -24547.96, 30849.47, 1938.12, 12914.32, 0.00, 0.00, 0.00, 0.00, 0.00, 0.00, 0.00
144, 9530.02, 43707.63, -3191.61, 20880.46, -6333.81, -248.17, 10954.37, -55840.45, -24562.73, 30812.97, 1917.06, 12916.36, 0.00, 0.00, 0.00, 0.00, 0.00, 0.00, 0.00
145, 9519.36, 43669.63, -3199.25, 20874.29, -6335.00, -256.67, 10947.95, -55830.36, -24562.73, 30812.97, 1917.06, 12916.36, 0.00, 0.00, 0.00, 0.00, 0.00, 0.00, 0.00
146, 9519.36, 43669.63, -3199.25, 20874.29, -6335.00, -256.67, 10947.95, -55830.36, -24562.40, 30841.61, 1937.74, 12909.23, 0.00, 0.00, 0.00, 0.00, 0.00, 0.00, 0.00
147, 9527.01, 43690.46, -3188.14, 20890.65, -6302.99, -245.76, 10964.40, -55799.45, -24562.40, 30841.61, 1937.74, 12909.23, 0.00, 0.00, 0.00, 0.00, 0.00, 0.00, 0.00
148, 9527.01, 43690.46, -3188.14, 20890.65, -6302.99, -245.76, 10964.40, -55799.45, -24563.45, 30810.83, 1929.49, 12921.43, 0.00, 0.00, 0.00, 0.00, -0.08, 0.37, 0.94
149, 9532.68, 43668.89, -3192.59, 20874.00, -6298.83, -258.65, 10953.63, -55792.84, -24563.45, 30810.83, 1929.49, 12921.43, 0.00, 0.00, 0.00, 0.00, 0.00, 0.00, 0.00
150, 9532.68, 43668.89, -3192.59, 20874.00, -6298.83, -258.65, 10953.63, -55792.84, -24562.58, 30836.29, 1941.34, 12908.42, 0.00, 0.00, 0.00, 0.00, 0.00, 0.00, 0.00
151, 9569.94, 43703.05, -3173.01, 20902.88, -6262.53, -240.26, 10976.20, -55759.80, -24562.58, 30836.29, 1941.34, 12908.42, 0.00, 0.00, 0.00, 0.00, 0.00, 0.00, 0.00
152, 9569.94, 43703.05, -3173.01, 20902.88, -6262.53, -240.26, 10976.20, -55759.80, -24568.30, 30810.18, 1931.10, 12916.29, 0.00, 0.00, 0.00, 0.00, 0.00, 0.00, 0.00
153, 9547.97, 43662.66, -3186.87, 20879.48, -6261.01, -260.73, 10954.83, -55752.80, -24568.30, 30810.18, 1931.10, 12916.29, 0.00, 0.00, 0.00, 0.00, 0.00, 0.00, 0.00
154, 9547.97, 43662.66, -3186.87, 20879.48, -6261.01, -260.73, 10954.83, -55752.80, -24561.35, 30837.22, 1945.67, 12911.57, 0.00, 0.00, 0.00, 0.00, 0.00, 0.00, 0.00
155, 9584.43, 43692.70, -3161.39, 20912.07, -6224.22, -233.02, 10988.47, -55705.44, -24561.35, 30837.22, 1945.67, 12911.57, 0.00, 0.00, 0.00, 0.00, 0.00, 0.00, 0.00
156, 9584.43, 43692.70, -3161.39, 20912.07, -6224.22, -233.02, 10988.47, -55705.44, -24566.91, 30820.62, 1945.85, 12931.71, 0.00, 0.00, 0.00, 0.00, 0.00, 0.00, 0.00
157, 9579.26, 43679.20, -3191.63, 20888.44, -6228.65, -254.65, 10963.04, -55709.91, -24566.91, 30820.62, 1945.85, 12931.71, 0.00, 0.00, 0.00, 0.00, 0.00, 0.00, 0.00
158, 9579.26, 43679.20, -3191.63, 20888.44, -6228.65, -254.65, 10963.04, -55709.91, -24564.77, 30827.32, 1959.64, 12925.03, 0.00, 0.00, 0.00, 0.00, -0.08, 0.36, 0.94
159, 9617.11, 43726.63, -3152.47, 20923.22, -6179.83, -226.20, 11001.01, -55659.71, -24564.77, 30827.32, 1959.64, 12925.03, 0.00, 0.00, 0.00, 0.00, 0.00, 0.00, 0.00
160, 9617.11, 43726.63, -3152.47, 20923.22, -6179.83, -226.20, 11001.01, -55659.71, -24563.05, 30827.19, 1957.61, 12923.26, 0.00, 0.00, 0.00, 0.00, 0.00, 0.00, 0.00
161, 9584.25, 43678.44, -3176.50, 20892.04, -6195.75, -256.42, 10966.64, -55666.77, -24563.05, 30827.19, 1957.61, 12923.26, 0.00, 0.00, 0.00, 0.00, 0.00, 0.00, 0.00
162, 9584.25, 43678.44, -3176.50, 20892.04, -6195.75, -256.42, 10966.64, -55666.77, -24560.74, 30825.00, 1958.06, 12921.92, 0.00, 0.00, 0.00, 0.00, 0.00, 0.00, 0.00
163, 9623.28, 43702.64, -3143.35, 20927.36, -6143.98, -224.55, 11009.80, -55615.16, -24560.74, 30825.00, 1958.06, 12921.92, 0.00, 0.00, 0.00, 0.00, 0.00, 0.00, 0.00
164, 9623.28, 43702.64, -3143.35, 20927.36, -6143.98, -224.55, 11009.80, -55615.16, -24560.83, 30826.59, 1973.37, 12922.26, 0.00, 0.00, 0.00, 0.00, 0.00, 0.00, 0.00
165, 9637.29, 43684.05, -3163.62, 20895.79, -6154.26, -252.98, 10978.95, -55621.04, -24560.83, 30826.59, 1973.37, 12922.26, 0.00, 0.00, 0.00, 0.00, 0.00, 0.00, 0.00
166, 9637.29, 43684.05, -3163.62, 20895.79, -6154.26, -252.98, 10978.95, -55621.04, -24551.04, 30830.36, 1972.23, 12928.61, 0.00, 0.00, 0.00, 0.00, 0.00, 0.00, 0.00
167, 9644.96, 43728.30, -3143.37, 20931.04, -6110.05, -221.77, 11019.19, -55568.29, -24551.04, 30830.36, 1972.23, 12928.61, 0.00, 0.00, 0.00, 0.00, 0.00, 0.00, 0.00
168, 9644.96, 43728.30, -3143.37, 20931.04, -6110.05, -221.77, 11019.19, -55568.29, -24566.76, 30828.24, 1976.77, 12922.37, 0.00, 0.00, 0.00, 0.00, -0.08, 0.36, 0.94
169, 9634.65, 43692.77, -3171.11, 20894.88, -6119.93, -252.19, 10982.28, -55581.75, -24566.76, 30828.24, 1976.77, 12922.37, 0.00, 0.00, 0.00, 0.00, 0.00, 0.00, 0.00
170, 9634.65, 43692.77, -3171.11, 20894.88, -6119.93, -252.19, 10982.28, -55581.75, -24553.99, 30825.36, 1973.95, 12938.35, 0.00, 0.00, 0.00, 0.00, 0.00, 0.00, 0.00
171, 9661.85, 43696.86, -3137.49, 20932.83, -6076.23, -222.78, 11023.46, -55530.14, -24553.99, 30825.36, 1973.95, 12938.35, 0.00, 0.00, 0.00, 0.00, 0.00, 0.00, 0.00
172, 9661.85, 43696.86, -3137.49, 20932.83, -6076.23, -222.78, 11023.46, -55530.14, -24556.45, 30836.87, 1993.06, 12923.42, 0.00, 0.00, 0.00, 0.00, 0.00, 0.00, 0.00
173, 9675.65, 43714.76, -3149.00, 20904.27, -6080.08, -246.36, 10994.04, -55535.79, -24556.45, 30836.87, 1993.06, 12923.42, 0.00, 0.00, 0.00, 0.00, 0.00, 0.00, 0.00
174, 9675.65, 43714.76, -3149.00, 20904.27, -6080.08, -246.36, 10994.04, -55535.79, -24563.29, 30814.02, 1983.34, 12932.25, 0.00, 0.00, 0.00, 0.00, 0.00, 0.00, 0.00
175, 9670.55, 43675.57, -3131.90, 20934.87, -6045.03, -222.15, 11026.29, -55493.32, -24563.29, 30814.02, 1983.34, 12932.25, 0.00, 0.00, 0.00, 0.00, 0.00, 0.00, 0.00
176, 9670.55, 43675.57, -3131.90, 20934.87, -6045.03, -222.15, 11026.29, -55493.32, -24560.74, 30833.89, 1998.74, 12928.65, 0.00, 0.00, 0.00, 0.00, 0.00, 0.00, 0.00
177, 9662.93, 43683.44, -3134.25, 20910.23, -6047.62, -243.92, 11001.13, -55494.55, -24560.74, 30833.89, 1998.74, 12928.65, 0.00, 0.00, 0.00, 0.00, -0.08, 0.36, 0.93
178, 9662.93, 43683.44, -3134.25, 20910.23, -6047.62, -243.92, 11001.13, -55494.55, -24562.85, 30807.68, 1987.54, 12934.22, 0.00, 0.00, 0.00, 0.00, 0.00, 0.00, 0.00
179, 9703.29, 43731.32, -3128.48, 20933.32, -6008.60, -225.53, 11031.19, -55451.95, -24562.85, 30807.68, 1987.54, 12934.22, 0.00, 0.00, 0.00, 0.00, 0.00, 0.00, 0.00
180, 9703.29, 43731.32, -3128.48, 20933.32, -6008.60, -225.53, 11031.19, -55451.95, -24556.18, 30838.97, 2004.59, 12924.63, 0.00, 0.00, 0.00, 0.00, 0.00, 0.00, 0.00
181, 9714.11, 43704.05, -3142.36, 20914.26, -6011.84, -240.30, 11011.50, -55447.05, -24556.18, 30838.97, 2004.59, 12924.63, 0.00, 0.00, 0.00, 0.00, 0.00, 0.00, 0.00
182, 9714.11, 43704.05, -3142.36, 20914.26, -6011.84, -240.30, 11011.50, -55447.05, -24560.52, 30804.57, 1991.36, 12924.20, 0.00, 0.00, 0.00, 0.00, 0.00, 0.00, 0.00
183, 9714.02, 43717.38, -3124.39, 20929.01, -5986.02, -229.13, 11028.75, -55416.28, -24560.52, 30804.57, 1991.36, 12924.20, 0.00, 0.00, 0.00, 0.00, 0.00, 0.00, 0.00
184, 9714.02, 43717.38, -3124.39, 20929.01, -5986.02, -229.13, 11028.75, -55416.28, -24556.12, 30838.37, 2009.29, 12922.55, 0.00, 0.00, 0.00, 0.00, 0.00, 0.00, 0.00
185, 9722.16, 43714.54, -3121.96, 20923.91, -5977.15, -234.58, 11022.65, -55401.99, -24556.12, 30838.37, 2009.29, 12922.55, 0.00, 0.00, 0.00, 0.00, 0.00, 0.00, 0.00
186, 9722.16, 43714.54, -3121.96, 20923.91, -5977.15, -234.58, 11022.65, -55401.99, -24551.47, 30810.69, 1993.17, 12935.56, 0.00, 0.00, 0.00, 0.00, 0.00, 0.00, 0.00
187, 9727.52, 43679.26, -3123.57, 20929.37, -5955.76, -230.98, 11029.51, -55380.25, -24551.47, 30810.69, 1993.17, 12935.56, 0.00, 0.00, 0.00, 0.00, -0.08, 0.36, 0.94
188, 9727.52, 43679.26, -3123.57, 20929.37, -5955.76, -230.98, 11029.51, -55380.25, -24574.07, 30824.33, 2017.87, 12918.59, 0.00, 0.00, 0.00, 0.00, 0.00, 0.00, 0.00
189, 9733.60, 43710.71, -3114.67, 20927.24, -5936.24, -234.58, 11029.04, -55363.14, -24574.07, 30824.33, 2017.87, 12918.59, 0.00, 0.00, 0.00, 0.00, 0.00, 0.00, 0.00
190, 9733.60, 43710.71, -3114.67, 20927.24, -5936.24, -234.58, 11029.04, -55363.14, -24551.58, 30804.57, 2005.76, 12931.33, 0.00, 0.00, 0.00, 0.00, 0.00, 0.00, 0.00
191, 9744.62, 43701.28, -3115.94, 20926.53, -5925.67, -232.84, 11031.93, -55340.91, -24551.58, 30804.57, 2005.76, 12931.33, 0.00, 0.00, 0.00, 0.00, 0.00, 0.00, 0.00
192, 9744.62, 43701.28, -3115.94, 20926.53, -5925.67, -232.84, 11031.93, -55340.91, -24557.44, 30832.76, 2020.58, 12921.52, 0.00, 0.00, 0.00, 0.00, 0.00, 0.00, 0.00
193, 9758.41, 43725.44, -3107.43, 20932.65, -5906.60, -229.60, 11036.33, -55318.13, -24557.44, 30832.76, 2020.58, 12921.52, 0.00, 0.00, 0.00, 0.00, 0.00, 0.00, 0.00
194, 9758.41, 43725.44, -3107.43, 20932.65, -5906.60, -229.60, 11036.33, -55318.13, -24571.92, 30792.37, 2007.10, 12927.06, 0.00, 0.00, 0.00, 0.00, 0.00, 0.00, 0.00
195, 9755.93, 43689.79, -3114.49, 20923.82, -5895.88, -238.09, 11027.14, -55309.14, -24571.92, 30792.37, 2007.10, 12927.06, 0.00, 0.00, 0.00, 0.00, 0.00, 0.00, 0.00
196, 9755.93, 43689.79, -3114.49, 20923.82, -5895.88, -238.09, 11027.14, -55309.14, -24567.83, 30826.47, 2023.30, 12923.58, 0.00, 0.00, 0.00, 0.00, 0.00, 0.00, 0.00
197, 9776.61, 43707.45, -3089.64, 20945.80, -5860.14, -217.73, 11054.75, -55267.41, -24567.83, 30826.47, 2023.30, 12923.58, 0.00, 0.00, 0.00, 0.00, -0.08, 0.36, 0.94
198, 9776.61, 43707.45, -3089.64, 20945.80, -5860.14, -217.73, 11054.75, -55267.41, -24556.94, 30807.12, 2017.24, 12929.95, 0.00, 0.00, 0.00, 0.00, 0.00, 0.00, 0.00
199, 9774.46, 43714.78, -3098.00, 20932.41, -5863.35, -233.60, 11034.83, -55265.02, -24556.94, 30807.12, 2017.24, 12929.95, 0.00, 0.00, 0.00, 0.00, 0.00, 0.00, 0.00
200, 9774.46, 43714.78, -3098.00, 20932.41, -5863.35, -233.60, 11034.83, -55265.02, -24557.39, 30831.10, 2034.81, 12935.60, 0.00, 0.00, 0.00, 0.00, 0.00, 0.00, 0.00
201, 9803.45, 43735.28, -3089.15, 20949.19, -5824.60, -215.54, 11062.30, -55223.38, -24557.39, 30831.10, 2034.81, 12935.60, 0.00, 0.00, 0.00, 0.00, 0.00, 0.00, 0.00
202, 9803.45, 43735.28, -3089.15, 20949.19, -5824.60, -215.54, 11062.30, -55223.38, -24556.05, 30807.88, 2027.50, 12935.31, 0.00, 0.00, 0.00, 0.00, 0.00, 0.00, 0.00
203, 9794.00, 43714.47, -3094.35, 20925.30, -5829.36, -235.07, 11040.73, -55223.52, -24556.05, 30807.88, 2027.50, 12935.31, 0.00, 0.00, 0.00, 0.00, 0.00, 0.00, 0.00
204, 9794.00, 43714.47, -3094.35, 20925.30, -5829.36, -235.07, 11040.73, -55223.52, -24556.34, 30827.12, 2040.74, 12932.38, 0.00, 0.00, 0.00, 0.00, 0.00, 0.00, 0.00
205, 9807.43, 43712.37, -3069.21, 20956.19, -5785.91, -208.52, 11074.75, -55174.56, -24556.34, 30827.12, 2040.74, 12932.38, 0.00, 0.00, 0.00, 0.00, 0.00, 0.00, 0.00
206, 9807.43, 43712.37, -3069.21, 20956.19, -5785.91, -208.52, 11074.75, -55174.56, -24548.58, 30825.13, 2033.76, 12943.11, 0.00, 0.00, 0.00, 0.00, 0.00, 0.00, 0.00
207, 9804.70, 43709.73, -3089.48, 20927.15, -5796.92, -230.71, 11045.85, -55180.22, -24548.58, 30825.13, 2033.76, 12943.11, 0.00, 0.00, 0.00, 0.00, -0.08, 0.36, 0.94
208, 9804.70, 43709.73, -3089.48, 20927.15, -5796.92, -230.71, 11045.85, -55180.22, -24560.10, 30823.72, 2040.16, 12932.47, 0.00, 0.00, 0.00, 0.00, 0.00, 0.00, 0.00
209, 9824.58, 43712.59, -3061.63, 20960.91, -5755.84, -209.32, 11077.84, -55140.01, -24560.10, 30823.72, 2040.16, 12932.47, 0.00, 0.00, 0.00, 0.00, 0.00, 0.00, 0.00
210, 9824.58, 43712.59, -3061.63, 20960.91, -5755.84, -209.32, 11077.84, -55140.01, -24556.97, 30812.75, 2042.79, 12933.32, 0.00, 0.00, 0.00, 0.00, 0.00, 0.00, 0.00
211, 9816.80, 43702.87, -3079.85, 20926.80, -5766.79, -236.48, 11045.92, -55145.71, -24556.97, 30812.75, 2042.79, 12933.32, 0.00, 0.00, 0.00, 0.00, 0.00, 0.00, 0.00
212, 9816.80, 43702.87, -3079.85, 20926.80, -5766.79, -236.48, 11045.92, -55145.71, -24562.53, 30816.97, 2044.78, 12950.09, 0.00, 0.00, 0.00, 0.00, 0.00, 0.00, 0.00
213, 9849.16, 43733.11, -3050.57, 20964.15, -5724.97, -205.23, 11085.37, -55095.02, -24562.53, 30816.97, 2044.78, 12950.09, 0.00, 0.00, 0.00, 0.00, 0.00, 0.00, 0.00
214, 9849.16, 43733.11, -3050.57, 20964.15, -5724.97, -205.23, 11085.37, -55095.02, -24557.14, 30822.85, 2051.15, 12941.93, 0.00, 0.00, 0.00, 0.00, 0.00, 0.00, 0.00
215, 9850.23, 43719.88, -3061.79, 20934.98, -5727.88, -230.69, 11057.23, -55097.96, -24557.14, 30822.85, 2051.15, 12941.93, 0.00, 0.00, 0.00, 0.00, 0.00, 0.00, 0.00
216, 9850.23, 43719.88, -3061.79, 20934.98, -5727.88, -230.69, 11057.23, -55097.96, -24545.68, 30822.61, 2053.81, 12950.13, 0.00, 0.00, 0.00, 0.00, -0.08, 0.36, 0.94
217, 9882.67, 43787.69, -3032.30, 20969.71, -5684.72, -202.93, 11091.56, -55052.99, -24545.68, 30822.61, 2053.81, 12950.13, 0.00, 0.00, 0.00, 0.00, 0.00, 0.00, 0.00
