%OpenBCI Raw EEG Data
%
%Sample Rate = 250.0 Hz
%First Column = SampleIndex
%Other Columns = EEG data in microvolts followed by Accel Data (in G) interleaved with Aux Data
0, 0.00, 0.00, 0.00, 0.00, 0.00, 0.00, 0.00, 0.00, -21698.25, 31661.58, 6685.59, 7973.78, 0.00, 0.00, 0.00, 0.00, -0.06, 0.31, 0.96
1, 10050.44, 47127.82, 1960.99, 21089.18, -3706.63, -291.02, 7397.24, -52698.24, -21698.25, 31661.58, 6685.59, 7973.78, 0.00, 0.00, 0.00, 0.00, 0.00, 0.00, 0.00
2, 10050.44, 47127.82, 1960.99, 21089.18, -3706.63, -291.02, 7397.24, -52698.24, -21598.51, 31683.60, 6863.80, 5534.69, 0.00, 0.00, 0.00, 0.00, 0.00, 0.00, 0.00
3, 10045.16, 47123.36, 1959.18, 21087.69, -3700.62, -281.86, 7408.22, -52702.48, -21598.51, 31683.60, 6863.80, 5534.69, 0.00, 0.00, 0.00, 0.00, 0.00, 0.00, 0.00
4, 10045.16, 47123.36, 1959.18, 21087.69, -3700.62, -281.86, 7408.22, -52702.48, -21599.50, 31697.48, 6868.60, 5547.32, 0.00, 0.00, 0.00, 0.00, 0.00, 0.00, 0.00
5, 10045.90, 47117.05, 1962.62, 21096.98, -3695.19, -264.06, 7433.36, -52680.13, -21599.50, 31697.48, 6868.60, 5547.32, 0.00, 0.00, 0.00, 0.00, 0.00, 0.00, 0.00
6, 10045.90, 47117.05, 1962.62, 21096.98, -3695.19, -264.06, 7433.36, -52680.13, -21615.32, 31679.69, 6858.54, 5564.02, 0.00, 0.00, 0.00, 0.00, -0.05, 0.30, 0.94
7, 10047.13, 47121.25, 1961.95, 21086.86, -3696.55, -287.47, 7443.56, -52665.83, -21615.32, 31679.69, 6858.54, 5564.02, 0.00, 0.00, 0.00, 0.00, 0.00, 0.00, 0.00
8, 10047.13, 47121.25, 1961.95, 21086.86, -3696.55, -287.47, 7443.56, -52665.83, -21592.32, 31728.79, 6879.53, 5569.18, 0.00, 0.00, 0.00, 0.00, 0.00, 0.00, 0.00
9, 10061.19, 47141.21, 1973.82, 21101.30, -3684.82, -270.70, 7468.90, -52637.24, -21592.32, 31728.79, 6879.53, 5569.18, 0.00, 0.00, 0.00, 0.00, 0.00, 0.00, 0.00
10, 10061.19, 47141.21, 1973.82, 21101.30, -3684.82, -270.70, 7468.90, -52637.24, -21584.83, 31709.12, 6869.25, 5581.99, 0.00, 0.00, 0.00, 0.00, 0.00, 0.00, 0.00
11, 10046.77, 47116.96, 1960.18, 21088.22, -3702.41, -269.00, 7451.53, -52668.13, -21584.83, 31709.12, 6869.25, 5581.99, 0.00, 0.00, 0.00, 0.00, 0.00, 0.00, 0.00
12, 10046.77, 47116.96, 1960.18, 21088.22, -3702.41, -269.00, 7451.53, -52668.13, -21602.67, 31703.56, 6865.90, 5563.59, 0.00, 0.00, 0.00, 0.00, 0.00, 0.00, 0.00
13, 10057.41, 47135.43, 1968.56, 21096.92, -3693.49, -281.07, 7485.91, -52635.90, -21602.67, 31703.56, 6865.90, 5563.59, 0.00, 0.00, 0.00, 0.00, 0.00, 0.00, 0.00
14, 10057.41, 47135.43, 1968.56, 21096.92, -3693.49, -281.07, 7485.91, -52635.90, -21600.59, 31707.51, 6866.79, 5583.38, 0.00, 0.00, 0.00, 0.00, 0.00, 0.00, 0.00
15, 10050.13, 47117.66, 1957.43, 21083.19, -3701.99, -289.70, 7482.38, -52645.40, -21600.59, 31707.51, 6866.79, 5583.38, 0.00, 0.00, 0.00, 0.00, 0.00, 0.00, 0.00
16, 10050.13, 47117.66, 1957.43, 21083.19, -3701.99, -289.70, 7482.38, -52645.40, -21606.31, 31704.36, 6867.55, 5588.52, 0.00, 0.00, 0.00, 0.00, -0.06, 0.31, 0.95
17, 10065.19, 47141.97, 1973.06, 21105.50, -3692.31, -268.15, 7505.36, -52630.15, -21606.31, 31704.36, 6867.55, 5588.52, 0.00, 0.00, 0.00, 0.00, 0.00, 0.00, 0.00
18, 10065.19, 47141.97, 1973.06, 21105.50, -3692.31, -268.15, 7505.36, -52630.15, -21586.62, 31709.99, 6872.69, 5594.64, 0.00, 0.00, 0.00, 0.00, 0.00, 0.00, 0.00
19, 10059.00, 47122.24, 1963.58, 21089.52, -3704.80, -275.46, 7491.30, -52655.37, -21586.62, 31709.99, 6872.69, 5594.64, 0.00, 0.00, 0.00, 0.00, 0.00, 0.00, 0.00
20, 10059.00, 47122.24, 1963.58, 21089.52, -3704.80, -275.46, 7491.30, -52655.37, -21603.47, 31697.25, 6871.04, 5582.84, 0.00, 0.00, 0.00, 0.00, 0.00, 0.00, 0.00
21, 10075.90, 47145.21, 1981.26, 21117.59, -3683.41, -261.60, 7535.00, -52610.37, -21603.47, 31697.25, 6871.04, 5582.84, 0.00, 0.00, 0.00, 0.00, 0.00, 0.00, 0.00
22, 10075.90, 47145.21, 1981.26, 21117.59, -3683.41, -261.60, 7535.00, -52610.37, -21599.56, 31703.80, 6881.05, 5599.89, 0.00, 0.00, 0.00, 0.00, 0.00, 0.00, 0.00
23, 10063.20, 47132.59, 1968.14, 21095.82, -3695.84, -279.35, 7529.65, -52627.94, -21599.56, 31703.80, 6881.05, 5599.89, 0.00, 0.00, 0.00, 0.00, 0.00, 0.00, 0.00
24, 10063.20, 47132.59, 1968.14, 21095.82, -3695.84, -279.35, 7529.65, -52627.94, -21604.59, 31692.72, 6864.00, 5596.03, 0.00, 0.00, 0.00, 0.00, 0.00, 0.00, 0.00
25, 10068.57, 47142.73, 1974.69, 21110.91, -3688.89, -266.66, 7544.43, -52618.11, -21604.59, 31692.72, 6864.00, 5596.03, 0.00, 0.00, 0.00, 0.00, 0.00, 0.00, 0.00
26, 10068.57, 47142.73, 1974.69, 21110.91, -3688.89, -266.66, 7544.43, -52618.11, -21594.94, 31702.48, 6874.50, 5598.49, 0.00, 0.00, 0.00, 0.00, -0.06, 0.32, 0.95
27, 10054.89, 47123.67, 1957.07, 21097.86, -3708.44, -267.75, 7533.48, -52630.62, -21594.94, 31702.48, 6874.50, 5598.49, 0.00, 0.00, 0.00, 0.00, 0.00, 0.00, 0.00
28, 10054.89, 47123.67, 1957.07, 21097.86, -3708.44, -267.75, 7533.48, -52630.62, -21612.53, 31686.10, 6853.87, 5599.80, 0.00, 0.00, 0.00, 0.00, 0.00, 0.00, 0.00
29, 10059.47, 47125.01, 1964.11, 21101.34, -3688.26, -278.21, 7565.82, -52607.27, -21612.53, 31686.10, 6853.87, 5599.80, 0.00, 0.00, 0.00, 0.00, 0.00, 0.00, 0.00
30, 10059.47, 47125.01, 1964.11, 21101.34, -3688.26, -278.21, 7565.82, -52607.27, -21599.25, 31697.99, 6866.81, 5609.01, 0.00, 0.00, 0.00, 0.00, 0.00, 0.00, 0.00
31, 10052.52, 47119.80, 1957.50, 21092.49, -3707.01, -281.12, 7553.26, -52628.43, -21599.25, 31697.99, 6866.81, 5609.01, 0.00, 0.00, 0.00, 0.00, 0.00, 0.00, 0.00
32, 10052.52, 47119.80, 1957.50, 21092.49, -3707.01, -281.12, 7553.26, -52628.43, -21611.77, 31673.31, 6849.29, 5612.79, 0.00, 0.00, 0.00, 0.00, 0.00, 0.00, 0.00
33, 10055.51, 47126.82, 1962.51, 21108.12, -3693.11, -267.30, 7584.68, -52598.93, -21611.77, 31673.31, 6849.29, 5612.79, 0.00, 0.00, 0.00, 0.00, 0.00, 0.00, 0.00
34, 10055.51, 47126.82, 1962.51, 21108.12, -3693.11, -267.30, 7584.68, -52598.93, -21609.40, 31695.80, 6861.25, 5610.27, 0.00, 0.00, 0.00, 0.00, 0.00, 0.00, 0.00
35, 10055.45, 47119.40, 1959.38, 21094.44, -3703.33, -281.88, 7584.68, -52600.22, -21609.40, 31695.80, 6861.25, 5610.27, 0.00, 0.00, 0.00, 0.00, 0.00, 0.00, 0.00
36, 10055.45, 47119.40, 1959.38, 21094.44, -3703.33, -281.88, 7584.68, -52600.22, -21603.65, 31690.44, 6855.08, 5625.51, 0.00, 0.00, 0.00, 0.00, -0.06, 0.32, 0.95
37, 10084.19, 47146.64, 1987.11, 21142.94, -3675.90, -243.39, 7619.91, -52579.35, -21603.65, 31690.44, 6855.08, 5625.51, 0.00, 0.00, 0.00, 0.00, 0.00, 0.00, 0.00
38, 10084.19, 47146.64, 1987.11, 21142.94, -3675.90, -243.39, 7619.91, -52579.35, -21580.47, 31712.18, 6930.99, 5632.10, 0.00, 0.00, 0.00, 0.00, 0.00, 0.00, 0.00
39, 10092.06, 47166.58, 2014.65, 21151.97, -3650.00, -245.71, 7639.76, -52560.41, -21580.47, 31712.18, 6930.99, 5632.10, 0.00, 0.00, 0.00, 0.00, 0.00, 0.00, 0.00
40, 10092.06, 47166.58, 2014.65, 21151.97, -3650.00, -245.71, 7639.76, -52560.41, -21604.08, 31688.42, 6853.38, 5646.61, 0.00, 0.00, 0.00, 0.00, 0.00, 0.00, 0.00
41, 10015.39, 47098.68, 1932.06, 21063.39, -3703.33, -282.48, 7624.83, -52571.14, -21604.08, 31688.42, 6853.38, 5646.61, 0.00, 0.00, 0.00, 0.00, 0.00, 0.00, 0.00
42, 10015.39, 47098.68, 1932.06, 21063.39, -3703.33, -282.48, 7624.83, -52571.14, -21600.46, 31695.44, 6838.27, 5616.28, 0.00, 0.00, 0.00, 0.00, 0.00, 0.00, 0.00
43, 9987.25, 47075.39, 1920.46, 21053.35, -3698.68, -278.70, 7620.07, -52584.18, -21600.46, 31695.44, 6838.27, 5616.28, 0.00, 0.00, 0.00, 0.00, 0.00, 0.00, 0.00
44, 9987.25, 47075.39, 1920.46, 21053.35, -3698.68, -278.70, 7620.07, -52584.18, -21587.92, 31675.68, 6796.74, 5636.48, 0.00, 0.00, 0.00, 0.00, 0.00, 0.00, 0.00
45, 9966.96, 47059.61, 1898.22, 21027.67, -3700.80, -283.60, 7643.60, -52567.25, -21587.92, 31675.68, 6796.74, 5636.48, 0.00, 0.00, 0.00, 0.00, -0.06, 0.31, 0.95
46, 9966.96, 47059.61, 1898.22, 21027.67, -3700.80, -283.60, 7643.60, -52567.25, -21591.38, 31690.93, 6829.87, 5635.25, 0.00, 0.00, 0.00, 0.00, 0.00, 0.00, 0.00
47, 9950.62, 47058.94, 1886.02, 21004.63, -3710.17, -293.55, 7654.67, -52553.84, -21591.38, 31690.93, 6829.87, 5635.25, 0.00, 0.00, 0.00, 0.00, 0.00, 0.00, 0.00
48, 9950.62, 47058.94, 1886.02, 21004.63, -3710.17, -293.55, 7654.67, -52553.84, -21589.48, 31679.69, 6804.16, 5648.60, 0.00, 0.00, 0.00, 0.00, 0.00, 0.00, 0.00
49, 9940.49, 47045.30, 1884.70, 20988.29, -3695.46, -287.69, 7675.01, -52533.59, -21589.48, 31679.69, 6804.16, 5648.60, 0.00, 0.00, 0.00, 0.00, 0.00, 0.00, 0.00
50, 9940.49, 47045.30, 1884.70, 20988.29, -3695.46, -287.69, 7675.01, -52533.59, -21570.42, 31710.96, 6842.74, 5644.24, 0.00, 0.00, 0.00, 0.00, 0.00, 0.00, 0.00
51, 9949.74, 47059.38, 1899.99, 20997.85, -3683.01, -266.63, 7702.90, -52509.45, -21570.42, 31710.96, 6842.74, 5644.24, 0.00, 0.00, 0.00, 0.00, 0.00, 0.00, 0.00
52, 9949.74, 47059.38, 1899.99, 20997.85, -3683.01, -266.63, 7702.90, -52509.45, -21552.45, 31694.59, 6835.39, 5672.81, 0.00, 0.00, 0.00, 0.00, 0.00, 0.00, 0.00
53, 9933.07, 47053.21, 1882.40, 20954.98, -3697.63, -289.21, 7701.09, -52514.82, -21552.45, 31694.59, 6835.39, 5672.81, 0.00, 0.00, 0.00, 0.00, 0.00, 0.00, 0.00
54, 9933.07, 47053.21, 1882.40, 20954.98, -3697.63, -289.21, 7701.09, -52514.82, -21535.77, 31718.44, 6871.31, 5666.90, 0.00, 0.00, 0.00, 0.00, 0.00, 0.00, 0.00
55, 9954.37, 47070.96, 1904.59, 20969.80, -3670.94, -280.16, 7736.16, -52482.97, -21535.77, 31718.44, 6871.31, 5666.90, 0.00, 0.00, 0.00, 0.00, -0.06, 0.31, 0.96
56, 9954.37, 47070.96, 1904.59, 20969.80, -3670.94, -280.16, 7736.16, -52482.97, -21542.63, 31708.25, 6876.98, 5684.16, 0.00, 0.00, 0.00, 0.00, 0.00, 0.00, 0.00
57, 9931.62, 47047.58, 1891.02, 20932.43, -3694.07, -282.01, 7722.80, -52498.52, -21542.63, 31708.25, 6876.98, 5684.16, 0.00, 0.00, 0.00, 0.00, 0.00, 0.00, 0.00
58, 9931.62, 47047.58, 1891.02, 20932.43, -3694.07, -282.01, 7722.80, -52498.52, -21527.48, 31718.22, 6917.84, 5675.04, 0.00, 0.00, 0.00, 0.00, 0.00, 0.00, 0.00
59, 9959.47, 47078.52, 1919.66, 20943.07, -3668.01, -281.27, 7764.10, -52468.75, -21527.48, 31718.22, 6917.84, 5675.04, 0.00, 0.00, 0.00, 0.00, 0.00, 0.00, 0.00
60, 9959.47, 47078.52, 1919.66, 20943.07, -3668.01, -281.27, 7764.10, -52468.75, -21524.44, 31705.93, 6915.56, 5685.17, 0.00, 0.00, 0.00, 0.00, 0.00, 0.00, 0.00
61, 9956.14, 47068.21, 1912.91, 20920.29, -3688.89, -295.80, 7755.12, -52478.36, -21524.44, 31705.93, 6915.56, 5685.17, 0.00, 0.00, 0.00, 0.00, 0.00, 0.00, 0.00
62, 9956.14, 47068.21, 1912.91, 20920.29, -3688.89, -295.80, 7755.12, -52478.36, -21542.81, 31711.22, 6938.76, 5686.04, 0.00, 0.00, 0.00, 0.00, 0.00, 0.00, 0.00
63, 9987.99, 47104.63, 1937.72, 20937.68, -3673.35, -280.07, 7783.06, -52452.17, -21542.81, 31711.22, 6938.76, 5686.04, 0.00, 0.00, 0.00, 0.00, 0.00, 0.00, 0.00
64, 9987.99, 47104.63, 1937.72, 20937.68, -3673.35, -280.07, 7783.06, -52452.17, -21538.90, 31706.75, 6947.03, 5693.03, 0.00, 0.00, 0.00, 0.00, 0.00, 0.00, 0.00
65, 9988.06, 47102.79, 1939.59, 20928.92, -3690.65, -282.37, 7771.19, -52469.42, -21538.90, 31706.75, 6947.03, 5693.03, 0.00, 0.00, 0.00, 0.00, -0.06, 0.31, 0.96
66, 9988.06, 47102.79, 1939.59, 20928.92, -3690.65, -282.37, 7771.19, -52469.42, -21521.26, 31722.42, 6964.38, 5701.42, 0.00, 0.00, 0.00, 0.00, 0.00, 0.00, 0.00
67, 10022.79, 47130.28, 1970.10, 20955.12, -3649.41, -256.44, 7812.34, -52429.52, -21521.26, 31722.42, 6964.38, 5701.42, 0.00, 0.00, 0.00, 0.00, 0.00, 0.00, 0.00
68, 10022.79, 47130.28, 1970.10, 20955.12, -3649.41, -256.44, 7812.34, -52429.52, -21523.16, 31712.59, 6982.30, 5714.47, 0.00, 0.00, 0.00, 0.00, 0.00, 0.00, 0.00
69, 9996.77, 47097.09, 1951.58, 20920.72, -3680.35, -295.76, 7796.96, -52454.82, -21523.16, 31712.59, 6982.30, 5714.47, 0.00, 0.00, 0.00, 0.00, 0.00, 0.00, 0.00
70, 9996.77, 47097.09, 1951.58, 20920.72, -3680.35, -295.76, 7796.96, -52454.82, -21527.90, 31705.97, 6973.74, 5708.59, 0.00, 0.00, 0.00, 0.00, 0.00, 0.00, 0.00
71, 10008.91, 47114.95, 1966.48, 20940.07, -3662.02, -276.85, 7823.04, -52432.92, -21527.90, 31705.97, 6973.74, 5708.59, 0.00, 0.00, 0.00, 0.00, 0.00, 0.00, 0.00
72, 10008.91, 47114.95, 1966.48, 20940.07, -3662.02, -276.85, 7823.04, -52432.92, -21532.40, 31711.22, 6986.24, 5703.40, 0.00, 0.00, 0.00, 0.00, 0.00, 0.00, 0.00
73, 10014.52, 47114.93, 1965.21, 20927.80, -3673.82, -284.87, 7820.09, -52439.38, -21532.40, 31711.22, 6986.24, 5703.40, 0.00, 0.00, 0.00, 0.00, 0.00, 0.00, 0.00
74, 10014.52, 47114.93, 1965.21, 20927.80, -3673.82, -284.87, 7820.09, -52439.38, -21531.59, 31695.85, 6981.95, 5711.50, 0.00, 0.00, 0.00, 0.00, 0.00, 0.00, 0.00
75, 10021.49, 47138.15, 1972.30, 20942.06, -3663.09, -273.27, 7845.44, -52420.41, -21531.59, 31695.85, 6981.95, 5711.50, 0.00, 0.00, 0.00, 0.00, -0.05, 0.32, 0.95
76, 10021.49, 47138.15, 1972.30, 20942.06, -3663.09, -273.27, 7845.44, -52420.41, -21529.91, 31705.86, 6990.71, 5703.23, 0.00, 0.00, 0.00, 0.00, 0.00, 0.00, 0.00
77, 10016.40, 47127.78, 1969.48, 20927.67, -3668.82, -291.73, 7844.50, -52417.84, -21529.91, 31705.86, 6990.71, 5703.23, 0.00, 0.00, 0.00, 0.00, 0.00, 0.00, 0.00
78, 10016.40, 47127.78, 1969.48, 20927.67, -3668.82, -291.73, 7844.50, -52417.84, -21532.13, 31698.79, 6988.27, 5712.84, 0.00, 0.00, 0.00, 0.00, 0.00, 0.00, 0.00
79, 10023.21, 47126.73, 1980.72, 20958.96, -3654.49, -258.03, 7867.70, -52405.63, -21532.13, 31698.79, 6988.27, 5712.84, 0.00, 0.00, 0.00, 0.00, 0.00, 0.00, 0.00
80, 10023.21, 47126.73, 1980.72, 20958.96, -3654.49, -258.03, 7867.70, -52405.63, -21532.64, 31703.80, 7001.17, 5721.04, 0.00, 0.00, 0.00, 0.00, 0.00, 0.00, 0.00
81, 10026.21, 47125.95, 1978.64, 20941.15, -3663.83, -283.46, 7862.65, -52413.81, -21532.64, 31703.80, 7001.17, 5721.04, 0.00, 0.00, 0.00, 0.00, 0.00, 0.00, 0.00
82, 10026.21, 47125.95, 1978.64, 20941.15, -3663.83, -283.46, 7862.65, -52413.81, -21532.17, 31690.23, 6994.15, 5730.56, 0.00, 0.00, 0.00, 0.00, 0.00, 0.00, 0.00
83, 10035.58, 47148.81, 1989.35, 20955.05, -3643.65, -275.33, 7907.80, -52370.25, -21532.17, 31690.23, 6994.15, 5730.56, 0.00, 0.00, 0.00, 0.00, 0.00, 0.00, 0.00
84, 10035.58, 47148.81, 1989.35, 20955.05, -3643.65, -275.33, 7907.80, -52370.25, -21520.46, 31715.60, 7007.74, 5739.32, 0.00, 0.00, 0.00, 0.00, -0.05, 0.33, 0.96
85, 10036.89, 47143.80, 1991.90, 20958.52, -3646.93, -266.63, 7898.99, -52396.78, -21520.46, 31715.60, 7007.74, 5739.32, 0.00, 0.00, 0.00, 0.00, 0.00, 0.00, 0.00
86, 10036.89, 47143.80, 1991.90, 20958.52, -3646.93, -266.63, 7898.99, -52396.78, -21530.34, 31687.02, 7010.33, 5739.39, 0.00, 0.00, 0.00, 0.00, 0.00, 0.00, 0.00
87, 10047.87, 47143.63, 1996.23, 20961.87, -3638.95, -268.56, 7921.17, -52377.04, -21530.34, 31687.02, 7010.33, 5739.39, 0.00, 0.00, 0.00, 0.00, 0.00, 0.00, 0.00
88, 10047.87, 47143.63, 1996.23, 20961.87, -3638.95, -268.56, 7921.17, -52377.04, -21531.30, 31709.17, 7013.91, 5747.42, 0.00, 0.00, 0.00, 0.00, 0.00, 0.00, 0.00
89, 10038.75, 47138.80, 1992.37, 20959.63, -3650.71, -261.72, 7916.43, -52380.42, -21531.30, 31709.17, 7013.91, 5747.42, 0.00, 0.00, 0.00, 0.00, 0.00, 0.00, 0.00
90, 10038.75, 47138.80, 1992.37, 20959.63, -3650.71, -261.72, 7916.43, -52380.42, -21546.16, 31680.51, 6998.31, 5743.28, 0.00, 0.00, 0.00, 0.00, 0.00, 0.00, 0.00
91, 10037.05, 47138.80, 1985.86, 20954.00, -3657.24, -275.89, 7928.70, -52372.73, -21546.16, 31680.51, 6998.31, 5743.28, 0.00, 0.00, 0.00, 0.00, 0.00, 0.00, 0.00
92, 10037.05, 47138.80, 1985.86, 20954.00, -3657.24, -275.89, 7928.70, -52372.73, -21559.53, 31683.42, 7002.29, 5734.47, 0.00, 0.00, 0.00, 0.00, 0.00, 0.00, 0.00
93, 10042.71, 47157.30, 1990.96, 20952.08, -3649.19, -280.34, 7942.98, -52364.61, -21559.53, 31683.42, 7002.29, 5734.47, 0.00, 0.00, 0.00, 0.00, 0.00, 0.00, 0.00
94, 10042.71, 47157.30, 1990.96, 20952.08, -3649.19, -280.34, 7942.98, -52364.61, -21552.31, 31675.30, 6996.97, 5751.06, 0.00, 0.00, 0.00, 0.00, -0.05, 0.32, 0.95
95, 10034.61, 47133.21, 1986.44, 20949.42, -3660.30, -273.65, 7944.52, -52368.41, -21552.31, 31675.30, 6996.97, 5751.06, 0.00, 0.00, 0.00, 0.00, 0.00, 0.00, 0.00
96, 10034.61, 47133.21, 1986.44, 20949.42, -3660.30, -273.65, 7944.52, -52368.41, -21537.58, 31692.43, 7013.17, 5752.82, 0.00, 0.00, 0.00, 0.00, 0.00, 0.00, 0.00
97, 10044.65, 47137.21, 1997.89, 20962.74, -3644.27, -261.65, 7960.26, -52357.73, -21537.58, 31692.43, 7013.17, 5752.82, 0.00, 0.00, 0.00, 0.00, 0.00, 0.00, 0.00
98, 10044.65, 47137.21, 1997.89, 20962.74, -3644.27, -261.65, 7960.26, -52357.73, -21540.46, 31681.21, 7003.49, 5767.87, 0.00, 0.00, 0.00, 0.00, 0.00, 0.00, 0.00
99, 10032.76, 47136.25, 1991.34, 20945.91, -3644.52, -280.83, 7965.18, -52360.61, -21540.46, 31681.21, 7003.49, 5767.87, 0.00, 0.00, 0.00, 0.00, 0.00, 0.00, 0.00
100, 10032.76, 47136.25, 1991.34, 20945.91, -3644.52, -280.83, 7965.18, -52360.61, -21545.03, 31685.03, 7011.50, 5769.16, 0.00, 0.00, 0.00, 0.00, 0.00, 0.00, 0.00
101, 10044.43, 47149.77, 2000.06, 20966.88, -3642.37, -257.29, 7988.47, -52337.95, -21545.03, 31685.03, 7011.50, 5769.16, 0.00, 0.00, 0.00, 0.00, 0.00, 0.00, 0.00
102, 10044.43, 47149.77, 2000.06, 20966.88, -3642.37, -257.29, 7988.47, -52337.95, -21571.11, 31672.20, 7010.31, 5782.78, 0.00, 0.00, 0.00, 0.00, 0.00, 0.00, 0.00
103, 10041.12, 47139.78, 1994.40, 20952.66, -3645.50, -279.42, 8001.86, -52325.84, -21571.11, 31672.20, 7010.31, 5782.78, 0.00, 0.00, 0.00, 0.00, 0.00, 0.00, 0.00
104, 10041.12, 47139.78, 1994.40, 20952.66, -3645.50, -279.42, 8001.86, -52325.84, -21556.04, 31697.19, 7012.05, 5788.95, 0.00, 0.00, 0.00, 0.00, -0.05, 0.33, 0.96
105, 10041.90, 47147.74, 1998.07, 20965.98, -3635.71, -263.73, 8017.75, -52321.09, -21556.04, 31697.19, 7012.05, 5788.95, 0.00, 0.00, 0.00, 0.00, 0.00, 0.00, 0.00
106, 10041.90, 47147.74, 1998.07, 20965.98, -3635.71, -263.73, 8017.75, -52321.09, -21559.13, 31672.26, 7000.14, 5797.17, 0.00, 0.00, 0.00, 0.00, 0.00, 0.00, 0.00
107, 10027.71, 47127.11, 1984.50, 20946.60, -3650.71, -277.99, 8002.73, -52339.78, -21559.13, 31672.26, 7000.14, 5797.17, 0.00, 0.00, 0.00, 0.00, 0.00, 0.00, 0.00
108, 10027.71, 47127.11, 1984.50, 20946.60, -3650.71, -277.99, 8002.73, -52339.78, -21562.08, 31673.52, 7002.71, 5790.60, 0.00, 0.00, 0.00, 0.00, 0.00, 0.00, 0.00
109, 10048.54, 47151.81, 1996.37, 20966.36, -3640.09, -257.56, 8027.07, -52318.48, -21562.08, 31673.52, 7002.71, 5790.60, 0.00, 0.00, 0.00, 0.00, 0.00, 0.00, 0.00
110, 10048.54, 47151.81, 1996.37, 20966.36, -3640.09, -257.56, 8027.07, -52318.48, -21559.89, 31681.05, 7007.07, 5808.46, 0.00, 0.00, 0.00, 0.00, 0.00, 0.00, 0.00
111, 10043.71, 47144.92, 2001.35, 20954.11, -3639.80, -278.35, 8032.64, -52319.89, -21559.89, 31681.05, 7007.07, 5808.46, 0.00, 0.00, 0.00, 0.00, 0.00, 0.00, 0.00
112, 10043.71, 47144.92, 2001.35, 20954.11, -3639.80, -278.35, 8032.64, -52319.89, -21558.53, 31688.29, 7011.12, 5812.30, 0.00, 0.00, 0.00, 0.00, 0.00, 0.00, 0.00
113, 10048.05, 47151.59, 2002.74, 20967.41, -3636.05, -268.29, 8055.30, -52300.02, -21558.53, 31688.29, 7011.12, 5812.30, 0.00, 0.00, 0.00, 0.00, 0.00, 0.00, 0.00
114, 10048.05, 47151.59, 2002.74, 20967.41, -3636.05, -268.29, 8055.30, -52300.02, -21573.19, 31676.49, 7007.20, 5822.58, 0.00, 0.00, 0.00, 0.00, -0.05, 0.33, 0.96
115, 10051.04, 47148.23, 2007.10, 20990.19, -3638.08, -255.23, 8051.84, -52314.61, -21573.19, 31676.49, 7007.20, 5822.58, 0.00, 0.00, 0.00, 0.00, 0.00, 0.00, 0.00
116, 10051.04, 47148.23, 2007.10, 20990.19, -3638.08, -255.23, 8051.84, -52314.61, -21569.34, 31677.58, 7016.99, 5831.82, 0.00, 0.00, 0.00, 0.00, 0.00, 0.00, 0.00
117, 10046.53, 47144.54, 1996.75, 20973.87, -3636.14, -264.06, 8075.80, -52293.54, -21569.34, 31677.58, 7016.99, 5831.82, 0.00, 0.00, 0.00, 0.00, 0.00, 0.00, 0.00
118, 10046.53, 47144.54, 1996.75, 20973.87, -3636.14, -264.06, 8075.80, -52293.54, -21574.69, 31679.93, 6978.21, 5836.80, 0.00, 0.00, 0.00, 0.00, 0.00, 0.00, 0.00
119, 10030.26, 47120.58, 1980.70, 20958.52, -3650.82, -276.51, 8062.36, -52311.98, -21574.69, 31679.93, 6978.21, 5836.80, 0.00, 0.00, 0.00, 0.00, 0.00, 0.00, 0.00
120, 10030.26, 47120.58, 1980.70, 20958.52, -3650.82, -276.51, 8062.36, -52311.98, -21576.96, 31675.17, 6971.26, 5834.36, 0.00, 0.00, 0.00, 0.00, 0.00, 0.00, 0.00
121, 10041.66, 47139.34, 1989.19, 20990.39, -3634.44, -253.58, 8091.09, -52286.59, -21576.96, 31675.17, 6971.26, 5834.36, 0.00, 0.00, 0.00, 0.00, 0.00, 0.00, 0.00
122, 10041.66, 47139.34, 1989.19, 20990.39, -3634.44, -253.58, 8091.09, -52286.59, -21584.43, 31676.44, 6967.06, 5845.00, 0.00, 0.00, 0.00, 0.00, 0.00, 0.00, 0.00
123, 10028.58, 47126.13, 1970.60, 20962.29, -3652.34, -281.72, 8074.08, -52305.23, -21584.43, 31676.44, 6967.06, 5845.00, 0.00, 0.00, 0.00, 0.00, 0.00, 0.00, 0.00
124, 10028.58, 47126.13, 1970.60, 20962.29, -3652.34, -281.72, 8074.08, -52305.23, -21579.29, 31675.91, 6965.16, 5853.77, 0.00, 0.00, 0.00, 0.00, -0.05, 0.33, 0.96
125, 10049.08, 47147.27, 1988.72, 20992.40, -3639.38, -250.43, 8108.48, -52274.16, -21579.29, 31675.91, 6965.16, 5853.77, 0.00, 0.00, 0.00, 0.00, 0.00, 0.00, 0.00
126, 10049.08, 47147.27, 1988.72, 20992.40, -3639.38, -250.43, 8108.48, -52274.16, -21589.17, 31676.51, 6980.61, 5859.91, 0.00, 0.00, 0.00, 0.00, 0.00, 0.00, 0.00
127, 10044.99, 47148.10, 1989.57, 20981.98, -3644.07, -268.47, 8105.46, -52281.85, -21589.17, 31676.51, 6980.61, 5859.91, 0.00, 0.00, 0.00, 0.00, 0.00, 0.00, 0.00
128, 10044.99, 47148.10, 1989.57, 20981.98, -3644.07, -268.47, 8105.46, -52281.85, -21581.66, 31667.68, 6971.71, 5869.30, 0.00, 0.00, 0.00, 0.00, 0.00, 0.00, 0.00
129, 10060.48, 47154.45, 1999.90, 21002.66, -3630.75, -241.56, 8131.94, -52268.64, -21581.66, 31667.68, 6971.71, 5869.30, 0.00, 0.00, 0.00, 0.00, 0.00, 0.00, 0.00
130, 10060.48, 47154.45, 1999.90, 21002.66, -3630.75, -241.56, 8131.94, -52268.64, -21587.89, 31693.72, 6989.90, 5887.67, 0.00, 0.00, 0.00, 0.00, 0.00, 0.00, 0.00
131, 10048.38, 47142.96, 1995.61, 20986.25, -3638.04, -276.40, 8132.84, -52260.21, -21587.89, 31693.72, 6989.90, 5887.67, 0.00, 0.00, 0.00, 0.00, 0.00, 0.00, 0.00
132, 10048.38, 47142.96, 1995.61, 20986.25, -3638.04, -276.40, 8132.84, -52260.21, -21591.07, 31670.41, 6969.45, 5891.36, 0.00, 0.00, 0.00, 0.00, 0.00, 0.00, 0.00
133, 10048.07, 47145.57, 1993.02, 20997.70, -3633.03, -253.16, 8150.05, -52253.08, -21591.07, 31670.41, 6969.45, 5891.36, 0.00, 0.00, 0.00, 0.00, -0.05, 0.32, 0.96
134, 10048.07, 47145.57, 1993.02, 20997.70, -3633.03, -253.16, 8150.05, -52253.08, -21588.50, 31695.78, 6987.92, 5897.71, 0.00, 0.00, 0.00, 0.00, 0.00, 0.00, 0.00
135, 10047.29, 47145.13, 1996.99, 20996.83, -3629.83, -258.88, 8158.88, -52243.65, -21588.50, 31695.78, 6987.92, 5897.71, 0.00, 0.00, 0.00, 0.00, 0.00, 0.00, 0.00
136, 10047.29, 47145.13, 1996.99, 20996.83, -3629.83, -258.88, 8158.88, -52243.65, -21578.84, 31689.59, 6973.86, 5923.99, 0.00, 0.00, 0.00, 0.00, 0.00, 0.00, 0.00
137, 10040.89, 47145.17, 1994.56, 21003.69, -3630.84, -253.85, 8169.52, -52238.21, -21578.84, 31689.59, 6973.86, 5923.99, 0.00, 0.00, 0.00, 0.00, 0.00, 0.00, 0.00
138, 10040.89, 47145.17, 1994.56, 21003.69, -3630.84, -253.85, 8169.52, -52238.21, -21594.64, 31684.33, 6981.70, 5914.05, 0.00, 0.00, 0.00, 0.00, 0.00, 0.00, 0.00
139, 10048.85, 47151.59, 1997.24, 20999.89, -3630.82, -253.56, 8172.16, -52241.81, -21594.64, 31684.33, 6981.70, 5914.05, 0.00, 0.00, 0.00, 0.00, 0.00, 0.00, 0.00
140, 10048.85, 47151.59, 1997.24, 20999.89, -3630.82, -253.56, 8172.16, -52241.81, -21585.53, 31678.28, 6969.61, 5924.78, 0.00, 0.00, 0.00, 0.00, 0.00, 0.00, 0.00
141, 10042.73, 47143.14, 1993.37, 21005.21, -3632.36, -253.60, 8182.15, -52234.44, -21585.53, 31678.28, 6969.61, 5924.78, 0.00, 0.00, 0.00, 0.00, 0.00, 0.00, 0.00
142, 10042.73, 47143.14, 1993.37, 21005.21, -3632.36, -253.60, 8182.15, -52234.44, -21585.75, 31698.71, 6985.75, 5928.91, 0.00, 0.00, 0.00, 0.00, 0.00, 0.00, 0.00
143, 10047.35, 47151.00, 1997.51, 21008.25, -3628.54, -255.35, 8198.78, -52224.07, -21585.75, 31698.71, 6985.75, 5928.91, 0.00, 0.00, 0.00, 0.00, -0.04, 0.32, 0.96
144, 10047.35, 47151.00, 1997.51, 21008.25, -3628.54, -255.35, 8198.78, -52224.07, -21594.53, 31684.22, 6963.62, 5945.77, 0.00, 0.00, 0.00, 0.00, 0.00, 0.00, 0.00
145, 10036.80, 47148.59, 1983.99, 20999.51, -3642.95, -261.27, 8200.23, -52221.92, -21594.53, 31684.22, 6963.62, 5945.77, 0.00, 0.00, 0.00, 0.00, 0.00, 0.00, 0.00
146, 10036.80, 47148.59, 1983.99, 20999.51, -3642.95, -261.27, 8200.23, -52221.92, -21603.14, 31690.79, 6964.27, 5941.05, 0.00, 0.00, 0.00, 0.00, 0.00, 0.00, 0.00
147, 10028.15, 47122.86, 1984.39, 21009.23, -3637.86, -250.18, 8210.18, -52221.88, -21603.14, 31690.79, 6964.27, 5941.05, 0.00, 0.00, 0.00, 0.00, 0.00, 0.00, 0.00
148, 10028.15, 47122.86, 1984.39, 21009.23, -3637.86, -250.18, 8210.18, -52221.88, -21597.89, 31679.55, 6957.00, 5959.33, 0.00, 0.00, 0.00, 0.00, 0.00, 0.00, 0.00
149, 10033.12, 47129.32, 1986.82, 21009.46, -3637.86, -250.99, 8216.52, -52213.92, -21597.89, 31679.55, 6957.00, 5959.33, 0.00, 0.00, 0.00, 0.00, 0.00, 0.00, 0.00
150, 10033.12, 47129.32, 1986.82, 21009.46, -3637.86, -250.99, 8216.52, -52213.92, -21591.81, 31704.94, 6976.27, 5967.94, 0.00, 0.00, 0.00, 0.00, 0.00, 0.00, 0.00
151, 10046.75, 47162.78, 2002.54, 21022.87, -3620.65, -247.81, 8244.35, -52192.77, -21591.81, 31704.94, 6976.27, 5967.94, 0.00, 0.00, 0.00, 0.00, 0.00, 0.00, 0.00
152, 10046.75, 47162.78, 2002.54, 21022.87, -3620.65, -247.81, 8244.35, -52192.77, -21592.48, 31685.14, 6967.06, 5980.70, 0.00, 0.00, 0.00, 0.00, 0.00, 0.00, 0.00
153, 10030.75, 47127.45, 1984.88, 21009.46, -3637.99, -259.64, 8237.22, -52203.05, -21592.48, 31685.14, 6967.06, 5980.70, 0.00, 0.00, 0.00, 0.00, -0.04, 0.32, 0.96
154, 10030.75, 47127.45, 1984.88, 21009.46, -3637.99, -259.64, 8237.22, -52203.05, -21596.79, 31702.24, 6965.36, 5983.92, 0.00, 0.00, 0.00, 0.00, 0.00, 0.00, 0.00
155, 10044.61, 47152.03, 1994.76, 21026.91, -3630.91, -239.70, 8254.68, -52198.59, -21596.79, 31702.24, 6965.36, 5983.92, 0.00, 0.00, 0.00, 0.00, 0.00, 0.00, 0.00
156, 10044.61, 47152.03, 1994.76, 21026.91, -3630.91, -239.70, 8254.68, -52198.59, -21594.64, 31680.13, 6960.58, 5985.62, 0.00, 0.00, 0.00, 0.00, 0.00, 0.00, 0.00
157, 10039.17, 47139.40, 1985.44, 21016.74, -3637.93, -250.99, 8251.79, -52195.46, -21594.64, 31680.13, 6960.58, 5985.62, 0.00, 0.00, 0.00, 0.00, 0.00, 0.00, 0.00
158, 10039.17, 47139.40, 1985.44, 21016.74, -3637.93, -250.99, 8251.79, -52195.46, -21598.60, 31703.71, 6959.19, 6006.38, 0.00, 0.00, 0.00, 0.00, 0.00, 0.00, 0.00
159, 10049.34, 47150.96, 1994.22, 21030.26, -3624.18, -243.01, 8281.59, -52167.67, -21598.60, 31703.71, 6959.19, 6006.38, 0.00, 0.00, 0.00, 0.00, 0.00, 0.00, 0.00
160, 10049.34, 47150.96, 1994.22, 21030.26, -3624.18, -243.01, 8281.59, -52167.67, -21604.86, 31692.09, 6957.36, 6010.63, 0.00, 0.00, 0.00, 0.00, 0.00, 0.00, 0.00
161, 10030.64, 47135.74, 1983.96, 21017.03, -3644.50, -257.09, 8269.16, -52186.52, -21604.86, 31692.09, 6957.36, 6010.63, 0.00, 0.00, 0.00, 0.00, 0.00, 0.00, 0.00
162, 10030.64, 47135.74, 1983.96, 21017.03, -3644.50, -257.09, 8269.16, -52186.52, -21604.59, 31692.43, 6957.09, 6012.35, 0.00, 0.00, 0.00, 0.00, 0.00, 0.00, 0.00
163, 10036.36, 47147.18, 1994.31, 21033.08, -3626.73, -243.23, 8296.16, -52162.80, -21604.59, 31692.43, 6957.09, 6012.35, 0.00, 0.00, 0.00, 0.00, -0.05, 0.32, 0.95
164, 10036.36, 47147.18, 1994.31, 21033.08, -3626.73, -243.23, 8296.16, -52162.80, -21598.11, 31694.84, 6954.45, 6021.31, 0.00, 0.00, 0.00, 0.00, 0.00, 0.00, 0.00
165, 10032.58, 47143.89, 1986.76, 21020.27, -3640.79, -253.07, 8284.58, -52176.84, -21598.11, 31694.84, 6954.45, 6021.31, 0.00, 0.00, 0.00, 0.00, 0.00, 0.00, 0.00
166, 10032.58, 47143.89, 1986.76, 21020.27, -3640.79, -253.07, 8284.58, -52176.84, -21607.63, 31691.20, 6951.21, 6023.64, 0.00, 0.00, 0.00, 0.00, 0.00, 0.00, 0.00
167, 10044.92, 47164.95, 1995.85, 21040.61, -3627.33, -234.56, 8312.10, -52152.05, -21607.63, 31691.20, 6951.21, 6023.64, 0.00, 0.00, 0.00, 0.00, 0.00, 0.00, 0.00
168, 10044.92, 47164.95, 1995.85, 21040.61, -3627.33, -234.56, 8312.10, -52152.05, -21599.96, 31697.92, 6963.66, 6038.06, 0.00, 0.00, 0.00, 0.00, 0.00, 0.00, 0.00
169, 10033.09, 47128.59, 1983.67, 21020.16, -3641.34, -257.81, 8302.24, -52167.94, -21599.96, 31697.92, 6963.66, 6038.06, 0.00, 0.00, 0.00, 0.00, 0.00, 0.00, 0.00
170, 10033.09, 47128.59, 1983.67, 21020.16, -3641.34, -257.81, 8302.24, -52167.94, -21604.93, 31697.95, 6955.01, 6041.90, 0.00, 0.00, 0.00, 0.00, 0.00, 0.00, 0.00
171, 10038.86, 47145.01, 1996.84, 21039.67, -3623.71, -240.73, 8334.90, -52132.36, -21604.93, 31697.95, 6955.01, 6041.90, 0.00, 0.00, 0.00, 0.00, 0.00, 0.00, 0.00
172, 10038.86, 47145.01, 1996.84, 21039.67, -3623.71, -240.73, 8334.90, -52132.36, -21605.96, 31696.02, 6963.89, 6058.02, 0.00, 0.00, 0.00, 0.00, -0.05, 0.32, 0.95
173, 10030.10, 47150.91, 1990.65, 21028.88, -3638.69, -242.78, 8324.08, -52144.47, -21605.96, 31696.02, 6963.89, 6058.02, 0.00, 0.00, 0.00, 0.00, 0.00, 0.00, 0.00
174, 10030.10, 47150.91, 1990.65, 21028.88, -3638.69, -242.78, 8324.08, -52144.47, -21590.09, 31697.57, 6958.14, 6065.91, 0.00, 0.00, 0.00, 0.00, 0.00, 0.00, 0.00
175, 10044.69, 47171.84, 2002.94, 21041.17, -3625.81, -236.15, 8347.46, -52128.76, -21590.09, 31697.57, 6958.14, 6065.91, 0.00, 0.00, 0.00, 0.00, 0.00, 0.00, 0.00
176, 10044.69, 47171.84, 2002.94, 21041.17, -3625.81, -236.15, 8347.46, -52128.76, -21604.66, 31706.31, 6975.87, 6069.42, 0.00, 0.00, 0.00, 0.00, 0.00, 0.00, 0.00
177, 10033.05, 47124.09, 1990.76, 21023.67, -3633.95, -256.11, 8348.93, -52125.41, -21604.66, 31706.31, 6975.87, 6069.42, 0.00, 0.00, 0.00, 0.00, 0.00, 0.00, 0.00
178, 10033.05, 47124.09, 1990.76, 21023.67, -3633.95, -256.11, 8348.93, -52125.41, -21596.19, 31700.36, 6964.92, 6079.54, 0.00, 0.00, 0.00, 0.00, 0.00, 0.00, 0.00
179, 10039.42, 47145.59, 1998.72, 21039.88, -3626.46, -238.29, 8366.15, -52113.65, -21596.19, 31700.36, 6964.92, 6079.54, 0.00, 0.00, 0.00, 0.00, 0.00, 0.00, 0.00
180, 10039.42, 47145.59, 1998.72, 21039.88, -3626.46, -238.29, 8366.15, -52113.65, -21600.14, 31709.44, 6969.32, 6077.39, 0.00, 0.00, 0.00, 0.00, 0.00, 0.00, 0.00
181, 10035.53, 47146.91, 1998.18, 21037.69, -3632.49, -237.73, 8367.42, -52113.22, -21600.14, 31709.44, 6969.32, 6077.39, 0.00, 0.00, 0.00, 0.00, 0.00, 0.00, 0.00
182, 10035.53, 47146.91, 1998.18, 21037.69, -3632.49, -237.73, 8367.42, -52113.22, -21596.19, 31695.98, 6959.53, 6097.51, 0.00, 0.00, 0.00, 0.00, -0.05, 0.32, 0.96
183, 10027.89, 47140.90, 1987.43, 21032.01, -3632.90, -243.63, 8380.34, -52101.04, -21596.19, 31695.98, 6959.53, 6097.51, 0.00, 0.00, 0.00, 0.00, 0.00, 0.00, 0.00
184, 10027.89, 47140.90, 1987.43, 21032.01, -3632.90, -243.63, 8380.34, -52101.04, -21611.90, 31700.49, 6954.66, 6094.49, 0.00, 0.00, 0.00, 0.00, 0.00, 0.00, 0.00
185, 10023.73, 47132.59, 1984.10, 21030.67, -3641.84, -244.13, 8378.82, -52104.48, -21611.90, 31700.49, 6954.66, 6094.49, 0.00, 0.00, 0.00, 0.00, 0.00, 0.00, 0.00
186, 10023.73, 47132.59, 1984.10, 21030.67, -3641.84, -244.13, 8378.82, -52104.48, -21603.72, 31696.92, 6947.26, 6115.88, 0.00, 0.00, 0.00, 0.00, 0.00, 0.00, 0.00
187, 10033.45, 47150.36, 1992.14, 21034.55, -3631.24, -246.05, 8400.66, -52082.74, -21603.72, 31696.92, 6947.26, 6115.88, 0.00, 0.00, 0.00, 0.00, 0.00, 0.00, 0.00
188, 10033.45, 47150.36, 1992.14, 21034.55, -3631.24, -246.05, 8400.66, -52082.74, -21602.67, 31723.20, 6964.24, 6110.03, 0.00, 0.00, 0.00, 0.00, 0.00, 0.00, 0.00
189, 10034.37, 47141.14, 1990.53, 21035.38, -3634.71, -241.98, 8404.17, -52084.21, -21602.67, 31723.20, 6964.24, 6110.03, 0.00, 0.00, 0.00, 0.00, 0.00, 0.00, 0.00
190, 10034.37, 47141.14, 1990.53, 21035.38, -3634.71, -241.98, 8404.17, -52084.21, -21612.88, 31686.48, 6952.78, 6121.07, 0.00, 0.00, 0.00, 0.00, 0.00, 0.00, 0.00
191, 10036.89, 47167.12, 1996.52, 21040.43, -3638.28, -236.41, 8408.39, -52080.68, -21612.88, 31686.48, 6952.78, 6121.07, 0.00, 0.00, 0.00, 0.00, 0.00, 0.00, 0.00
192, 10036.89, 47167.12, 1996.52, 21040.43, -3638.28, -236.41, 8408.39, -52080.68, -21618.00, 31699.73, 6964.00, 6116.44, 0.00, 0.00, 0.00, 0.00, -0.05, 0.32, 0.96
193, 10048.25, 47141.57, 1997.96, 21042.42, -3633.75, -236.24, 8421.91, -52072.34, -21618.00, 31699.73, 6964.00, 6116.44, 0.00, 0.00, 0.00, 0.00, 0.00, 0.00, 0.00
194, 10048.25, 47141.57, 1997.96, 21042.42, -3633.75, -236.24, 8421.91, -52072.34, -21603.09, 31698.59, 6962.52, 6137.95, 0.00, 0.00, 0.00, 0.00, 0.00, 0.00, 0.00
195, 10036.56, 47132.12, 1991.72, 21031.27, -3638.95, -252.31, 8426.72, -52066.62, -21603.09, 31698.59, 6962.52, 6137.95, 0.00, 0.00, 0.00, 0.00, 0.00, 0.00, 0.00
196, 10036.56, 47132.12, 1991.72, 21031.27, -3638.95, -252.31, 8426.72, -52066.62, -21610.38, 31715.49, 6961.76, 6140.83, 0.00, 0.00, 0.00, 0.00, 0.00, 0.00, 0.00
197, 10044.69, 47149.30, 1996.30, 21039.67, -3636.41, -240.80, 8435.91, -52062.75, -21610.38, 31715.49, 6961.76, 6140.83, 0.00, 0.00, 0.00, 0.00, 0.00, 0.00, 0.00
198, 10044.69, 47149.30, 1996.30, 21039.67, -3636.41, -240.80, 8435.91, -52062.75, -21614.22, 31691.98, 6954.48, 6141.66, 0.00, 0.00, 0.00, 0.00, 0.00, 0.00, 0.00
199, 10039.11, 47144.97, 1992.21, 21036.70, -3642.33, -239.88, 8441.18, -52056.41, -21614.22, 31691.98, 6954.48, 6141.66, 0.00, 0.00, 0.00, 0.00, 0.00, 0.00, 0.00
200, 10039.11, 47144.97, 1992.21, 21036.70, -3642.33, -239.88, 8441.18, -52056.41, -21619.70, 31705.95, 6961.83, 6157.06, 0.00, 0.00, 0.00, 0.00, 0.00, 0.00, 0.00
201, 10048.18, 47165.06, 2003.54, 21049.33, -3630.50, -233.44, 8462.68, -52036.76, -21619.70, 31705.95, 6961.83, 6157.06, 0.00, 0.00, 0.00, 0.00, 0.00, 0.00, 0.00
202, 10048.18, 47165.06, 2003.54, 21049.33, -3630.50, -233.44, 8462.68, -52036.76, -21612.77, 31692.94, 6957.49, 6152.18, 0.00, 0.00, 0.00, 0.00, -0.05, 0.32, 0.96
203, 10035.51, 47128.74, 1988.55, 21033.35, -3644.25, -244.06, 8451.33, -52056.85, -21612.77, 31692.94, 6957.49, 6152.18, 0.00, 0.00, 0.00, 0.00, 0.00, 0.00, 0.00
204, 10035.51, 47128.74, 1988.55, 21033.35, -3644.25, -244.06, 8451.33, -52056.85, -21624.71, 31692.45, 6956.94, 6156.59, 0.00, 0.00, 0.00, 0.00, 0.00, 0.00, 0.00
205, 10046.66, 47147.23, 1994.07, 21047.21, -3640.18, -239.45, 8470.01, -52039.78, -21624.71, 31692.45, 6956.94, 6156.59, 0.00, 0.00, 0.00, 0.00, 0.00, 0.00, 0.00
206, 10046.66, 47147.23, 1994.07, 21047.21, -3640.18, -239.45, 8470.01, -52039.78, -21624.48, 31697.75, 6954.68, 6173.84, 0.00, 0.00, 0.00, 0.00, 0.00, 0.00, 0.00
207, 10039.93, 47147.43, 1989.24, 21036.63, -3650.11, -239.79, 8466.08, -52043.93, -21624.48, 31697.75, 6954.68, 6173.84, 0.00, 0.00, 0.00, 0.00, 0.00, 0.00, 0.00
208, 10039.93, 47147.43, 1989.24, 21036.63, -3650.11, -239.79, 8466.08, -52043.93, -21625.22, 31703.40, 6966.06, 6174.56, 0.00, 0.00, 0.00, 0.00, 0.00, 0.00, 0.00
209, 10047.98, 47148.99, 1999.34, 21049.44, -3632.09, -237.08, 8501.87, -52006.20, -21625.22, 31703.40, 6966.06, 6174.56, 0.00, 0.00, 0.00, 0.00, 0.00, 0.00, 0.00
210, 10047.98, 47148.99, 1999.34, 21049.44, -3632.09, -237.08, 8501.87, -52006.20, -21633.72, 31689.50, 6953.54, 6185.46, 0.00, 0.00, 0.00, 0.00, 0.00, 0.00, 0.00
211, 10025.83, 47124.11, 1980.86, 21029.01, -3654.91, -253.45, 8483.94, -52026.63, -21633.72, 31689.50, 6953.54, 6185.46, 0.00, 0.00, 0.00, 0.00, -0.05, 0.32, 0.96
212, 10025.83, 47124.11, 1980.86, 21029.01, -3654.91, -253.45, 8483.94, -52026.63, -21630.88, 31695.46, 6954.32, 6187.70, 0.00, 0.00, 0.00, 0.00, 0.00, 0.00, 0.00
213, 10052.70, 47156.99, 1998.22, 21056.39, -3632.87, -223.47, 8515.72, -52001.91, -21630.88, 31695.46, 6954.32, 6187.70, 0.00, 0.00, 0.00, 0.00, 0.00, 0.00, 0.00
214, 10052.70, 47156.99, 1998.22, 21056.39, -3632.87, -223.47, 8515.72, -52001.91, -21615.79, 31708.23, 6965.29, 6204.46, 0.00, 0.00, 0.00, 0.00, 0.00, 0.00, 0.00
215, 10037.14, 47137.23, 1993.31, 21040.12, -3640.63, -241.13, 8508.71, -52010.81, -21615.79, 31708.23, 6965.29, 6204.46, 0.00, 0.00, 0.00, 0.00, 0.00, 0.00, 0.00
216, 10037.14, 47137.23, 1993.31, 21040.12, -3640.63, -241.13, 8508.71, -52010.81, -21614.94, 31703.13, 6962.84, 6201.18, 0.00, 0.00, 0.00, 0.00, 0.00, 0.00, 0.00
217, 10041.52, 47155.52, 1997.82, 21053.42, -3632.96, -235.03, 8534.57, -51986.78, -21614.94, 31703.13, 6962.84, 6201.18, 0.00, 0.00, 0.00, 0.00, 0.00, 0.00, 0.00
218, 10041.52, 47155.52, 1997.82, 21053.42, -3632.96, -235.03, 8534.57, -51986.78, -21627.50, 31697.50, 6957.74, 6206.68, 0.00, 0.00, 0.00, 0.00, 0.00, 0.00, 0.00
219, 10035.67, 47135.89, 1984.21, 21031.83, -3648.61, -245.69, 8520.69, -51999.84, -21627.50, 31697.50, 6957.74, 6206.68, 0.00, 0.00, 0.00, 0.00, 0.00, 0.00, 0.00
220, 10035.67, 47135.89, 1984.21, 21031.83, -3648.61, -245.69, 8520.69, -51999.84, -21620.53, 31695.22, 6955.86, 6217.43, 0.00, 0.00, 0.00, 0.00, 0.00, 0.00, 0.00
221, 10038.21, 47142.67, 1989.26, 21047.97, -3635.42, -233.46, 8547.24, -51974.51, -21620.53, 31695.22, 6955.86, 6217.43, 0.00, 0.00, 0.00, 0.00, -0.05, 0.32, 0.96
222, 10038.21, 47142.67, 1989.26, 21047.97, -3635.42, -233.46, 8547.24, -51974.51, -21628.02, 31705.77, 6957.78, 6226.15, 0.00, 0.00, 0.00, 0.00, 0.00, 0.00, 0.00
223, 10033.14, 47132.05, 1980.90, 21028.54, -3650.93, -247.57, 8540.98, -51982.02, -21628.02, 31705.77, 6957.78, 6226.15, 0.00, 0.00, 0.00, 0.00, 0.00, 0.00, 0.00
224, 10033.14, 47132.05, 1980.90, 21028.54, -3650.93, -247.57, 8540.98, -51982.02, -21623.93, 31698.42, 6948.51, 6237.10, 0.00, 0.00, 0.00, 0.00, 0.00, 0.00, 0.00
225, 10032.69, 47139.29, 1985.44, 21052.19, -3643.18, -218.60, 8557.05, -51974.73, -21623.93, 31698.42, 6948.51, 6237.10, 0.00, 0.00, 0.00, 0.00, 0.00, 0.00, 0.00
226, 10032.69, 47139.29, 1985.44, 21052.19, -3643.18, -218.60, 8557.05, -51974.73, -21626.81, 31701.68, 6951.48, 6230.19, 0.00, 0.00, 0.00, 0.00, 0.00, 0.00, 0.00
227, 10029.18, 47134.75, 1982.02, 21032.03, -3649.41, -245.06, 8555.04, -51981.10, -21626.81, 31701.68, 6951.48, 6230.19, 0.00, 0.00, 0.00, 0.00, 0.00, 0.00, 0.00
228, 10029.18, 47134.75, 1982.02, 21032.03, -3649.41, -245.06, 8555.04, -51981.10, -21622.27, 31700.05, 6948.08, 6251.60, 0.00, 0.00, 0.00, 0.00, 0.00, 0.00, 0.00
229, 10038.28, 47136.54, 1989.48, 21045.44, -3633.50, -238.90, 8590.18, -51940.49, -21622.27, 31700.05, 6948.08, 6251.60, 0.00, 0.00, 0.00, 0.00, 0.00, 0.00, 0.00
230, 10038.28, 47136.54, 1989.48, 21045.44, -3633.50, -238.90, 8590.18, -51940.49, -21617.58, 31727.12, 6964.62, 6267.67, 0.00, 0.00, 0.00, 0.00, 0.00, 0.00, 0.00
231, 10024.13, 47116.58, 1976.86, 21033.91, -3649.06, -237.02, 8583.20, -51945.68, -21617.58, 31727.12, 6964.62, 6267.67, 0.00, 0.00, 0.00, 0.00, -0.06, 0.33, 0.96
232, 10024.13, 47116.58, 1976.86, 21033.91, -3649.06, -237.02, 8583.20, -51945.68, -21637.63, 31688.04, 6931.12, 6263.52, 0.00, 0.00, 0.00, 0.00, 0.00, 0.00, 0.00
233, 10018.48, 47125.75, 1970.35, 21029.73, -3656.66, -241.38, 8583.79, -51954.46, -21637.63, 31688.04, 6931.12, 6263.52, 0.00, 0.00, 0.00, 0.00, 0.00, 0.00, 0.00
234, 10018.48, 47125.75, 1970.35, 21029.73, -3656.66, -241.38, 8583.79, -51954.46, -21634.57, 31706.48, 6941.60, 6264.39, 0.00, 0.00, 0.00, 0.00, 0.00, 0.00, 0.00
235, 10018.19, 47124.05, 1968.23, 21030.85, -3655.92, -232.88, 8586.04, -51952.09, -21634.57, 31706.48, 6941.60, 6264.39, 0.00, 0.00, 0.00, 0.00, 0.00, 0.00, 0.00
236, 10018.19, 47124.05, 1968.23, 21030.85, -3655.92, -232.88, 8586.04, -51952.09, -21628.69, 31691.91, 6944.28, 6270.36, 0.00, 0.00, 0.00, 0.00, 0.00, 0.00, 0.00
237, 10023.82, 47121.45, 1975.94, 21031.87, -3645.61, -246.29, 8607.23, -51931.71, -21628.69, 31691.91, 6944.28, 6270.36, 0.00, 0.00, 0.00, 0.00, 0.00, 0.00, 0.00
238, 10023.82, 47121.45, 1975.94, 21031.87, -3645.61, -246.29, 8607.23, -51931.71, -21628.91, 31713.48, 6956.60, 6275.25, 0.00, 0.00, 0.00, 0.00, 0.00, 0.00, 0.00
239, 10023.42, 47119.58, 1976.34, 21030.13, -3646.24, -243.52, 8617.22, -51927.21, -21628.91, 31713.48, 6956.60, 6275.25, 0.00, 0.00, 0.00, 0.00, 0.00, 0.00, 0.00
240, 10023.42, 47119.58, 1976.34, 21030.13, -3646.24, -243.52, 8617.22, -51927.21, -21633.52, 31694.35, 6945.85, 6289.76, 0.00, 0.00, 0.00, 0.00, 0.00, 0.00, 0.00
241, 10012.20, 47117.88, 1963.38, 21021.39, -3656.41, -237.49, 8615.81, -51925.34, -21633.52, 31694.35, 6945.85, 6289.76, 0.00, 0.00, 0.00, 0.00, -0.06, 0.33, 0.96
242, 10012.20, 47117.88, 1963.38, 21021.39, -3656.41, -237.49, 8615.81, -51925.34, -21633.25, 31706.89, 6949.02, 6286.52, 0.00, 0.00, 0.00, 0.00, 0.00, 0.00, 0.00
243, 10015.91, 47136.61, 1974.26, 21027.27, -3642.71, -242.43, 8634.03, -51910.96, -21633.25, 31706.89, 6949.02, 6286.52, 0.00, 0.00, 0.00, 0.00, 0.00, 0.00, 0.00
244, 10015.91, 47136.61, 1974.26, 21027.27, -3642.71, -242.43, 8634.03, -51910.96, -21612.50, 31709.68, 6952.91, 6316.96, 0.00, 0.00, 0.00, 0.00, 0.00, 0.00, 0.00
245, 10011.93, 47122.44, 1970.46, 21024.12, -3642.69, -247.05, 8641.85, -51910.81, -21612.50, 31709.68, 6952.91, 6316.96, 0.00, 0.00, 0.00, 0.00, 0.00, 0.00, 0.00
246, 10011.93, 47122.44, 1970.46, 21024.12, -3642.69, -247.05, 8641.85, -51910.81, -21620.69, 31714.49, 6967.06, 6307.71, 0.00, 0.00, 0.00, 0.00, 0.00, 0.00, 0.00
247, 10016.96, 47125.88, 1978.11, 21032.97, -3635.76, -236.37, 8656.34, -51898.04, -21620.69, 31714.49, 6967.06, 6307.71, 0.00, 0.00, 0.00, 0.00, 0.00, 0.00, 0.00
248, 10016.96, 47125.88, 1978.11, 21032.97, -3635.76, -236.37, 8656.34, -51898.04, -21617.56, 31699.18, 6959.80, 6319.62, 0.00, 0.00, 0.00, 0.00, 0.00, 0.00, 0.00
249, 10012.96, 47128.00, 1974.11, 21024.83, -3640.58, -240.84, 8656.74, -51901.22, -21617.56, 31699.18, 6959.80, 6319.62, 0.00, 0.00, 0.00, 0.00, 0.00, 0.00, 0.00
250, 10012.96, 47128.00, 1974.11, 21024.83, -3640.58, -240.84, 8656.74, -51901.22, -21612.64, 31720.48, 6969.47, 6321.16, 0.00, 0.00, 0.00, 0.00, -0.06, 0.33, 0.96
251, 10027.66, 47142.40, 1985.10, 21038.13, -3631.62, -233.35, 8679.76, -51878.55, -21612.64, 31720.48, 6969.47, 6321.16, 0.00, 0.00, 0.00, 0.00, 0.00, 0.00, 0.00
252, 10027.66, 47142.40, 1985.10, 21038.13, -3631.62, -233.35, 8679.76, -51878.55, -21620.28, 31704.76, 6960.27, 6337.59, 0.00, 0.00, 0.00, 0.00, 0.00, 0.00, 0.00
253, 10008.51, 47114.79, 1968.52, 21023.89, -3646.35, -240.93, 8670.20, -51892.23, -21620.28, 31704.76, 6960.27, 6337.59, 0.00, 0.00, 0.00, 0.00, 0.00, 0.00, 0.00
254, 10008.51, 47114.79, 1968.52, 21023.89, -3646.35, -240.93, 8670.20, -51892.23, -21620.75, 31706.51, 6954.63, 6328.09, 0.00, 0.00, 0.00, 0.00, 0.00, 0.00, 0.00
255, 10018.70, 47136.05, 1974.08, 21035.96, -3634.86, -236.59, 8686.16, -51886.78, -21620.75, 31706.51, 6954.63, 6328.09, 0.00, 0.00, 0.00, 0.00, 0.00, 0.00, 0.00
0, 10018.70, 47136.05, 1974.08, 21035.96, -3634.86, -236.59, 8686.16, -51886.78, -21610.61, 31701.50, 6960.00, 6332.65, 0.00, 0.00, 0.00, 0.00, 0.00, 0.00, 0.00
1, 10008.40, 47109.25, 1967.96, 21024.18, -3647.92, -238.16, 8681.55, -51886.53, -21610.61, 31701.50, 6960.00, 6332.65, 0.00, 0.00, 0.00, 0.00, 0.00, 0.00, 0.00
2, 10008.40, 47109.25, 1967.96, 21024.18, -3647.92, -238.16, 8681.55, -51886.53, -21618.70, 31718.33, 6956.53, 6357.66, 0.00, 0.00, 0.00, 0.00, 0.00, 0.00, 0.00
3, 10021.00, 47126.73, 1976.32, 21040.68, -3629.32, -229.55, 8717.45, -51848.63, -21618.70, 31718.33, 6956.53, 6357.66, 0.00, 0.00, 0.00, 0.00, 0.00, 0.00, 0.00
4, 10021.00, 47126.73, 1976.32, 21040.68, -3629.32, -229.55, 8717.45, -51848.63, -21615.57, 31710.08, 6954.43, 6358.51, 0.00, 0.00, 0.00, 0.00, -0.06, 0.33, 0.96
5, 10003.28, 47115.24, 1966.80, 21022.24, -3646.37, -244.01, 8703.97, -51871.45, -21615.57, 31710.08, 6954.43, 6358.51, 0.00, 0.00, 0.00, 0.00, 0.00, 0.00, 0.00
6, 10003.28, 47115.24, 1966.80, 21022.24, -3646.37, -244.01, 8703.97, -51871.45, -21618.52, 31707.00, 6959.06, 6360.59, 0.00, 0.00, 0.00, 0.00, 0.00, 0.00, 0.00
7, 10020.91, 47140.66, 1978.40, 21041.71, -3632.96, -225.17, 8725.29, -51854.97, -21618.52, 31707.00, 6959.06, 6360.59, 0.00, 0.00, 0.00, 0.00, 0.00, 0.00, 0.00
8, 10020.91, 47140.66, 1978.40, 21041.71, -3632.96, -225.17, 8725.29, -51854.97, -21614.07, 31713.99, 6959.06, 6369.84, 0.00, 0.00, 0.00, 0.00, 0.00, 0.00, 0.00
9, 10007.57, 47127.36, 1967.71, 21020.21, -3647.67, -244.28, 8714.63, -51865.95, -21614.07, 31713.99, 6959.06, 6369.84, 0.00, 0.00, 0.00, 0.00, 0.00, 0.00, 0.00
10, 10007.57, 47127.36, 1967.71, 21020.21, -3647.67, -244.28, 8714.63, -51865.95, -21617.98, 31707.27, 6960.00, 6371.43, 0.00, 0.00, 0.00, 0.00, 0.00, 0.00, 0.00
11, 10018.63, 47132.79, 1981.46, 21042.58, -3627.69, -229.69, 8748.45, -51836.73, -21617.98, 31707.27, 6960.00, 6371.43, 0.00, 0.00, 0.00, 0.00, 0.00, 0.00, 0.00
12, 10018.63, 47132.79, 1981.46, 21042.58, -3627.69, -229.69, 8748.45, -51836.73, -21618.96, 31711.76, 6964.09, 6378.34, 0.00, 0.00, 0.00, 0.00, 0.00, 0.00, 0.00
13, 10008.80, 47113.18, 1972.16, 21027.51, -3639.89, -239.63, 8740.22, -51846.50, -21618.96, 31711.76, 6964.09, 6378.34, 0.00, 0.00, 0.00, 0.00, 0.00, 0.00, 0.00
14, 10008.80, 47113.18, 1972.16, 21027.51, -3639.89, -239.63, 8740.22, -51846.50, -21611.72, 31709.79, 6960.82, 6395.50, 0.00, 0.00, 0.00, 0.00, -0.06, 0.32, 0.96
15, 10019.42, 47136.07, 1978.67, 21047.32, -3627.02, -222.33, 8765.93, -51825.56, -21611.72, 31709.79, 6960.82, 6395.50, 0.00, 0.00, 0.00, 0.00, 0.00, 0.00, 0.00
16, 10019.42, 47136.07, 1978.67, 21047.32, -3627.02, -222.33, 8765.93, -51825.56, -21612.93, 31722.98, 6960.11, 6393.69, 0.00, 0.00, 0.00, 0.00, 0.00, 0.00, 0.00
17, 10012.75, 47121.52, 1970.98, 21033.48, -3636.79, -225.24, 8753.19, -51837.56, -21612.93, 31722.98, 6960.11, 6393.69, 0.00, 0.00, 0.00, 0.00, 0.00, 0.00, 0.00
18, 10012.75, 47121.52, 1970.98, 21033.48, -3636.79, -225.24, 8753.19, -51837.56, -21611.95, 31719.36, 6954.70, 6414.75, 0.00, 0.00, 0.00, 0.00, 0.00, 0.00, 0.00
19, 10016.82, 47133.50, 1975.11, 21039.45, -3628.20, -228.95, 8787.19, -51805.75, -21611.95, 31719.36, 6954.70, 6414.75, 0.00, 0.00, 0.00, 0.00, 0.00, 0.00, 0.00
20, 10016.82, 47133.50, 1975.11, 21039.45, -3628.20, -228.95, 8787.19, -51805.75, -21614.07, 31725.33, 6958.37, 6412.34, 0.00, 0.00, 0.00, 0.00, 0.00, 0.00, 0.00
21, 10008.31, 47131.16, 1970.15, 21031.90, -3640.45, -235.23, 8774.24, -51823.50, -21614.07, 31725.33, 6958.37, 6412.34, 0.00, 0.00, 0.00, 0.00, 0.00, 0.00, 0.00
22, 10008.31, 47131.16, 1970.15, 21031.90, -3640.45, -235.23, 8774.24, -51823.50, -21615.41, 31706.06, 6946.27, 6414.19, 0.00, 0.00, 0.00, 0.00, 0.00, 0.00, 0.00
23, 10005.76, 47124.49, 1971.13, 21037.06, -3627.55, -226.56, 8796.89, -51805.29, -21615.41, 31706.06, 6946.27, 6414.19, 0.00, 0.00, 0.00, 0.00, 0.00, 0.00, 0.00
24, 10005.76, 47124.49, 1971.13, 21037.06, -3627.55, -226.56, 8796.89, -51805.29, -21610.04, 31728.93, 6964.83, 6431.16, 0.00, 0.00, 0.00, 0.00, -0.06, 0.32, 0.96
25, 10001.80, 47112.16, 1968.43, 21034.00, -3631.82, -230.36, 8793.87, -51811.27, -21610.04, 31728.93, 6964.83, 6431.16, 0.00, 0.00, 0.00, 0.00, 0.00, 0.00, 0.00
26, 10001.80, 47112.16, 1968.43, 21034.00, -3631.82, -230.36, 8793.87, -51811.27, -21602.22, 31713.66, 6952.80, 6442.58, 0.00, 0.00, 0.00, 0.00, 0.00, 0.00, 0.00
27, 10008.17, 47122.68, 1970.44, 21039.65, -3631.64, -226.98, 8810.95, -51798.54, -21602.22, 31713.66, 6952.80, 6442.58, 0.00, 0.00, 0.00, 0.00, 0.00, 0.00, 0.00
28, 10008.17, 47122.68, 1970.44, 21039.65, -3631.64, -226.98, 8810.95, -51798.54, -21606.85, 31731.65, 6957.90, 6439.34, 0.00, 0.00, 0.00, 0.00, 0.00, 0.00, 0.00
29, 10000.93, 47114.50, 1963.51, 21037.82, -3636.81, -222.85, 8811.30, -51794.85, -21606.85, 31731.65, 6957.90, 6439.34, 0.00, 0.00, 0.00, 0.00, 0.00, 0.00, 0.00
30, 10000.93, 47114.50, 1963.51, 21037.82, -3636.81, -222.85, 8811.30, -51794.85, -21610.18, 31709.50, 6947.03, 6447.45, 0.00, 0.00, 0.00, 0.00, 0.00, 0.00, 0.00
31, 10021.31, 47134.44, 1973.88, 21043.18, -3626.73, -220.01, 8826.08, -51786.78, -21610.18, 31709.50, 6947.03, 6447.45, 0.00, 0.00, 0.00, 0.00, 0.00, 0.00, 0.00
32, 10021.31, 47134.44, 1973.88, 21043.18, -3626.73, -220.01, 8826.08, -51786.78, -21596.25, 31736.93, 6966.12, 6453.13, 0.00, 0.00, 0.00, 0.00, 0.00, 0.00, 0.00
33, 10017.40, 47126.57, 1976.45, 21046.71, -3624.76, -215.90, 8836.11, -51776.45, -21596.25, 31736.93, 6966.12, 6453.13, 0.00, 0.00, 0.00, 0.00, -0.06, 0.32, 0.96
34, 10017.40, 47126.57, 1976.45, 21046.71, -3624.76, -215.90, 8836.11, -51776.45, -21608.35, 31722.64, 6964.96, 6474.61, 0.00, 0.00, 0.00, 0.00, 0.00, 0.00, 0.00
35, 10017.36, 47131.11, 1980.90, 21045.15, -3619.53, -228.23, 8854.91, -51760.27, -21608.35, 31722.64, 6964.96, 6474.61, 0.00, 0.00, 0.00, 0.00, 0.00, 0.00, 0.00
36, 10017.36, 47131.11, 1980.90, 21045.15, -3619.53, -228.23, 8854.91, -51760.27, -21602.67, 31735.10, 6973.23, 6468.97, 0.00, 0.00, 0.00, 0.00, 0.00, 0.00, 0.00
37, 10021.40, 47139.78, 1983.27, 21052.66, -3618.95, -220.77, 8859.49, -51762.48, -21602.67, 31735.10, 6973.23, 6468.97, 0.00, 0.00, 0.00, 0.00, 0.00, 0.00, 0.00
38, 10021.40, 47139.78, 1983.27, 21052.66, -3618.95, -220.77, 8859.49, -51762.48, -21605.31, 31721.42, 6962.68, 6484.13, 0.00, 0.00, 0.00, 0.00, 0.00, 0.00, 0.00
39, 10014.05, 47130.62, 1976.65, 21045.37, -3622.32, -218.47, 8859.65, -51762.84, -21605.31, 31721.42, 6962.68, 6484.13, 0.00, 0.00, 0.00, 0.00, 0.00, 0.00, 0.00
40, 10014.05, 47130.62, 1976.65, 21045.37, -3622.32, -218.47, 8859.65, -51762.84, -21599.52, 31730.47, 6972.25, 6478.70, 0.00, 0.00, 0.00, 0.00, 0.00, 0.00, 0.00
41, 10022.57, 47133.41, 1982.76, 21057.69, -3614.79, -210.75, 8876.77, -51753.18, -21599.52, 31730.47, 6972.25, 6478.70, 0.00, 0.00, 0.00, 0.00, 0.00, 0.00, 0.00
42, 10022.57, 47133.41, 1982.76, 21057.69, -3614.79, -210.75, 8876.77, -51753.18, -21601.31, 31719.45, 6959.77, 6492.53, 0.00, 0.00, 0.00, 0.00, 0.00, 0.00, 0.00
43, 10011.86, 47125.63, 1970.04, 21042.54, -3630.84, -223.72, 8869.35, -51759.93, -21601.31, 31719.45, 6959.77, 6492.53, 0.00, 0.00, 0.00, 0.00, -0.06, 0.33, 0.95
44, 10011.86, 47125.63, 1970.04, 21042.54, -3630.84, -223.72, 8869.35, -51759.93, -21596.37, 31744.64, 6966.32, 6505.21, 0.00, 0.00, 0.00, 0.00, 0.00, 0.00, 0.00
45, 10026.17, 47143.70, 1983.47, 21056.42, -3615.22, -214.26, 8897.27, -51737.40, -21596.37, 31744.64, 6966.32, 6505.21, 0.00, 0.00, 0.00, 0.00, 0.00, 0.00, 0.00
46, 10026.17, 47143.70, 1983.47, 21056.42, -3615.22, -214.26, 8897.27, -51737.40, -21607.30, 31725.26, 6964.94, 6510.37, 0.00, 0.00, 0.00, 0.00, 0.00, 0.00, 0.00
47, 10008.93, 47123.91, 1973.39, 21042.83, -3623.35, -222.85, 8893.76, -51741.34, -21607.30, 31725.26, 6964.94, 6510.37, 0.00, 0.00, 0.00, 0.00, 0.00, 0.00, 0.00
48, 10008.93, 47123.91, 1973.39, 21042.83, -3623.35, -222.85, 8893.76, -51741.34, -21599.79, 31732.93, 6968.78, 6512.16, 0.00, 0.00, 0.00, 0.00, 0.00, 0.00, 0.00
49, 10023.28, 47139.34, 1983.45, 21063.84, -3606.92, -201.26, 8916.27, -51725.06, -21599.79, 31732.93, 6968.78, 6512.16, 0.00, 0.00, 0.00, 0.00, 0.00, 0.00, 0.00
50, 10023.28, 47139.34, 1983.45, 21063.84, -3606.92, -201.26, 8916.27, -51725.06, -21590.22, 31729.75, 6967.13, 6512.81, 0.00, 0.00, 0.00, 0.00, 0.00, 0.00, 0.00
51, 10010.00, 47125.16, 1972.61, 21047.23, -3623.06, -221.28, 8901.25, -51742.25, -21590.22, 31729.75, 6967.13, 6512.81, 0.00, 0.00, 0.00, 0.00, 0.00, 0.00, 0.00
52, 10010.00, 47125.16, 1972.61, 21047.23, -3623.06, -221.28, 8901.25, -51742.25, -21591.67, 31734.58, 6969.90, 6524.70, 0.00, 0.00, 0.00, 0.00, 0.00, 0.00, 0.00
53, 10025.14, 47147.32, 1985.84, 21061.09, -3608.80, -215.31, 8934.66, -51716.93, -21591.67, 31734.58, 6969.90, 6524.70, 0.00, 0.00, 0.00, 0.00, -0.06, 0.32, 0.95
54, 10025.14, 47147.32, 1985.84, 21061.09, -3608.80, -215.31, 8934.66, -51716.93, -21590.58, 31730.98, 6970.99, 6535.90, 0.00, 0.00, 0.00, 0.00, 0.00, 0.00, 0.00
55, 10010.72, 47119.91, 1971.36, 21046.98, -3620.36, -222.80, 8921.63, -51730.41, -21590.58, 31730.98, 6970.99, 6535.90, 0.00, 0.00, 0.00, 0.00, 0.00, 0.00, 0.00
56, 10010.72, 47119.91, 1971.36, 21046.98, -3620.36, -222.80, 8921.63, -51730.41, -21593.33, 31731.81, 6959.86, 6534.00, 0.00, 0.00, 0.00, 0.00, 0.00, 0.00, 0.00
57, 10015.19, 47132.16, 1976.54, 21066.96, -3606.59, -195.49, 8943.85, -51706.27, -21593.33, 31731.81, 6959.86, 6534.00, 0.00, 0.00, 0.00, 0.00, 0.00, 0.00, 0.00
58, 10015.19, 47132.16, 1976.54, 21066.96, -3606.59, -195.49, 8943.85, -51706.27, -21594.73, 31742.05, 6961.61, 6555.70, 0.00, 0.00, 0.00, 0.00, 0.00, 0.00, 0.00
59, 10009.00, 47122.30, 1968.00, 21046.92, -3619.98, -221.48, 8942.26, -51709.75, -21594.73, 31742.05, 6961.61, 6555.70, 0.00, 0.00, 0.00, 0.00, 0.00, 0.00, 0.00
60, 10009.00, 47122.30, 1968.00, 21046.92, -3619.98, -221.48, 8942.26, -51709.75, -21597.35, 31731.74, 6957.96, 6556.46, 0.00, 0.00, 0.00, 0.00, 0.00, 0.00, 0.00
61, 10009.54, 47128.07, 1971.07, 21059.79, -3608.00, -218.67, 8964.84, -51697.59, -21597.35, 31731.74, 6957.96, 6556.46, 0.00, 0.00, 0.00, 0.00, 0.00, 0.00, 0.00
62, 10009.54, 47128.07, 1971.07, 21059.79, -3608.00, -218.67, 8964.84, -51697.59, -21594.38, 31740.53, 6958.34, 6556.75, 0.00, 0.00, 0.00, 0.00, 0.00, 0.00, 0.00
63, 9997.11, 47115.69, 1959.67, 21042.02, -3621.92, -219.54, 8949.30, -51714.49, -21594.38, 31740.53, 6958.34, 6556.75, 0.00, 0.00, 0.00, 0.00, -0.06, 0.33, 0.96
64, 9997.11, 47115.69, 1959.67, 21042.02, -3621.92, -219.54, 8949.30, -51714.49, -21598.15, 31724.41, 6948.35, 6560.82, 0.00, 0.00, 0.00, 0.00, 0.00, 0.00, 0.00
65, 10013.51, 47139.38, 1973.48, 21060.15, -3609.09, -210.87, 8976.93, -51691.63, -21598.15, 31724.41, 6948.35, 6560.82, 0.00, 0.00, 0.00, 0.00, 0.00, 0.00, 0.00
66, 10013.51, 47139.38, 1973.48, 21060.15, -3609.09, -210.87, 8976.93, -51691.63, -21589.24, 31739.39, 6975.11, 6567.39, 0.00, 0.00, 0.00, 0.00, 0.00, 0.00, 0.00
67, 10006.65, 47115.26, 1968.76, 21050.43, -3615.64, -214.98, 8967.47, -51702.69, -21589.24, 31739.39, 6975.11, 6567.39, 0.00, 0.00, 0.00, 0.00, 0.00, 0.00, 0.00
68, 10006.65, 47115.26, 1968.76, 21050.43, -3615.64, -214.98, 8967.47, -51702.69, -21589.77, 31730.83, 6955.44, 6574.85, 0.00, 0.00, 0.00, 0.00, 0.00, 0.00, 0.00
69, 10016.46, 47133.64, 1981.39, 21069.33, -3601.16, -201.28, 9001.14, -51672.58, -21589.77, 31730.83, 6955.44, 6574.85, 0.00, 0.00, 0.00, 0.00, 0.00, 0.00, 0.00
70, 10016.46, 47133.64, 1981.39, 21069.33, -3601.16, -201.28, 9001.14, -51672.58, -21579.78, 31754.79, 6975.24, 6591.37, 0.00, 0.00, 0.00, 0.00, 0.00, 0.00, 0.00
71, 10012.78, 47130.86, 1974.84, 21055.92, -3606.57, -217.42, 8998.52, -51678.93, -21579.78, 31754.79, 6975.24, 6591.37, 0.00, 0.00, 0.00, 0.00, 0.00, 0.00, 0.00
72, 10012.78, 47130.86, 1974.84, 21055.92, -3606.57, -217.42, 8998.52, -51678.93, -21591.25, 31729.13, 6952.51, 6590.26, 0.00, 0.00, 0.00, 0.00, -0.06, 0.32, 0.96
73, 10009.49, 47129.01, 1966.60, 21060.53, -3611.95, -208.25, 9003.77, -51678.15, -21591.25, 31729.13, 6952.51, 6590.26, 0.00, 0.00, 0.00, 0.00, 0.00, 0.00, 0.00
74, 10009.49, 47129.01, 1966.60, 21060.53, -3611.95, -208.25, 9003.77, -51678.15, -21597.78, 31735.43, 6959.28, 6590.64, 0.00, 0.00, 0.00, 0.00, 0.00, 0.00, 0.00
75, 10006.21, 47115.09, 1964.54, 21052.95, -3615.19, -212.97, 9004.20, -51678.86, -21597.78, 31735.43, 6959.28, 6590.64, 0.00, 0.00, 0.00, 0.00, 0.00, 0.00, 0.00
76, 10006.21, 47115.09, 1964.54, 21052.95, -3615.19, -212.97, 9004.20, -51678.86, -21592.54, 31727.38, 6950.25, 6607.58, 0.00, 0.00, 0.00, 0.00, 0.00, 0.00, 0.00
77, 10010.30, 47122.50, 1973.26, 21063.37, -3605.72, -207.80, 9023.38, -51663.38, -21592.54, 31727.38, 6950.25, 6607.58, 0.00, 0.00, 0.00, 0.00, 0.00, 0.00, 0.00
78, 10010.30, 47122.50, 1973.26, 21063.37, -3605.72, -207.80, 9023.38, -51663.38, -21583.54, 31752.48, 6971.02, 6614.15, 0.00, 0.00, 0.00, 0.00, 0.00, 0.00, 0.00
79, 10012.20, 47123.58, 1972.27, 21064.44, -3605.02, -209.41, 9027.89, -51659.20, -21583.54, 31752.48, 6971.02, 6614.15, 0.00, 0.00, 0.00, 0.00, 0.00, 0.00, 0.00
80, 10012.20, 47123.58, 1972.27, 21064.44, -3605.02, -209.41, 9027.89, -51659.20, -21590.55, 31728.05, 6944.96, 6612.65, 0.00, 0.00, 0.00, 0.00, 0.00, 0.00, 0.00
81, 10004.15, 47126.15, 1963.33, 21055.41, -3615.35, -205.55, 9024.54, -51666.41, -21590.55, 31728.05, 6944.96, 6612.65, 0.00, 0.00, 0.00, 0.00, 0.00, 0.00, 0.00
82, 10004.15, 47126.15, 1963.33, 21055.41, -3615.35, -205.55, 9024.54, -51666.41, -21584.30, 31743.28, 6958.14, 6614.80, 0.00, 0.00, 0.00, 0.00, -0.07, 0.32, 0.95
83, 10014.68, 47134.04, 1972.76, 21064.73, -3601.11, -210.40, 9043.67, -51655.82, -21584.30, 31743.28, 6958.14, 6614.80, 0.00, 0.00, 0.00, 0.00, 0.00, 0.00, 0.00
84, 10014.68, 47134.04, 1972.76, 21064.73, -3601.11, -210.40, 9043.67, -51655.82, -21584.86, 31737.93, 6955.91, 6637.62, 0.00, 0.00, 0.00, 0.00, 0.00, 0.00, 0.00
85, 10004.10, 47123.20, 1967.24, 21057.96, -3603.55, -214.71, 9050.89, -51641.87, -21584.86, 31737.93, 6955.91, 6637.62, 0.00, 0.00, 0.00, 0.00, 0.00, 0.00, 0.00
86, 10004.10, 47123.20, 1967.24, 21057.96, -3603.55, -214.71, 9050.89, -51641.87, -21584.34, 31750.56, 6962.66, 6631.27, 0.00, 0.00, 0.00, 0.00, 0.00, 0.00, 0.00
87, 10010.43, 47126.93, 1969.48, 21061.51, -3602.90, -205.99, 9060.95, -51637.33, -21584.34, 31750.56, 6962.66, 6631.27, 0.00, 0.00, 0.00, 0.00, 0.00, 0.00, 0.00
88, 10010.43, 47126.93, 1969.48, 21061.51, -3602.90, -205.99, 9060.95, -51637.33, -21586.73, 31729.24, 6955.26, 6642.49, 0.00, 0.00, 0.00, 0.00, 0.00, 0.00, 0.00
89, 10007.34, 47129.50, 1970.66, 21058.94, -3607.24, -211.07, 9060.86, -51642.09, -21586.73, 31729.24, 6955.26, 6642.49, 0.00, 0.00, 0.00, 0.00, 0.00, 0.00, 0.00
90, 10007.34, 47129.50, 1970.66, 21058.94, -3607.24, -211.07, 9060.86, -51642.09, -21583.47, 31745.24, 6965.45, 6644.57, 0.00, 0.00, 0.00, 0.00, 0.00, 0.00, 0.00
91, 10008.13, 47128.90, 1974.53, 21068.33, -3596.82, -201.21, 9075.43, -51629.51, -21583.47, 31745.24, 6965.45, 6644.57, 0.00, 0.00, 0.00, 0.00, 0.00, 0.00, 0.00
92, 10008.13, 47128.90, 1974.53, 21068.33, -3596.82, -201.21, 9075.43, -51629.51, -21587.02, 31731.74, 6950.92, 6656.55, 0.00, 0.00, 0.00, 0.00, -0.06, 0.32, 0.95
93, 9997.55, 47116.00, 1961.72, 21054.29, -3608.20, -213.93, 9071.39, -51638.50, -21587.02, 31731.74, 6950.92, 6656.55, 0.00, 0.00, 0.00, 0.00, 0.00, 0.00, 0.00
94, 9997.55, 47116.00, 1961.72, 21054.29, -3608.20, -213.93, 9071.39, -51638.50, -21579.09, 31754.47, 6964.36, 6661.36, 0.00, 0.00, 0.00, 0.00, 0.00, 0.00, 0.00
95, 10009.92, 47131.25, 1974.24, 21066.47, -3596.42, -202.86, 9089.47, -51621.78, -21579.09, 31754.47, 6964.36, 6661.36, 0.00, 0.00, 0.00, 0.00, 0.00, 0.00, 0.00
96, 10009.92, 47131.25, 1974.24, 21066.47, -3596.42, -202.86, 9089.47, -51621.78, -21585.55, 31733.06, 6956.82, 6657.40, 0.00, 0.00, 0.00, 0.00, 0.00, 0.00, 0.00
97, 10009.78, 47121.79, 1961.61, 21054.16, -3610.86, -211.07, 9079.88, -51637.78, -21585.55, 31733.06, 6956.82, 6657.40, 0.00, 0.00, 0.00, 0.00, 0.00, 0.00, 0.00
98, 10009.78, 47121.79, 1961.61, 21054.16, -3610.86, -211.07, 9079.88, -51637.78, -21587.52, 31743.86, 6957.58, 6665.00, 0.00, 0.00, 0.00, 0.00, 0.00, 0.00, 0.00
99, 10006.21, 47124.70, 1975.92, 21073.45, -3592.24, -203.58, 9111.53, -51605.44, -21587.52, 31743.86, 6957.58, 6665.00, 0.00, 0.00, 0.00, 0.00, 0.00, 0.00, 0.00
100, 10006.21, 47124.70, 1975.92, 21073.45, -3592.24, -203.58, 9111.53, -51605.44, -21582.33, 31737.20, 6955.77, 6671.84, 0.00, 0.00, 0.00, 0.00, 0.00, 0.00, 0.00
101, 9988.70, 47107.44, 1962.84, 21054.11, -3605.11, -210.08, 9094.41, -51626.07, -21582.33, 31737.20, 6955.77, 6671.84, 0.00, 0.00, 0.00, 0.00, 0.00, 0.00, 0.00
102, 9988.70, 47107.44, 1962.84, 21054.11, -3605.11, -210.08, 9094.41, -51626.07, -21577.97, 31737.22, 6951.44, 6678.21, 0.00, 0.00, 0.00, 0.00, -0.06, 0.32, 0.95
103, 10006.52, 47128.29, 1972.65, 21073.56, -3594.72, -196.76, 9118.48, -51608.70, -21577.97, 31737.22, 6951.44, 6678.21, 0.00, 0.00, 0.00, 0.00, 0.00, 0.00, 0.00
104, 10006.52, 47128.29, 1972.65, 21073.56, -3594.72, -196.76, 9118.48, -51608.70, -21578.44, 31749.85, 6962.14, 6693.16, 0.00, 0.00, 0.00, 0.00, 0.00, 0.00, 0.00
105, 10004.31, 47126.68, 1974.82, 21065.09, -3592.48, -202.44, 9122.55, -51602.84, -21578.44, 31749.85, 6962.14, 6693.16, 0.00, 0.00, 0.00, 0.00, 0.00, 0.00, 0.00
106, 10004.31, 47126.68, 1974.82, 21065.09, -3592.48, -202.44, 9122.55, -51602.84, -21571.98, 31752.08, 6967.11, 6697.63, 0.00, 0.00, 0.00, 0.00, 0.00, 0.00, 0.00
107, 10015.86, 47133.01, 1979.34, 21075.75, -3584.50, -200.85, 9147.79, -51581.72, -21571.98, 31752.08, 6967.11, 6697.63, 0.00, 0.00, 0.00, 0.00, 0.00, 0.00, 0.00
108, 10015.86, 47133.01, 1979.34, 21075.75, -3584.50, -200.85, 9147.79, -51581.72, -21577.81, 31752.48, 6969.74, 6709.43, 0.00, 0.00, 0.00, 0.00, 0.00, 0.00, 0.00
109, 10005.91, 47124.47, 1967.56, 21060.33, -3597.49, -205.77, 9131.16, -51600.25, -21577.81, 31752.48, 6969.74, 6709.43, 0.00, 0.00, 0.00, 0.00, 0.00, 0.00, 0.00
110, 10005.91, 47124.47, 1967.56, 21060.33, -3597.49, -205.77, 9131.16, -51600.25, -21567.76, 31746.61, 6958.90, 6711.13, 0.00, 0.00, 0.00, 0.00, 0.00, 0.00, 0.00
111, 10004.95, 47134.89, 1982.58, 21080.49, -3582.90, -190.79, 9156.37, -51582.46, -21567.76, 31746.61, 6958.90, 6711.13, 0.00, 0.00, 0.00, 0.00, -0.05, 0.32, 0.95
112, 10004.95, 47134.89, 1982.58, 21080.49, -3582.90, -190.79, 9156.37, -51582.46, -21578.91, 31752.66, 6966.93, 6712.70, 0.00, 0.00, 0.00, 0.00, 0.00, 0.00, 0.00
113, 9996.71, 47109.38, 1964.61, 21062.72, -3600.84, -204.90, 9146.71, -51590.60, -21578.91, 31752.66, 6966.93, 6712.70, 0.00, 0.00, 0.00, 0.00, 0.00, 0.00, 0.00
114, 9996.71, 47109.38, 1964.61, 21062.72, -3600.84, -204.90, 9146.71, -51590.60, -21584.70, 31733.31, 6950.43, 6710.19, 0.00, 0.00, 0.00, 0.00, 0.00, 0.00, 0.00
115, 9998.90, 47116.36, 1963.82, 21068.20, -3596.89, -198.33, 9159.52, -51581.01, -21584.70, 31733.31, 6950.43, 6710.19, 0.00, 0.00, 0.00, 0.00, 0.00, 0.00, 0.00
116, 9998.90, 47116.36, 1963.82, 21068.20, -3596.89, -198.33, 9159.52, -51581.01, -21585.55, 31746.05, 6952.85, 6712.97, 0.00, 0.00, 0.00, 0.00, 0.00, 0.00, 0.00
117, 9999.79, 47110.39, 1962.77, 21056.10, -3604.76, -217.75, 9154.29, -51591.09, -21585.55, 31746.05, 6952.85, 6712.97, 0.00, 0.00, 0.00, 0.00, 0.00, 0.00, 0.00
118, 9999.79, 47110.39, 1962.77, 21056.10, -3604.76, -217.75, 9154.29, -51591.09, -21584.30, 31731.90, 6946.23, 6731.38, 0.00, 0.00, 0.00, 0.00, 0.00, 0.00, 0.00
119, 10013.83, 47127.98, 1970.84, 21071.06, -3593.87, -199.60, 9173.89, -51576.18, -21584.30, 31731.90, 6946.23, 6731.38, 0.00, 0.00, 0.00, 0.00, 0.00, 0.00, 0.00
120, 10013.83, 47127.98, 1970.84, 21071.06, -3593.87, -199.60, 9173.89, -51576.18, -21584.39, 31746.79, 6953.25, 6731.34, 0.00, 0.00, 0.00, 0.00, 0.00, 0.00, 0.00
121, 10006.94, 47126.55, 1968.32, 21063.26, -3599.55, -207.51, 9170.58, -51581.10, -21584.39, 31746.79, 6953.25, 6731.34, 0.00, 0.00, 0.00, 0.00, -0.06, 0.33, 0.96
122, 10006.94, 47126.55, 1968.32, 21063.26, -3599.55, -207.51, 9170.58, -51581.10, -21586.98, 31727.12, 6949.51, 6730.74, 0.00, 0.00, 0.00, 0.00, 0.00, 0.00, 0.00
123, 10003.14, 47114.10, 1971.74, 21074.72, -3591.68, -191.76, 9186.88, -51569.74, -21586.98, 31727.12, 6949.51, 6730.74, 0.00, 0.00, 0.00, 0.00, 0.00, 0.00, 0.00
124, 10003.14, 47114.10, 1971.74, 21074.72, -3591.68, -191.76, 9186.88, -51569.74, -21581.23, 31747.28, 6963.24, 6737.96, 0.00, 0.00, 0.00, 0.00, 0.00, 0.00, 0.00
125, 10012.42, 47117.59, 1977.46, 21074.41, -3588.06, -194.84, 9192.74, -51569.72, -21581.23, 31747.28, 6963.24, 6737.96, 0.00, 0.00, 0.00, 0.00, 0.00, 0.00, 0.00
126, 10012.42, 47117.59, 1977.46, 21074.41, -3588.06, -194.84, 9192.74, -51569.72, -21577.37, 31729.71, 6956.82, 6741.02, 0.00, 0.00, 0.00, 0.00, 0.00, 0.00, 0.00
127, 10016.53, 47128.70, 1978.13, 21071.73, -3592.35, -205.97, 9198.35, -51567.04, -21577.37, 31729.71, 6956.82, 6741.02, 0.00, 0.00, 0.00, 0.00, 0.00, 0.00, 0.00
128, 10016.53, 47128.70, 1978.13, 21071.73, -3592.35, -205.97, 9198.35, -51567.04, -21584.03, 31747.54, 6973.39, 6748.51, 0.00, 0.00, 0.00, 0.00, 0.00, 0.00, 0.00
129, 10020.04, 47135.56, 1981.28, 21074.72, -3587.83, -199.65, 9211.15, -51551.28, -21584.03, 31747.54, 6973.39, 6748.51, 0.00, 0.00, 0.00, 0.00, 0.00, 0.00, 0.00
130, 10020.04, 47135.56, 1981.28, 21074.72, -3587.83, -199.65, 9211.15, -51551.28, -21575.04, 31738.02, 6963.44, 6766.25, 0.00, 0.00, 0.00, 0.00, 0.00, 0.00, 0.00
131, 10016.53, 47141.55, 1985.51, 21075.68, -3582.49, -191.26, 9217.61, -51550.96, -21575.04, 31738.02, 6963.44, 6766.25, 0.00, 0.00, 0.00, 0.00, -0.06, 0.32, 0.96
132, 10016.53, 47141.55, 1985.51, 21075.68, -3582.49, -191.26, 9217.61, -51550.96, -21567.89, 31756.64, 6977.95, 6770.37, 0.00, 0.00, 0.00, 0.00, 0.00, 0.00, 0.00
133, 10013.98, 47136.50, 1986.91, 21077.98, -3580.62, -193.12, 9226.02, -51542.20, -21567.89, 31756.64, 6977.95, 6770.37, 0.00, 0.00, 0.00, 0.00, 0.00, 0.00, 0.00
134, 10013.98, 47136.50, 1986.91, 21077.98, -3580.62, -193.12, 9226.02, -51542.20, -21579.38, 31732.17, 6966.48, 6776.69, 0.00, 0.00, 0.00, 0.00, 0.00, 0.00, 0.00
135, 10000.15, 47115.15, 1977.10, 21067.14, -3590.94, -201.77, 9223.65, -51548.44, -21579.38, 31732.17, 6966.48, 6776.69, 0.00, 0.00, 0.00, 0.00, 0.00, 0.00, 0.00
136, 10000.15, 47115.15, 1977.10, 21067.14, -3590.94, -201.77, 9223.65, -51548.44, -21568.70, 31754.14, 6976.81, 6776.13, 0.00, 0.00, 0.00, 0.00, 0.00, 0.00, 0.00
137, 10017.81, 47130.60, 1983.63, 21085.49, -3573.80, -180.49, 9242.33, -51536.21, -21568.70, 31754.14, 6976.81, 6776.13, 0.00, 0.00, 0.00, 0.00, 0.00, 0.00, 0.00
138, 10017.81, 47130.60, 1983.63, 21085.49, -3573.80, -180.49, 9242.33, -51536.21, -21566.46, 31747.97, 6967.19, 6793.63, 0.00, 0.00, 0.00, 0.00, 0.00, 0.00, 0.00
139, 10017.09, 47138.40, 1983.49, 21076.80, -3581.82, -199.89, 9248.75, -51526.13, -21566.46, 31747.97, 6967.19, 6793.63, 0.00, 0.00, 0.00, 0.00, 0.00, 0.00, 0.00
140, 10017.09, 47138.40, 1983.49, 21076.80, -3581.82, -199.89, 9248.75, -51526.13, -21578.31, 31762.19, 6973.19, 6793.07, 0.00, 0.00, 0.00, 0.00, 0.00, 0.00, 0.00
141, 10014.70, 47130.39, 1984.07, 21084.36, -3577.04, -188.22, 9263.77, -51512.19, -21578.31, 31762.19, 6973.19, 6793.07, 0.00, 0.00, 0.00, 0.00, -0.06, 0.32, 0.96
142, 10014.70, 47130.39, 1984.07, 21084.36, -3577.04, -188.22, 9263.77, -51512.19, -21576.88, 31742.18, 6966.08, 6812.23, 0.00, 0.00, 0.00, 0.00, 0.00, 0.00, 0.00
143, 10008.17, 47129.16, 1982.73, 21072.06, -3589.20, -202.91, 9252.26, -51530.96, -21576.88, 31742.18, 6966.08, 6812.23, 0.00, 0.00, 0.00, 0.00, 0.00, 0.00, 0.00
144, 10008.17, 47129.16, 1982.73, 21072.06, -3589.20, -202.91, 9252.26, -51530.96, -21574.86, 31746.03, 6969.77, 6792.90, 0.00, 0.00, 0.00, 0.00, 0.00, 0.00, 0.00
145, 10022.46, 47152.41, 1988.48, 21089.05, -3573.26, -187.17, 9271.15, -51518.07, -21574.86, 31746.03, 6969.77, 6792.90, 0.00, 0.00, 0.00, 0.00, 0.00, 0.00, 0.00
146, 10022.46, 47152.41, 1988.48, 21089.05, -3573.26, -187.17, 9271.15, -51518.07, -21577.10, 31737.98, 6963.75, 6810.38, 0.00, 0.00, 0.00, 0.00, 0.00, 0.00, 0.00
147, 10016.51, 47125.70, 1982.51, 21079.26, -3583.10, -190.64, 9266.81, -51524.70, -21577.10, 31737.98, 6963.75, 6810.38, 0.00, 0.00, 0.00, 0.00, 0.00, 0.00, 0.00
148, 10016.51, 47125.70, 1982.51, 21079.26, -3583.10, -190.64, 9266.81, -51524.70, -21572.12, 31746.12, 6973.16, 6807.09, 0.00, 0.00, 0.00, 0.00, 0.00, 0.00, 0.00
149, 10020.13, 47137.86, 1992.99, 21095.06, -3570.13, -181.50, 9289.27, -51505.84, -21572.12, 31746.12, 6973.16, 6807.09, 0.00, 0.00, 0.00, 0.00, 0.00, 0.00, 0.00
150, 10020.13, 47137.86, 1992.99, 21095.06, -3570.13, -181.50, 9289.27, -51505.84, -21575.87, 31745.38, 6970.03, 6827.03, 0.00, 0.00, 0.00, 0.00, -0.07, 0.31, 0.96
151, 10007.68, 47117.74, 1979.87, 21077.96, -3587.63, -194.66, 9273.85, -51519.79, -21575.87, 31745.38, 6970.03, 6827.03, 0.00, 0.00, 0.00, 0.00, 0.00, 0.00, 0.00
152, 10007.68, 47117.74, 1979.87, 21077.96, -3587.63, -194.66, 9273.85, -51519.79, -21577.88, 31743.03, 6965.03, 6824.17, 0.00, 0.00, 0.00, 0.00, 0.00, 0.00, 0.00
153, 10015.84, 47142.93, 1994.11, 21097.65, -3566.15, -181.67, 9302.93, -51497.64, -21577.88, 31743.03, 6965.03, 6824.17, 0.00, 0.00, 0.00, 0.00, 0.00, 0.00, 0.00
154, 10015.84, 47142.93, 1994.11, 21097.65, -3566.15, -181.67, 9302.93, -51497.64, -21571.91, 31751.86, 6968.78, 6831.25, 0.00, 0.00, 0.00, 0.00, 0.00, 0.00, 0.00
155, 9998.05, 47112.18, 1976.27, 21072.60, -3585.00, -195.87, 9290.75, -51504.34, -21571.91, 31751.86, 6968.78, 6831.25, 0.00, 0.00, 0.00, 0.00, 0.00, 0.00, 0.00
156, 9998.05, 47112.18, 1976.27, 21072.60, -3585.00, -195.87, 9290.75, -51504.34, -21567.96, 31741.22, 6969.03, 6831.54, 0.00, 0.00, 0.00, 0.00, 0.00, 0.00, 0.00
157, 10017.65, 47142.40, 1995.70, 21098.91, -3561.57, -179.42, 9320.68, -51480.40, -21567.96, 31741.22, 6969.03, 6831.54, 0.00, 0.00, 0.00, 0.00, 0.00, 0.00, 0.00
158, 10017.65, 47142.40, 1995.70, 21098.91, -3561.57, -179.42, 9320.68, -51480.40, -21566.71, 31756.06, 6976.54, 6851.10, 0.00, 0.00, 0.00, 0.00, 0.00, 0.00, 0.00
159, 10009.78, 47136.16, 1980.97, 21076.06, -3581.44, -196.63, 9304.23, -51493.03, -21566.71, 31756.06, 6976.54, 6851.10, 0.00, 0.00, 0.00, 0.00, 0.00, 0.00, 0.00
160, 10009.78, 47136.16, 1980.97, 21076.06, -3581.44, -196.63, 9304.23, -51493.03, -21576.41, 31739.39, 6968.25, 6847.99, 0.00, 0.00, 0.00, 0.00, -0.06, 0.31, 0.96
161, 10026.12, 47151.11, 1997.35, 21096.94, -3568.95, -173.63, 9324.59, -51480.43, -21576.41, 31739.39, 6968.25, 6847.99, 0.00, 0.00, 0.00, 0.00, 0.00, 0.00, 0.00
162, 10026.12, 47151.11, 1997.35, 21096.94, -3568.95, -173.63, 9324.59, -51480.43, -21565.81, 31751.57, 6982.15, 6845.02, 0.00, 0.00, 0.00, 0.00, 0.00, 0.00, 0.00
163, 10010.34, 47141.93, 1988.46, 21080.35, -3578.00, -192.07, 9313.12, -51497.14, -21565.81, 31751.57, 6982.15, 6845.02, 0.00, 0.00, 0.00, 0.00, 0.00, 0.00, 0.00
164, 10010.34, 47141.93, 1988.46, 21080.35, -3578.00, -192.07, 9313.12, -51497.14, -21568.49, 31747.46, 6974.03, 6861.38, 0.00, 0.00, 0.00, 0.00, 0.00, 0.00, 0.00
165, 10029.67, 47157.39, 2003.90, 21101.83, -3562.80, -178.72, 9343.92, -51457.18, -21568.49, 31747.46, 6974.03, 6861.38, 0.00, 0.00, 0.00, 0.00, 0.00, 0.00, 0.00
166, 10029.67, 47157.39, 2003.90, 21101.83, -3562.80, -178.72, 9343.92, -51457.18, -21571.18, 31756.08, 6987.94, 6875.87, 0.00, 0.00, 0.00, 0.00, 0.00, 0.00, 0.00
167, 10026.43, 47147.72, 1998.25, 21083.30, -3571.99, -192.85, 9330.76, -51474.41, -21571.18, 31756.08, 6987.94, 6875.87, 0.00, 0.00, 0.00, 0.00, 0.00, 0.00, 0.00
168, 10026.43, 47147.72, 1998.25, 21083.30, -3571.99, -192.85, 9330.76, -51474.41, -21576.05, 31736.75, 6971.69, 6871.04, 0.00, 0.00, 0.00, 0.00, 0.00, 0.00, 0.00
169, 10024.56, 47158.29, 1998.00, 21092.04, -3571.21, -184.36, 9344.91, -51464.02, -21576.05, 31736.75, 6971.69, 6871.04, 0.00, 0.00, 0.00, 0.00, 0.00, 0.00, 0.00
170, 10024.56, 47158.29, 1998.00, 21092.04, -3571.21, -184.36, 9344.91, -51464.02, -21574.89, 31753.36, 6984.27, 6872.11, 0.00, 0.00, 0.00, 0.00, -0.06, 0.32, 0.95
171, 10023.71, 47154.27, 2004.37, 21098.82, -3560.41, -170.88, 9352.42, -51460.11, -21574.89, 31753.36, 6984.27, 6872.11, 0.00, 0.00, 0.00, 0.00, 0.00, 0.00, 0.00
172, 10023.71, 47154.27, 2004.37, 21098.82, -3560.41, -170.88, 9352.42, -51460.11, -21562.50, 31742.78, 6984.41, 6885.57, 0.00, 0.00, 0.00, 0.00, 0.00, 0.00, 0.00
173, 10027.06, 47170.63, 2010.96, 21103.31, -3556.52, -180.42, 9365.49, -51450.54, -21562.50, 31742.78, 6984.41, 6885.57, 0.00, 0.00, 0.00, 0.00, 0.00, 0.00, 0.00
174, 10027.06, 47170.63, 2010.96, 21103.31, -3556.52, -180.42, 9365.49, -51450.54, -21568.47, 31762.48, 6992.81, 6880.72, 0.00, 0.00, 0.00, 0.00, 0.00, 0.00, 0.00
175, 10033.92, 47163.86, 2008.06, 21098.84, -3554.42, -179.57, 9371.80, -51444.64, -21568.47, 31762.48, 6992.81, 6880.72, 0.00, 0.00, 0.00, 0.00, 0.00, 0.00, 0.00
176, 10033.92, 47163.86, 2008.06, 21098.84, -3554.42, -179.57, 9371.80, -51444.64, -21564.89, 31750.43, 6980.36, 6907.20, 0.00, 0.00, 0.00, 0.00, 0.00, 0.00, 0.00
177, 10025.88, 47146.69, 2011.21, 21103.89, -3550.35, -169.09, 9380.38, -51436.28, -21564.89, 31750.43, 6980.36, 6907.20, 0.00, 0.00, 0.00, 0.00, 0.00, 0.00, 0.00
178, 10025.88, 47146.69, 2011.21, 21103.89, -3550.35, -169.09, 9380.38, -51436.28, -21561.54, 31769.47, 6996.23, 6903.83, 0.00, 0.00, 0.00, 0.00, 0.00, 0.00, 0.00
179, 10026.43, 47159.81, 2017.69, 21108.90, -3542.68, -168.80, 9393.23, -51428.90, -21561.54, 31769.47, 6996.23, 6903.83, 0.00, 0.00, 0.00, 0.00, 0.00, 0.00, 0.00
180, 10026.43, 47159.81, 2017.69, 21108.90, -3542.68, -168.80, 9393.23, -51428.90, -21549.29, 31764.42, 6983.44, 6913.95, 0.00, 0.00, 0.00, 0.00, -0.06, 0.32, 0.96
181, 10011.06, 47143.07, 2000.30, 21101.68, -3552.39, -172.35, 9389.48, -51437.33, -21549.29, 31764.42, 6983.44, 6913.95, 0.00, 0.00, 0.00, 0.00, 0.00, 0.00, 0.00
182, 10011.06, 47143.07, 2000.30, 21101.68, -3552.39, -172.35, 9389.48, -51437.33, -21558.82, 31765.94, 6977.52, 6912.37, 0.00, 0.00, 0.00, 0.00, 0.00, 0.00, 0.00
183, 10004.31, 47129.19, 1986.80, 21094.41, -3558.73, -174.90, 9391.31, -51426.89, -21558.82, 31765.94, 6977.52, 6912.37, 0.00, 0.00, 0.00, 0.00, 0.00, 0.00, 0.00
184, 10004.31, 47129.19, 1986.80, 21094.41, -3558.73, -174.90, 9391.31, -51426.89, -21572.56, 31753.40, 6957.32, 6926.58, 0.00, 0.00, 0.00, 0.00, 0.00, 0.00, 0.00
185, 9998.14, 47124.02, 1981.44, 21092.51, -3565.64, -173.05, 9392.09, -51421.66, -21572.56, 31753.40, 6957.32, 6926.58, 0.00, 0.00, 0.00, 0.00, 0.00, 0.00, 0.00
186, 9998.14, 47124.02, 1981.44, 21092.51, -3565.64, -173.05, 9392.09, -51421.66, -21565.25, 31771.60, 6969.03, 6926.45, 0.00, 0.00, 0.00, 0.00, 0.00, 0.00, 0.00
187, 10002.29, 47131.98, 1985.15, 21099.29, -3558.40, -176.78, 9406.53, -51418.53, -21565.25, 31771.60, 6969.03, 6926.45, 0.00, 0.00, 0.00, 0.00, 0.00, 0.00, 0.00
188, 10002.29, 47131.98, 1985.15, 21099.29, -3558.40, -176.78, 9406.53, -51418.53, -21573.12, 31746.34, 6953.74, 6932.71, 0.00, 0.00, 0.00, 0.00, 0.00, 0.00, 0.00
189, 10000.75, 47128.14, 1982.67, 21087.53, -3565.15, -186.19, 9403.71, -51423.65, -21573.12, 31746.34, 6953.74, 6932.71, 0.00, 0.00, 0.00, 0.00, -0.06, 0.32, 0.95
190, 10000.75, 47128.14, 1982.67, 21087.53, -3565.15, -186.19, 9403.71, -51423.65, -21563.20, 31764.22, 6965.90, 6934.09, 0.00, 0.00, 0.00, 0.00, 0.00, 0.00, 0.00
191, 10013.96, 47133.97, 1990.22, 21101.10, -3552.16, -169.36, 9420.41, -51409.17, -21563.20, 31764.22, 6965.90, 6934.09, 0.00, 0.00, 0.00, 0.00, 0.00, 0.00, 0.00
192, 10013.96, 47133.97, 1990.22, 21101.10, -3552.16, -169.36, 9420.41, -51409.17, -21556.18, 31759.99, 6968.69, 6927.48, 0.00, 0.00, 0.00, 0.00, 0.00, 0.00, 0.00
193, 10004.46, 47129.70, 1986.96, 21094.41, -3561.86, -176.82, 9410.04, -51420.01, -21556.18, 31759.99, 6968.69, 6927.48, 0.00, 0.00, 0.00, 0.00, 0.00, 0.00, 0.00
194, 10004.46, 47129.70, 1986.96, 21094.41, -3561.86, -176.82, 9410.04, -51420.01, -21553.38, 31773.29, 6976.40, 6951.17, 0.00, 0.00, 0.00, 0.00, 0.00, 0.00, 0.00
195, 10018.95, 47147.18, 1999.97, 21109.61, -3546.98, -165.63, 9440.08, -51389.90, -21553.38, 31773.29, 6976.40, 6951.17, 0.00, 0.00, 0.00, 0.00, 0.00, 0.00, 0.00
196, 10018.95, 47147.18, 1999.97, 21109.61, -3546.98, -165.63, 9440.08, -51389.90, -21563.13, 31758.14, 6968.69, 6950.79, 0.00, 0.00, 0.00, 0.00, 0.00, 0.00, 0.00
197, 10006.79, 47131.51, 1990.51, 21095.24, -3564.03, -175.55, 9425.31, -51412.05, -21563.13, 31758.14, 6968.69, 6950.79, 0.00, 0.00, 0.00, 0.00, 0.00, 0.00, 0.00
198, 10006.79, 47131.51, 1990.51, 21095.24, -3564.03, -175.55, 9425.31, -51412.05, -21556.47, 31759.12, 6965.90, 6951.48, 0.00, 0.00, 0.00, 0.00, 0.00, 0.00, 0.00
199, 10030.86, 47162.45, 2006.25, 21110.84, -3543.94, -167.26, 9448.39, -51399.38, -21556.47, 31759.12, 6965.90, 6951.48, 0.00, 0.00, 0.00, 0.00, -0.06, 0.32, 0.96
200, 10030.86, 47162.45, 2006.25, 21110.84, -3543.94, -167.26, 9448.39, -51399.38, -21567.09, 31762.92, 6983.00, 6952.98, 0.00, 0.00, 0.00, 0.00, 0.00, 0.00, 0.00
201, 10025.38, 47154.33, 2005.82, 21102.84, -3548.25, -171.42, 9445.76, -51383.29, -21567.09, 31762.92, 6983.00, 6952.98, 0.00, 0.00, 0.00, 0.00, 0.00, 0.00, 0.00
202, 10025.38, 47154.33, 2005.82, 21102.84, -3548.25, -171.42, 9445.76, -51383.29, -21555.55, 31763.04, 6983.22, 6959.66, 0.00, 0.00, 0.00, 0.00, 0.00, 0.00, 0.00
203, 10035.04, 47174.23, 2025.07, 21122.91, -3530.93, -155.93, 9472.92, -51368.80, -21555.55, 31763.04, 6983.22, 6959.66, 0.00, 0.00, 0.00, 0.00, 0.00, 0.00, 0.00
204, 10035.04, 47174.23, 2025.07, 21122.91, -3530.93, -155.93, 9472.92, -51368.80, -21552.58, 31769.40, 6983.98, 6981.34, 0.00, 0.00, 0.00, 0.00, 0.00, 0.00, 0.00
205, 10028.49, 47147.43, 2006.09, 21106.26, -3547.62, -171.30, 9461.27, -51382.59, -21552.58, 31769.40, 6983.98, 6981.34, 0.00, 0.00, 0.00, 0.00, 0.00, 0.00, 0.00
206, 10028.49, 47147.43, 2006.09, 21106.26, -3547.62, -171.30, 9461.27, -51382.59, -21558.95, 31768.31, 6972.85, 6980.20, 0.00, 0.00, 0.00, 0.00, 0.00, 0.00, 0.00
207, 10032.45, 47161.33, 2013.22, 21127.56, -3534.17, -152.19, 9485.07, -51366.07, -21558.95, 31768.31, 6972.85, 6980.20, 0.00, 0.00, 0.00, 0.00, 0.00, 0.00, 0.00
208, 10032.45, 47161.33, 2013.22, 21127.56, -3534.17, -152.19, 9485.07, -51366.07, -21559.02, 31768.06, 6968.71, 6979.89, 0.00, 0.00, 0.00, 0.00, 0.00, 0.00, 0.00
209, 10010.59, 47142.49, 1997.28, 21106.46, -3552.12, -169.36, 9461.22, -51394.21, -21559.02, 31768.06, 6968.71, 6979.89, 0.00, 0.00, 0.00, 0.00, -0.06, 0.32, 0.96
210, 10010.59, 47142.49, 1997.28, 21106.46, -3552.12, -169.36, 9461.22, -51394.21, -21567.46, 31755.61, 6958.32, 6982.89, 0.00, 0.00, 0.00, 0.00, 0.00, 0.00, 0.00
211, 10012.84, 47146.20, 2000.77, 21121.86, -3537.70, -157.00, 9489.75, -51365.20, -21567.46, 31755.61, 6958.32, 6982.89, 0.00, 0.00, 0.00, 0.00, 0.00, 0.00, 0.00
212, 10012.84, 47146.20, 2000.77, 21121.86, -3537.70, -157.00, 9489.75, -51365.20, -21564.29, 31766.88, 6963.26, 6983.13, 0.00, 0.00, 0.00, 0.00, 0.00, 0.00, 0.00
213, 9982.83, 47113.77, 1982.80, 21101.99, -3554.40, -165.29, 9473.03, -51381.34, -21564.29, 31766.88, 6963.26, 6983.13, 0.00, 0.00, 0.00, 0.00, 0.00, 0.00, 0.00
214, 9982.83, 47113.77, 1982.80, 21101.99, -3554.40, -165.29, 9473.03, -51381.34, -21565.63, 31753.51, 6941.94, 6988.09, 0.00, 0.00, 0.00, 0.00, 0.00, 0.00, 0.00
215, 9999.46, 47117.39, 1981.91, 21114.28, -3544.49, -161.94, 9493.93, -51363.68, -21565.63, 31753.51, 6941.94, 6988.09, 0.00, 0.00, 0.00, 0.00, 0.00, 0.00, 0.00
216, 9999.46, 47117.39, 1981.91, 21114.28, -3544.49, -161.94, 9493.93, -51363.68, -21567.40, 31768.24, 6960.33, 7002.56, 0.00, 0.00, 0.00, 0.00, 0.00, 0.00, 0.00
217, 9989.20, 47103.57, 1971.89, 21097.45, -3557.46, -173.02, 9481.05, -51370.61, -21567.40, 31768.24, 6960.33, 7002.56, 0.00, 0.00, 0.00, 0.00, 0.00, 0.00, 0.00
218, 9989.20, 47103.57, 1971.89, 21097.45, -3557.46, -173.02, 9481.05, -51370.61, -21566.21, 31750.38, 6936.51, 6994.31, 0.00, 0.00, 0.00, 0.00, 0.00, 0.00, 0.00
219, 9989.37, 47118.55, 1970.86, 21099.93, -3561.26, -163.32, 9483.15, -51373.52, -21566.21, 31750.38, 6936.51, 6994.31, 0.00, 0.00, 0.00, 0.00, -0.06, 0.32, 0.96
220, 9989.37, 47118.55, 1970.86, 21099.93, -3561.26, -163.32, 9483.15, -51373.52, -21575.27, 31759.23, 6946.68, 6991.87, 0.00, 0.00, 0.00, 0.00, 0.00, 0.00, 0.00
221, 9994.34, 47115.91, 1976.68, 21097.90, -3558.55, -183.78, 9499.92, -51358.07, -21575.27, 31759.23, 6946.68, 6991.87, 0.00, 0.00, 0.00, 0.00, 0.00, 0.00, 0.00
222, 9994.34, 47115.91, 1976.68, 21097.90, -3558.55, -183.78, 9499.92, -51358.07, -21563.96, 31751.93, 6947.32, 7006.20, 0.00, 0.00, 0.00, 0.00, 0.00, 0.00, 0.00
223, 10001.42, 47124.58, 1982.64, 21100.74, -3555.25, -172.62, 9502.49, -51366.68, -21563.96, 31751.93, 6947.32, 7006.20, 0.00, 0.00, 0.00, 0.00, 0.00, 0.00, 0.00
224, 10001.42, 47124.58, 1982.64, 21100.74, -3555.25, -172.62, 9502.49, -51366.68, -21569.05, 31760.24, 6956.47, 6993.68, 0.00, 0.00, 0.00, 0.00, 0.00, 0.00, 0.00
225, 10004.91, 47133.61, 1996.48, 21107.40, -3552.97, -168.55, 9509.01, -51352.84, -21569.05, 31760.24, 6956.47, 6993.68, 0.00, 0.00, 0.00, 0.00, 0.00, 0.00, 0.00
226, 10004.91, 47133.61, 1996.48, 21107.40, -3552.97, -168.55, 9509.01, -51352.84, -21573.63, 31749.76, 6955.33, 7015.09, 0.00, 0.00, 0.00, 0.00, 0.00, 0.00, 0.00
227, 10031.53, 47155.79, 2000.91, 21115.40, -3544.07, -158.47, 9519.88, -51343.48, -21573.63, 31749.76, 6955.33, 7015.09, 0.00, 0.00, 0.00, 0.00, 0.00, 0.00, 0.00
228, 10031.53, 47155.79, 2000.91, 21115.40, -3544.07, -158.47, 9519.88, -51343.48, -21562.97, 31766.52, 6974.24, 7019.92, 0.00, 0.00, 0.00, 0.00, 0.00, 0.00, 0.00
229, 10036.92, 47157.82, 2009.47, 21120.14, -3539.73, -163.12, 9531.86, -51343.09, -21562.97, 31766.52, 6974.24, 7019.92, 0.00, 0.00, 0.00, 0.00, -0.06, 0.32, 0.95
230, 10036.92, 47157.82, 2009.47, 21120.14, -3539.73, -163.12, 9531.86, -51343.09, -21557.43, 31753.69, 6969.25, 7028.55, 0.00, 0.00, 0.00, 0.00, 0.00, 0.00, 0.00
231, 10039.15, 47169.27, 2018.68, 21126.31, -3537.39, -148.24, 9533.20, -51341.51, -21557.43, 31753.69, 6969.25, 7028.55, 0.00, 0.00, 0.00, 0.00, 0.00, 0.00, 0.00
232, 10039.15, 47169.27, 2018.68, 21126.31, -3537.39, -148.24, 9533.20, -51341.51, -21553.76, 31772.78, 6985.03, 7020.73, 0.00, 0.00, 0.00, 0.00, 0.00, 0.00, 0.00
233, 10040.94, 47165.51, 2026.25, 21135.21, -3526.55, -152.55, 9551.37, -51328.23, -21553.76, 31772.78, 6985.03, 7020.73, 0.00, 0.00, 0.00, 0.00, 0.00, 0.00, 0.00
234, 10040.94, 47165.51, 2026.25, 21135.21, -3526.55, -152.55, 9551.37, -51328.23, -21568.96, 31753.49, 6978.68, 7044.91, 0.00, 0.00, 0.00, 0.00, 0.00, 0.00, 0.00
235, 10036.56, 47146.85, 2022.45, 21129.51, -3531.42, -156.22, 9556.22, -51321.77, -21568.96, 31753.49, 6978.68, 7044.91, 0.00, 0.00, 0.00, 0.00, 0.00, 0.00, 0.00
236, 10036.56, 47146.85, 2022.45, 21129.51, -3531.42, -156.22, 9556.22, -51321.77, -21561.72, 31767.48, 6983.15, 7044.96, 0.00, 0.00, 0.00, 0.00, 0.00, 0.00, 0.00
237, 10042.84, 47164.57, 2027.75, 21138.92, -3520.35, -146.61, 9571.53, -51316.03, -21561.72, 31767.48, 6983.15, 7044.96, 0.00, 0.00, 0.00, 0.00, 0.00, 0.00, 0.00
238, 10042.84, 47164.57, 2027.75, 21138.92, -3520.35, -146.61, 9571.53, -51316.03, -21555.87, 31757.18, 6982.64, 7063.82, 0.00, 0.00, 0.00, 0.00, -0.06, 0.32, 0.96
239, 10027.62, 47147.11, 2021.31, 21129.84, -3523.39, -155.72, 9569.00, -51314.64, -21555.87, 31757.18, 6982.64, 7063.82, 0.00, 0.00, 0.00, 0.00, 0.00, 0.00, 0.00
240, 10027.62, 47147.11, 2021.31, 21129.84, -3523.39, -155.72, 9569.00, -51314.64, -21546.75, 31780.74, 6984.18, 7069.01, 0.00, 0.00, 0.00, 0.00, 0.00, 0.00, 0.00
241, 10017.25, 47156.99, 2019.95, 21135.52, -3516.67, -141.15, 9578.24, -51307.45, -21546.75, 31780.74, 6984.18, 7069.01, 0.00, 0.00, 0.00, 0.00, 0.00, 0.00, 0.00
242, 10017.25, 47156.99, 2019.95, 21135.52, -3516.67, -141.15, 9578.24, -51307.45, -21550.79, 31763.17, 6972.76, 7059.95, 0.00, 0.00, 0.00, 0.00, 0.00, 0.00, 0.00
243, 10015.19, 47119.11, 1992.17, 21111.45, -3541.50, -165.13, 9565.18, -51318.73, -21550.79, 31763.17, 6972.76, 7059.95, 0.00, 0.00, 0.00, 0.00, 0.00, 0.00, 0.00
244, 10015.19, 47119.11, 1992.17, 21111.45, -3541.50, -165.13, 9565.18, -51318.73, -21558.23, 31763.33, 6970.59, 7062.79, 0.00, 0.00, 0.00, 0.00, 0.00, 0.00, 0.00
245, 10000.80, 47122.41, 1992.12, 21117.10, -3538.04, -157.47, 9576.22, -51309.01, -21558.23, 31763.33, 6970.59, 7062.79, 0.00, 0.00, 0.00, 0.00, 0.00, 0.00, 0.00
246, 10000.80, 47122.41, 1992.12, 21117.10, -3538.04, -157.47, 9576.22, -51309.01, -21566.77, 31758.79, 6957.63, 7077.19, 0.00, 0.00, 0.00, 0.00, 0.00, 0.00, 0.00
247, 9995.16, 47116.61, 1979.49, 21099.85, -3552.61, -170.77, 9560.38, -51322.22, -21566.77, 31758.79, 6957.63, 7077.19, 0.00, 0.00, 0.00, 0.00, 0.00, 0.00, 0.00
248, 9995.16, 47116.61, 1979.49, 21099.85, -3552.61, -170.77, 9560.38, -51322.22, -21563.84, 31751.41, 6954.01, 7070.77, 0.00, 0.00, 0.00, 0.00, -0.06, 0.32, 0.95
249, 10013.40, 47129.99, 1988.46, 21118.55, -3542.06, -157.42, 9582.08, -51311.98, -21563.84, 31751.41, 6954.01, 7070.77, 0.00, 0.00, 0.00, 0.00, 0.00, 0.00, 0.00
250, 10013.40, 47129.99, 1988.46, 21118.55, -3542.06, -157.42, 9582.08, -51311.98, -21572.58, 31749.33, 6953.09, 7070.91, 0.00, 0.00, 0.00, 0.00, 0.00, 0.00, 0.00
251, 10005.94, 47117.48, 1983.78, 21100.61, -3553.35, -174.23, 9568.78, -51323.83, -21572.58, 31749.33, 6953.09, 7070.91, 0.00, 0.00, 0.00, 0.00, 0.00, 0.00, 0.00
252, 10005.94, 47117.48, 1983.78, 21100.61, -3553.35, -174.23, 9568.78, -51323.83, -21561.79, 31754.54, 6950.61, 7074.01, 0.00, 0.00, 0.00, 0.00, 0.00, 0.00, 0.00
253, 10019.21, 47132.38, 1995.12, 21120.43, -3543.96, -152.82, 9589.19, -51309.95, -21561.79, 31754.54, 6950.61, 7074.01, 0.00, 0.00, 0.00, 0.00, 0.00, 0.00, 0.00
254, 10019.21, 47132.38, 1995.12, 21120.43, -3543.96, -152.82, 9589.19, -51309.95, -21577.08, 31752.66, 6962.64, 7079.09, 0.00, 0.00, 0.00, 0.00, 0.00, 0.00, 0.00
255, 10010.76, 47115.84, 1991.81, 21108.18, -3546.80, -171.12, 9586.66, -51306.89, -21577.08, 31752.66, 6962.64, 7079.09, 0.00, 0.00, 0.00, 0.00, 0.00, 0.00, 0.00
0, 10010.76, 47115.84, 1991.81, 21108.18, -3546.80, -171.12, 9586.66, -51306.89, -21577.37, 31745.27, 6950.52, 7090.62, 0.00, 0.00, 0.00, 0.00, 0.00, 0.00, 0.00
1, 10019.06, 47135.31, 2004.04, 21127.23, -3536.40, -159.48, 9609.98, -51294.19, -21577.37, 31745.27, 6950.52, 7090.62, 0.00, 0.00, 0.00, 0.00, 0.00, 0.00, 0.00
2, 10019.06, 47135.31, 2004.04, 21127.23, -3536.40, -159.48, 9609.98, -51294.19, -21568.47, 31753.56, 6962.90, 7097.64, 0.00, 0.00, 0.00, 0.00, -0.06, 0.31, 0.96
3, 10012.53, 47125.01, 1995.90, 21116.74, -3546.37, -165.13, 9597.41, -51308.70, -21568.47, 31753.56, 6962.90, 7097.64, 0.00, 0.00, 0.00, 0.00, 0.00, 0.00, 0.00
4, 10012.53, 47125.01, 1995.90, 21116.74, -3546.37, -165.13, 9597.41, -51308.70, -21579.04, 31742.61, 6943.88, 7105.13, 0.00, 0.00, 0.00, 0.00, 0.00, 0.00, 0.00
5, 10030.37, 47135.09, 2005.67, 21135.56, -3530.03, -150.70, 9625.89, -51279.84, -21579.04, 31742.61, 6943.88, 7105.13, 0.00, 0.00, 0.00, 0.00, 0.00, 0.00, 0.00
6, 10030.37, 47135.09, 2005.67, 21135.56, -3530.03, -150.70, 9625.89, -51279.84, -21567.49, 31759.19, 6962.39, 7096.19, 0.00, 0.00, 0.00, 0.00, 0.00, 0.00, 0.00
7, 10005.67, 47113.96, 1997.93, 21128.90, -3539.11, -147.75, 9612.41, -51297.09, -21567.49, 31759.19, 6962.39, 7096.19, 0.00, 0.00, 0.00, 0.00, 0.00, 0.00, 0.00
8, 10005.67, 47113.96, 1997.93, 21128.90, -3539.11, -147.75, 9612.41, -51297.09, -21567.22, 31740.93, 6947.12, 7099.34, 0.00, 0.00, 0.00, 0.00, 0.00, 0.00, 0.00
9, 10009.07, 47129.52, 2004.68, 21139.03, -3524.24, -144.10, 9634.72, -51279.50, -21567.22, 31740.93, 6947.12, 7099.34, 0.00, 0.00, 0.00, 0.00, 0.00, 0.00, 0.00
10, 10009.07, 47129.52, 2004.68, 21139.03, -3524.24, -144.10, 9634.72, -51279.50, -21560.45, 31764.31, 6967.64, 7112.91, 0.00, 0.00, 0.00, 0.00, 0.00, 0.00, 0.00
11, 9999.52, 47110.23, 1990.29, 21123.87, -3537.01, -154.14, 9624.82, -51289.45, -21560.45, 31764.31, 6967.64, 7112.91, 0.00, 0.00, 0.00, 0.00, 0.00, 0.00, 0.00
12, 9999.52, 47110.23, 1990.29, 21123.87, -3537.01, -154.14, 9624.82, -51289.45, -21574.10, 31744.64, 6946.77, 7118.49, 0.00, 0.00, 0.00, 0.00, -0.06, 0.32, 0.96
13, 9995.05, 47107.82, 1984.79, 21123.38, -3532.07, -158.76, 9643.30, -51268.08, -21574.10, 31744.64, 6946.77, 7118.49, 0.00, 0.00, 0.00, 0.00, 0.00, 0.00, 0.00
14, 9995.05, 47107.82, 1984.79, 21123.38, -3532.07, -158.76, 9643.30, -51268.08, -21564.00, 31766.01, 6954.16, 7136.93, 0.00, 0.00, 0.00, 0.00, 0.00, 0.00, 0.00
15, 9986.58, 47102.75, 1979.74, 21115.16, -3538.66, -157.54, 9635.48, -51277.29, -21564.00, 31766.01, 6954.16, 7136.93, 0.00, 0.00, 0.00, 0.00, 0.00, 0.00, 0.00
16, 9986.58, 47102.75, 1979.74, 21115.16, -3538.66, -157.54, 9635.48, -51277.29, -21562.57, 31751.48, 6941.00, 7136.31, 0.00, 0.00, 0.00, 0.00, 0.00, 0.00, 0.00
17, 9975.23, 47105.59, 1977.21, 21114.51, -3541.34, -156.98, 9642.14, -51267.59, -21562.57, 31751.48, 6941.00, 7136.31, 0.00, 0.00, 0.00, 0.00, 0.00, 0.00, 0.00
18, 9975.23, 47105.59, 1977.21, 21114.51, -3541.34, -156.98, 9642.14, -51267.59, -21561.72, 31762.61, 6948.40, 7137.98, 0.00, 0.00, 0.00, 0.00, 0.00, 0.00, 0.00
19, 9990.45, 47105.47, 1969.50, 21106.17, -3541.83, -163.97, 9641.27, -51273.31, -21561.72, 31762.61, 6948.40, 7137.98, 0.00, 0.00, 0.00, 0.00, 0.00, 0.00, 0.00
20, 9990.45, 47105.47, 1969.50, 21106.17, -3541.83, -163.97, 9641.27, -51273.31, -21563.33, 31742.98, 6938.61, 7122.25, 0.00, 0.00, 0.00, 0.00, 0.00, 0.00, 0.00
21, 9986.85, 47101.56, 1969.01, 21100.49, -3551.20, -171.66, 9635.68, -51278.75, -21563.33, 31742.98, 6938.61, 7122.25, 0.00, 0.00, 0.00, 0.00, -0.06, 0.32, 0.97
22, 9986.85, 47101.56, 1969.01, 21100.49, -3551.20, -171.66, 9635.68, -51278.75, -21576.76, 31749.18, 6947.95, 7143.89, 0.00, 0.00, 0.00, 0.00, 0.00, 0.00, 0.00
23, 9993.42, 47107.13, 1979.72, 21112.00, -3543.29, -160.80, 9651.53, -51264.30, -21576.76, 31749.18, 6947.95, 7143.89, 0.00, 0.00, 0.00, 0.00, 0.00, 0.00, 0.00
24, 9993.42, 47107.13, 1979.72, 21112.00, -3543.29, -160.80, 9651.53, -51264.30, -21571.38, 31737.67, 6943.28, 7145.20, 0.00, 0.00, 0.00, 0.00, 0.00, 0.00, 0.00
25, 9989.44, 47107.04, 1976.72, 21102.71, -3547.62, -170.25, 9649.54, -51272.00, -21571.38, 31737.67, 6943.28, 7145.20, 0.00, 0.00, 0.00, 0.00, 0.00, 0.00, 0.00
26, 9989.44, 47107.04, 1976.72, 21102.71, -3547.62, -170.25, 9649.54, -51272.00, -21563.22, 31763.08, 6947.79, 7155.73, 0.00, 0.00, 0.00, 0.00, 0.00, 0.00, 0.00
27, 9994.00, 47109.65, 1977.03, 21107.96, -3543.67, -164.44, 9658.37, -51258.81, -21563.22, 31763.08, 6947.79, 7155.73, 0.00, 0.00, 0.00, 0.00, 0.00, 0.00, 0.00
28, 9994.00, 47109.65, 1977.03, 21107.96, -3543.67, -164.44, 9658.37, -51258.81, -21580.79, 31736.28, 6930.72, 7148.09, 0.00, 0.00, 0.00, 0.00, 0.00, 0.00, 0.00
29, 9985.93, 47109.61, 1968.97, 21095.51, -3555.02, -173.92, 9651.80, -51264.73, -21580.79, 31736.28, 6930.72, 7148.09, 0.00, 0.00, 0.00, 0.00, 0.00, 0.00, 0.00
30, 9985.93, 47109.61, 1968.97, 21095.51, -3555.02, -173.92, 9651.80, -51264.73, -21571.96, 31750.72, 6945.20, 7139.71, 0.00, 0.00, 0.00, 0.00, 0.00, 0.00, 0.00
31, 10000.26, 47116.49, 1981.48, 21117.95, -3539.09, -155.21, 9671.89, -51252.35, -21571.96, 31750.72, 6945.20, 7139.71, 0.00, 0.00, 0.00, 0.00, -0.06, 0.32, 0.97
32, 10000.26, 47116.49, 1981.48, 21117.95, -3539.09, -155.21, 9671.89, -51252.35, -21578.96, 31733.78, 6939.86, 7158.01, 0.00, 0.00, 0.00, 0.00, 0.00, 0.00, 0.00
33, 9992.08, 47100.13, 1977.50, 21100.47, -3548.61, -171.35, 9666.53, -51259.66, -21578.96, 31733.78, 6939.86, 7158.01, 0.00, 0.00, 0.00, 0.00, 0.00, 0.00, 0.00
34, 9992.08, 47100.13, 1977.50, 21100.47, -3548.61, -171.35, 9666.53, -51259.66, -21573.61, 31748.06, 6952.67, 7162.55, 0.00, 0.00, 0.00, 0.00, 0.00, 0.00, 0.00
35, 10013.51, 47126.77, 1989.24, 21121.35, -3529.18, -155.88, 9692.07, -51238.06, -21573.61, 31748.06, 6952.67, 7162.55, 0.00, 0.00, 0.00, 0.00, 0.00, 0.00, 0.00
36, 10013.51, 47126.77, 1989.24, 21121.35, -3529.18, -155.88, 9692.07, -51238.06, -21569.97, 31743.59, 6951.03, 7165.14, 0.00, 0.00, 0.00, 0.00, 0.00, 0.00, 0.00
37, 9995.68, 47108.67, 1983.11, 21103.40, -3542.64, -168.85, 9676.72, -51257.22, -21569.97, 31743.59, 6951.03, 7165.14, 0.00, 0.00, 0.00, 0.00, 0.00, 0.00, 0.00
38, 9995.68, 47108.67, 1983.11, 21103.40, -3542.64, -168.85, 9676.72, -51257.22, -21562.01, 31754.45, 6953.23, 7173.46, 0.00, 0.00, 0.00, 0.00, 0.00, 0.00, 0.00
39, 9998.25, 47134.20, 1994.42, 21123.00, -3524.56, -150.32, 9706.60, -51221.55, -21562.01, 31754.45, 6953.23, 7173.46, 0.00, 0.00, 0.00, 0.00, 0.00, 0.00, 0.00
40, 9998.25, 47134.20, 1994.42, 21123.00, -3524.56, -150.32, 9706.60, -51221.55, -21569.83, 31754.94, 6953.60, 7180.41, 0.00, 0.00, 0.00, 0.00, 0.00, 0.00, 0.00
41, 9992.55, 47111.33, 1971.85, 21097.34, -3544.09, -163.48, 9682.33, -51240.07, -21569.83, 31754.94, 6953.60, 7180.41, 0.00, 0.00, 0.00, 0.00, -0.06, 0.31, 0.96
42, 9992.55, 47111.33, 1971.85, 21097.34, -3544.09, -163.48, 9682.33, -51240.07, -21572.05, 31743.92, 6943.48, 7195.50, 0.00, 0.00, 0.00, 0.00, 0.00, 0.00, 0.00
43, 9997.98, 47118.88, 1980.07, 21108.81, -3533.50, -165.22, 9709.55, -51223.71, -21572.05, 31743.92, 6943.48, 7195.50, 0.00, 0.00, 0.00, 0.00, 0.00, 0.00, 0.00
44, 9997.98, 47118.88, 1980.07, 21108.81, -3533.50, -165.22, 9709.55, -51223.71, -21565.77, 31750.56, 6952.35, 7196.21, 0.00, 0.00, 0.00, 0.00, 0.00, 0.00, 0.00
45, 9984.64, 47102.79, 1975.09, 21098.55, -3542.73, -168.24, 9693.71, -51238.60, -21565.77, 31750.56, 6952.35, 7196.21, 0.00, 0.00, 0.00, 0.00, 0.00, 0.00, 0.00
46, 9984.64, 47102.79, 1975.09, 21098.55, -3542.73, -168.24, 9693.71, -51238.60, -21567.04, 31747.81, 6942.09, 7191.61, 0.00, 0.00, 0.00, 0.00, 0.00, 0.00, 0.00
47, 9996.28, 47120.85, 1979.05, 21112.41, -3533.88, -153.56, 9709.62, -51225.43, -21567.04, 31747.81, 6942.09, 7191.61, 0.00, 0.00, 0.00, 0.00, 0.00, 0.00, 0.00
48, 9996.28, 47120.85, 1979.05, 21112.41, -3533.88, -153.56, 9709.62, -51225.43, -21570.66, 31752.93, 6945.96, 7194.56, 0.00, 0.00, 0.00, 0.00, 0.00, 0.00, 0.00
49, 9975.38, 47097.96, 1963.44, 21091.26, -3549.70, -174.37, 9700.14, -51235.14, -21570.66, 31752.93, 6945.96, 7194.56, 0.00, 0.00, 0.00, 0.00, 0.00, 0.00, 0.00
50, 9975.38, 47097.96, 1963.44, 21091.26, -3549.70, -174.37, 9700.14, -51235.14, -21577.88, 31741.80, 6930.18, 7197.57, 0.00, 0.00, 0.00, 0.00, 0.00, 0.00, 0.00
51, 9989.71, 47100.33, 1965.99, 21101.07, -3543.09, -164.69, 9715.95, -51220.41, -21577.88, 31741.80, 6930.18, 7197.57, 0.00, 0.00, 0.00, 0.00, -0.06, 0.32, 0.96
52, 9989.71, 47100.33, 1965.99, 21101.07, -3543.09, -164.69, 9715.95, -51220.41, -21574.35, 31746.94, 6939.59, 7196.30, 0.00, 0.00, 0.00, 0.00, 0.00, 0.00, 0.00
53, 9981.44, 47102.59, 1964.63, 21090.77, -3546.19, -173.81, 9711.23, -51226.44, -21574.35, 31746.94, 6939.59, 7196.30, 0.00, 0.00, 0.00, 0.00, 0.00, 0.00, 0.00
54, 9981.44, 47102.59, 1964.63, 21090.77, -3546.19, -173.81, 9711.23, -51226.44, -21573.48, 31741.33, 6932.04, 7210.96, 0.00, 0.00, 0.00, 0.00, 0.00, 0.00, 0.00
55, 9981.55, 47105.38, 1967.22, 21104.63, -3538.91, -161.80, 9722.87, -51219.07, -21573.48, 31741.33, 6932.04, 7210.96, 0.00, 0.00, 0.00, 0.00, 0.00, 0.00, 0.00
56, 9981.55, 47105.38, 1967.22, 21104.63, -3538.91, -161.80, 9722.87, -51219.07, -21573.57, 31743.92, 6935.88, 7206.56, 0.00, 0.00, 0.00, 0.00, 0.00, 0.00, 0.00
57, 9975.43, 47084.06, 1960.81, 21096.25, -3551.96, -158.79, 9708.57, -51232.21, -21573.57, 31743.92, 6935.88, 7206.56, 0.00, 0.00, 0.00, 0.00, 0.00, 0.00, 0.00
58, 9975.43, 47084.06, 1960.81, 21096.25, -3551.96, -158.79, 9708.57, -51232.21, -21577.39, 31728.88, 6925.26, 7205.26, 0.00, 0.00, 0.00, 0.00, 0.00, 0.00, 0.00
59, 9988.70, 47100.76, 1967.67, 21105.32, -3539.51, -167.93, 9740.98, -51204.98, -21577.39, 31728.88, 6925.26, 7205.26, 0.00, 0.00, 0.00, 0.00, 0.00, 0.00, 0.00
60, 9988.70, 47100.76, 1967.67, 21105.32, -3539.51, -167.93, 9740.98, -51204.98, -21580.70, 31742.20, 6940.17, 7222.52, 0.00, 0.00, 0.00, 0.00, -0.07, 0.32, 0.96
61, 9973.37, 47091.61, 1962.48, 21092.74, -3546.13, -172.04, 9728.44, -51217.72, -21580.70, 31742.20, 6940.17, 7222.52, 0.00, 0.00, 0.00, 0.00, 0.00, 0.00, 0.00
62, 9973.37, 47091.61, 1962.48, 21092.74, -3546.13, -172.04, 9728.44, -51217.72, -21577.23, 31732.79, 6929.80, 7228.58, 0.00, 0.00, 0.00, 0.00, 0.00, 0.00, 0.00
63, 9994.60, 47104.58, 1972.97, 21110.15, -3532.51, -160.11, 9746.28, -51203.22, -21577.23, 31732.79, 6929.80, 7228.58, 0.00, 0.00, 0.00, 0.00, 0.00, 0.00, 0.00
64, 9994.60, 47104.58, 1972.97, 21110.15, -3532.51, -160.11, 9746.28, -51203.22, -21567.46, 31754.18, 6948.13, 7229.43, 0.00, 0.00, 0.00, 0.00, 0.00, 0.00, 0.00
65, 9981.42, 47110.61, 1971.74, 21101.14, -3534.44, -165.00, 9748.83, -51201.09, -21567.46, 31754.18, 6948.13, 7229.43, 0.00, 0.00, 0.00, 0.00, 0.00, 0.00, 0.00
66, 9981.42, 47110.61, 1971.74, 21101.14, -3534.44, -165.00, 9748.83, -51201.09, -21569.88, 31734.92, 6939.32, 7238.90, 0.00, 0.00, 0.00, 0.00, 0.00, 0.00, 0.00
67, 9974.51, 47099.53, 1966.53, 21103.09, -3536.20, -155.46, 9751.98, -51194.01, -21569.88, 31734.92, 6939.32, 7238.90, 0.00, 0.00, 0.00, 0.00, 0.00, 0.00, 0.00
68, 9974.51, 47099.53, 1966.53, 21103.09, -3536.20, -155.46, 9751.98, -51194.01, -21567.64, 31754.54, 6953.81, 7232.62, 0.00, 0.00, 0.00, 0.00, 0.00, 0.00, 0.00
69, 9979.14, 47103.39, 1978.71, 21111.18, -3524.49, -153.38, 9767.15, -51182.32, -21567.64, 31754.54, 6953.81, 7232.62, 0.00, 0.00, 0.00, 0.00, 0.00, 0.00, 0.00
70, 9979.14, 47103.39, 1978.71, 21111.18, -3524.49, -153.38, 9767.15, -51182.32, -21567.73, 31737.33, 6941.56, 7258.64, 0.00, 0.00, 0.00, 0.00, -0.06, 0.31, 0.96
71, 9987.68, 47095.30, 1968.43, 21100.29, -3532.74, -164.44, 9757.85, -51200.65, -21567.73, 31737.33, 6941.56, 7258.64, 0.00, 0.00, 0.00, 0.00, 0.00, 0.00, 0.00
72, 9987.68, 47095.30, 1968.43, 21100.29, -3532.74, -164.44, 9757.85, -51200.65, -21565.14, 31746.79, 6948.96, 7242.41, 0.00, 0.00, 0.00, 0.00, 0.00, 0.00, 0.00
73, 9986.40, 47111.84, 1973.28, 21108.21, -3527.80, -155.90, 9767.53, -51190.21, -21565.14, 31746.79, 6948.96, 7242.41, 0.00, 0.00, 0.00, 0.00, 0.00, 0.00, 0.00
74, 9986.40, 47111.84, 1973.28, 21108.21, -3527.80, -155.90, 9767.53, -51190.21, -21571.24, 31736.91, 6947.88, 7240.69, 0.00, 0.00, 0.00, 0.00, 0.00, 0.00, 0.00
75, 9980.88, 47104.89, 1975.96, 21107.58, -3529.88, -160.24, 9773.19, -51177.96, -21571.24, 31736.91, 6947.88, 7240.69, 0.00, 0.00, 0.00, 0.00, 0.00, 0.00, 0.00
76, 9980.88, 47104.89, 1975.96, 21107.58, -3529.88, -160.24, 9773.19, -51177.96, -21570.21, 31753.67, 6958.95, 7279.40, 0.00, 0.00, 0.00, 0.00, 0.00, 0.00, 0.00
77, 9986.38, 47120.96, 1984.52, 21113.86, -3522.79, -151.10, 9788.19, -51167.88, -21570.21, 31753.67, 6958.95, 7279.40, 0.00, 0.00, 0.00, 0.00, 0.00, 0.00, 0.00
78, 9986.38, 47120.96, 1984.52, 21113.86, -3522.79, -151.10, 9788.19, -51167.88, -21565.57, 31729.17, 6945.67, 7261.97, 0.00, 0.00, 0.00, 0.00, 0.00, 0.00, 0.00
79, 9985.11, 47103.13, 1972.23, 21099.00, -3533.48, -164.31, 9771.38, -51195.98, -21565.57, 31729.17, 6945.67, 7261.97, 0.00, 0.00, 0.00, 0.00, 0.00, 0.00, 0.00
80, 9985.11, 47103.13, 1972.23, 21099.00, -3533.48, -164.31, 9771.38, -51195.98, -21568.47, 31746.96, 6957.45, 7260.14, 0.00, 0.00, 0.00, 0.00, -0.06, 0.31, 0.96
81, 9999.03, 47120.56, 1985.91, 21123.20, -3519.44, -143.63, 9799.29, -51159.36, -21568.47, 31746.96, 6957.45, 7260.14, 0.00, 0.00, 0.00, 0.00, 0.00, 0.00, 0.00
82, 9999.03, 47120.56, 1985.91, 21123.20, -3519.44, -143.63, 9799.29, -51159.36, -21567.44, 31739.86, 6953.81, 7265.77, 0.00, 0.00, 0.00, 0.00, 0.00, 0.00, 0.00
83, 9987.05, 47098.70, 1977.75, 21104.61, -3529.09, -156.02, 9788.79, -51176.24, -21567.44, 31739.86, 6953.81, 7265.77, 0.00, 0.00, 0.00, 0.00, 0.00, 0.00, 0.00
84, 9987.05, 47098.70, 1977.75, 21104.61, -3529.09, -156.02, 9788.79, -51176.24, -21572.25, 31749.13, 6956.20, 7282.15, 0.00, 0.00, 0.00, 0.00, 0.00, 0.00, 0.00
85, 10001.85, 47124.94, 1995.00, 21127.49, -3512.51, -141.33, 9813.02, -51152.43, -21572.25, 31749.13, 6956.20, 7282.15, 0.00, 0.00, 0.00, 0.00, 0.00, 0.00, 0.00
86, 10001.85, 47124.94, 1995.00, 21127.49, -3512.51, -141.33, 9813.02, -51152.43, -21565.95, 31745.00, 6957.52, 7294.49, 0.00, 0.00, 0.00, 0.00, 0.00, 0.00, 0.00
87, 9987.09, 47106.32, 1980.68, 21105.61, -3528.29, -157.42, 9798.74, -51168.50, -21565.95, 31745.00, 6957.52, 7294.49, 0.00, 0.00, 0.00, 0.00, 0.00, 0.00, 0.00
88, 9987.09, 47106.32, 1980.68, 21105.61, -3528.29, -157.42, 9798.74, -51168.50, -21560.69, 31747.68, 6959.53, 7272.48, 0.00, 0.00, 0.00, 0.00, 0.00, 0.00, 0.00
89, 10000.24, 47133.75, 1989.31, 21125.50, -3510.07, -138.54, 9821.45, -51153.48, -21560.69, 31747.68, 6959.53, 7272.48, 0.00, 0.00, 0.00, 0.00, 0.00, 0.00, 0.00
90, 10000.24, 47133.75, 1989.31, 21125.50, -3510.07, -138.54, 9821.45, -51153.48, -21559.38, 31747.72, 6954.92, 7301.58, 0.00, 0.00, 0.00, 0.00, -0.06, 0.31, 0.96
91, 9986.85, 47104.45, 1978.78, 21104.23, -3529.32, -160.04, 9808.01, -51161.49, -21559.38, 31747.72, 6954.92, 7301.58, 0.00, 0.00, 0.00, 0.00, 0.00, 0.00, 0.00
92, 9986.85, 47104.45, 1978.78, 21104.23, -3529.32, -160.04, 9808.01, -51161.49, -21586.11, 31741.13, 6955.95, 7299.05, 0.00, 0.00, 0.00, 0.00, 0.00, 0.00, 0.00
93, 10002.96, 47117.77, 1988.99, 21128.25, -3514.12, -141.75, 9836.24, -51132.61, -21586.11, 31741.13, 6955.95, 7299.05, 0.00, 0.00, 0.00, 0.00, 0.00, 0.00, 0.00
94, 10002.96, 47117.77, 1988.99, 21128.25, -3514.12, -141.75, 9836.24, -51132.61, -21570.37, 31746.27, 6962.21, 7299.21, 0.00, 0.00, 0.00, 0.00, 0.00, 0.00, 0.00
95, 9993.78, 47110.86, 1987.25, 21111.87, -3522.08, -152.62, 9822.83, -51151.07, -21570.37, 31746.27, 6962.21, 7299.21, 0.00, 0.00, 0.00, 0.00, 0.00, 0.00, 0.00
96, 9993.78, 47110.86, 1987.25, 21111.87, -3522.08, -152.62, 9822.83, -51151.07, -21560.38, 31747.10, 6958.39, 7306.32, 0.00, 0.00, 0.00, 0.00, 0.00, 0.00, 0.00
97, 10001.27, 47130.39, 1993.64, 21126.00, -3506.36, -139.41, 9841.45, -51134.33, -21560.38, 31747.10, 6958.39, 7306.32, 0.00, 0.00, 0.00, 0.00, 0.00, 0.00, 0.00
98, 10001.27, 47130.39, 1993.64, 21126.00, -3506.36, -139.41, 9841.45, -51134.33, -21562.84, 31750.79, 6963.42, 7297.73, 0.00, 0.00, 0.00, 0.00, 0.00, 0.00, 0.00
99, 9992.01, 47115.31, 1987.87, 21111.20, -3519.37, -151.16, 9826.77, -51153.84, -21562.84, 31750.79, 6963.42, 7297.73, 0.00, 0.00, 0.00, 0.00, -0.06, 0.31, 0.95
100, 9992.01, 47115.31, 1987.87, 21111.20, -3519.37, -151.16, 9826.77, -51153.84, -21560.85, 31739.41, 6953.96, 7301.67, 0.00, 0.00, 0.00, 0.00, 0.00, 0.00, 0.00
101, 10006.38, 47136.00, 1989.44, 21126.96, -3508.62, -138.89, 9850.21, -51129.82, -21560.85, 31739.41, 6953.96, 7301.67, 0.00, 0.00, 0.00, 0.00, 0.00, 0.00, 0.00
102, 10006.38, 47136.00, 1989.44, 21126.96, -3508.62, -138.89, 9850.21, -51129.82, -21560.47, 31757.89, 6962.99, 7334.72, 0.00, 0.00, 0.00, 0.00, 0.00, 0.00, 0.00
103, 9989.75, 47106.30, 1979.34, 21107.04, -3519.84, -149.91, 9840.29, -51136.52, -21560.47, 31757.89, 6962.99, 7334.72, 0.00, 0.00, 0.00, 0.00, 0.00, 0.00, 0.00
104, 9989.75, 47106.30, 1979.34, 21107.04, -3519.84, -149.91, 9840.29, -51136.52, -21562.44, 31737.38, 6947.55, 7319.88, 0.00, 0.00, 0.00, 0.00, 0.00, 0.00, 0.00
105, 9999.32, 47116.74, 1985.39, 21121.59, -3510.16, -141.67, 9853.16, -51131.31, -21562.44, 31737.38, 6947.55, 7319.88, 0.00, 0.00, 0.00, 0.00, 0.00, 0.00, 0.00
106, 9999.32, 47116.74, 1985.39, 21121.59, -3510.16, -141.67, 9853.16, -51131.31, -21552.89, 31757.34, 6965.92, 7326.07, 0.00, 0.00, 0.00, 0.00, 0.00, 0.00, 0.00
107, 9989.98, 47110.28, 1983.99, 21111.36, -3515.08, -148.28, 9848.09, -51133.91, -21552.89, 31757.34, 6965.92, 7326.07, 0.00, 0.00, 0.00, 0.00, 0.00, 0.00, 0.00
108, 9989.98, 47110.28, 1983.99, 21111.36, -3515.08, -148.28, 9848.09, -51133.91, -21558.14, 31742.40, 6950.27, 7335.37, 0.00, 0.00, 0.00, 0.00, 0.00, 0.00, 0.00
109, 9990.29, 47116.38, 1984.81, 21117.97, -3512.49, -144.82, 9858.35, -51124.23, -21558.14, 31742.40, 6950.27, 7335.37, 0.00, 0.00, 0.00, 0.00, -0.06, 0.31, 0.95
110, 9990.29, 47116.38, 1984.81, 21117.97, -3512.49, -144.82, 9858.35, -51124.23, -21566.35, 31751.88, 6953.18, 7331.71, 0.00, 0.00, 0.00, 0.00, 0.00, 0.00, 0.00
111, 9988.26, 47112.27, 1977.03, 21112.16, -3520.49, -143.30, 9852.94, -51134.91, -21566.35, 31751.88, 6953.18, 7331.71, 0.00, 0.00, 0.00, 0.00, 0.00, 0.00, 0.00
112, 9988.26, 47112.27, 1977.03, 21112.16, -3520.49, -143.30, 9852.94, -51134.91, -21564.98, 31732.32, 6943.70, 7330.10, 0.00, 0.00, 0.00, 0.00, 0.00, 0.00, 0.00
113, 9984.77, 47108.07, 1981.71, 21114.11, -3514.03, -147.54, 9861.21, -51127.78, -21564.98, 31732.32, 6943.70, 7330.10, 0.00, 0.00, 0.00, 0.00, 0.00, 0.00, 0.00
114, 9984.77, 47108.07, 1981.71, 21114.11, -3514.03, -147.54, 9861.21, -51127.78, -21564.76, 31752.69, 6960.94, 7334.39, 0.00, 0.00, 0.00, 0.00, 0.00, 0.00, 0.00
115, 9993.24, 47111.39, 1983.76, 21112.27, -3511.97, -149.80, 9871.67, -51113.59, -21564.76, 31752.69, 6960.94, 7334.39, 0.00, 0.00, 0.00, 0.00, 0.00, 0.00, 0.00
116, 9993.24, 47111.39, 1983.76, 21112.27, -3511.97, -149.80, 9871.67, -51113.59, -21560.60, 31738.38, 6953.47, 7350.30, 0.00, 0.00, 0.00, 0.00, 0.00, 0.00, 0.00
117, 9995.39, 47114.79, 1984.86, 21112.38, -3510.68, -147.14, 9875.78, -51111.60, -21560.60, 31738.38, 6953.47, 7350.30, 0.00, 0.00, 0.00, 0.00, 0.00, 0.00, 0.00
118, 9995.39, 47114.79, 1984.86, 21112.38, -3510.68, -147.14, 9875.78, -51111.60, -21565.90, 31748.42, 6955.46, 7340.96, 0.00, 0.00, 0.00, 0.00, 0.00, 0.00, 0.00
119, 9990.71, 47113.39, 1981.44, 21112.34, -3513.49, -145.04, 9874.91, -51117.52, -21565.90, 31748.42, 6955.46, 7340.96, 0.00, 0.00, 0.00, 0.00, -0.06, 0.32, 0.95
120, 9990.71, 47113.39, 1981.44, 21112.34, -3513.49, -145.04, 9874.91, -51117.52, -21561.74, 31730.24, 6946.92, 7343.82, 0.00, 0.00, 0.00, 0.00, 0.00, 0.00, 0.00
121, 9980.95, 47105.99, 1977.44, 21110.95, -3519.17, -143.86, 9873.10, -51122.53, -21561.74, 31730.24, 6946.92, 7343.82, 0.00, 0.00, 0.00, 0.00, 0.00, 0.00, 0.00
122, 9980.95, 47105.99, 1977.44, 21110.95, -3519.17, -143.86, 9873.10, -51122.53, -21569.25, 31744.62, 6959.73, 7353.10, 0.00, 0.00, 0.00, 0.00, 0.00, 0.00, 0.00
123, 9991.65, 47126.19, 1988.41, 21119.74, -3504.35, -141.71, 9895.74, -51091.62, -21569.25, 31744.62, 6959.73, 7353.10, 0.00, 0.00, 0.00, 0.00, 0.00, 0.00, 0.00
124, 9991.65, 47126.19, 1988.41, 21119.74, -3504.35, -141.71, 9895.74, -51091.62, -21560.54, 31741.00, 6956.60, 7367.94, 0.00, 0.00, 0.00, 0.00, 0.00, 0.00, 0.00
125, 9988.97, 47105.00, 1980.03, 21110.78, -3515.75, -143.70, 9883.94, -51109.79, -21560.54, 31741.00, 6956.60, 7367.94, 0.00, 0.00, 0.00, 0.00, 0.00, 0.00, 0.00
126, 9988.97, 47105.00, 1980.03, 21110.78, -3515.75, -143.70, 9883.94, -51109.79, -21563.17, 31751.72, 6958.08, 7363.29, 0.00, 0.00, 0.00, 0.00, 0.00, 0.00, 0.00
127, 9995.16, 47116.13, 1992.52, 21122.13, -3508.20, -139.32, 9898.63, -51095.19, -21563.17, 31751.72, 6958.08, 7363.29, 0.00, 0.00, 0.00, 0.00, 0.00, 0.00, 0.00
128, 9995.16, 47116.13, 1992.52, 21122.13, -3508.20, -139.32, 9898.63, -51095.19, -21567.53, 31741.00, 6954.14, 7372.48, 0.00, 0.00, 0.00, 0.00, 0.00, 0.00, 0.00
129, 9990.09, 47111.15, 1982.22, 21109.46, -3514.32, -156.10, 9895.59, -51101.09, -21567.53, 31741.00, 6954.14, 7372.48, 0.00, 0.00, 0.00, 0.00, -0.06, 0.32, 0.95
130, 9990.09, 47111.15, 1982.22, 21109.46, -3514.32, -156.10, 9895.59, -51101.09, -21561.88, 31744.59, 6958.41, 7356.74, 0.00, 0.00, 0.00, 0.00, 0.00, 0.00, 0.00
131, 9993.67, 47120.58, 1990.04, 21124.74, -3503.93, -137.78, 9905.00, -51096.64, -21561.88, 31744.59, 6958.41, 7356.74, 0.00, 0.00, 0.00, 0.00, 0.00, 0.00, 0.00
132, 9993.67, 47120.58, 1990.04, 21124.74, -3503.93, -137.78, 9905.00, -51096.64, -21571.56, 31731.88, 6949.74, 7373.59, 0.00, 0.00, 0.00, 0.00, 0.00, 0.00, 0.00
133, 9985.66, 47106.30, 1976.86, 21113.59, -3517.87, -143.57, 9895.27, -51105.86, -21571.56, 31731.88, 6949.74, 7373.59, 0.00, 0.00, 0.00, 0.00, 0.00, 0.00, 0.00
134, 9985.66, 47106.30, 1976.86, 21113.59, -3517.87, -143.57, 9895.27, -51105.86, -21575.49, 31737.11, 6952.96, 7379.25, 0.00, 0.00, 0.00, 0.00, 0.00, 0.00, 0.00
135, 9999.41, 47113.90, 1990.91, 21130.58, -3503.48, -136.01, 9919.88, -51080.48, -21575.49, 31737.11, 6952.96, 7379.25, 0.00, 0.00, 0.00, 0.00, 0.00, 0.00, 0.00
136, 9999.41, 47113.90, 1990.91, 21130.58, -3503.48, -136.01, 9919.88, -51080.48, -21562.46, 31743.05, 6962.72, 7391.01, 0.00, 0.00, 0.00, 0.00, 0.00, 0.00, 0.00
137, 9994.67, 47115.31, 1989.73, 21117.73, -3511.53, -144.17, 9912.73, -51090.83, -21562.46, 31743.05, 6962.72, 7391.01, 0.00, 0.00, 0.00, 0.00, 0.00, 0.00, 0.00
138, 9994.67, 47115.31, 1989.73, 21117.73, -3511.53, -144.17, 9912.73, -51090.83, -21571.33, 31737.24, 6956.67, 7380.77, 0.00, 0.00, 0.00, 0.00, -0.06, 0.32, 0.96
139, 10000.10, 47128.92, 1994.58, 21131.07, -3498.47, -131.36, 9929.02, -51077.87, -21571.33, 31737.24, 6956.67, 7380.77, 0.00, 0.00, 0.00, 0.00, 0.00, 0.00, 0.00
140, 10000.10, 47128.92, 1994.58, 21131.07, -3498.47, -131.36, 9929.02, -51077.87, -21561.32, 31738.87, 6961.32, 7397.62, 0.00, 0.00, 0.00, 0.00, 0.00, 0.00, 0.00
141, 9986.80, 47114.59, 1982.62, 21110.71, -3511.44, -146.49, 9907.61, -51099.64, -21561.32, 31738.87, 6961.32, 7397.62, 0.00, 0.00, 0.00, 0.00, 0.00, 0.00, 0.00
142, 9986.80, 47114.59, 1982.62, 21110.71, -3511.44, -146.49, 9907.61, -51099.64, -21556.76, 31748.15, 6955.17, 7387.39, 0.00, 0.00, 0.00, 0.00, 0.00, 0.00, 0.00
143, 9990.40, 47127.98, 1988.84, 21129.84, -3505.69, -135.72, 9934.81, -51072.21, -21556.76, 31748.15, 6955.17, 7387.39, 0.00, 0.00, 0.00, 0.00, 0.00, 0.00, 0.00
144, 9990.40, 47127.98, 1988.84, 21129.84, -3505.69, -135.72, 9934.81, -51072.21, -21573.05, 31746.29, 6958.92, 7409.87, 0.00, 0.00, 0.00, 0.00, 0.00, 0.00, 0.00
145, 9983.96, 47107.46, 1977.95, 21108.88, -3515.71, -150.02, 9924.55, -51077.55, -21573.05, 31746.29, 6958.92, 7409.87, 0.00, 0.00, 0.00, 0.00, 0.00, 0.00, 0.00
146, 9983.96, 47107.46, 1977.95, 21108.88, -3515.71, -150.02, 9924.55, -51077.55, -21572.43, 31731.23, 6948.98, 7398.45, 0.00, 0.00, 0.00, 0.00, 0.00, 0.00, 0.00
147, 9997.44, 47119.58, 1986.96, 21125.75, -3501.76, -134.31, 9943.78, -51064.64, -21572.43, 31731.23, 6948.98, 7398.45, 0.00, 0.00, 0.00, 0.00, 0.00, 0.00, 0.00
148, 9997.44, 47119.58, 1986.96, 21125.75, -3501.76, -134.31, 9943.78, -51064.64, -21556.92, 31749.38, 6967.15, 7403.14, 0.00, 0.00, 0.00, 0.00, -0.06, 0.32, 0.96
149, 9992.88, 47107.15, 1983.54, 21116.92, -3509.16, -132.03, 9928.55, -51082.34, -21556.92, 31749.38, 6967.15, 7403.14, 0.00, 0.00, 0.00, 0.00, 0.00, 0.00, 0.00
150, 9992.88, 47107.15, 1983.54, 21116.92, -3509.16, -132.03, 9928.55, -51082.34, -21561.07, 31729.51, 6945.83, 7411.41, 0.00, 0.00, 0.00, 0.00, 0.00, 0.00, 0.00
151, 9988.55, 47112.29, 1987.49, 21121.01, -3506.41, -141.60, 9944.89, -51072.37, -21561.07, 31729.51, 6945.83, 7411.41, 0.00, 0.00, 0.00, 0.00, 0.00, 0.00, 0.00
152, 9988.55, 47112.29, 1987.49, 21121.01, -3506.41, -141.60, 9944.89, -51072.37, -21567.11, 31748.01, 6959.17, 7414.19, 0.00, 0.00, 0.00, 0.00, 0.00, 0.00, 0.00
153, 9990.80, 47120.70, 1988.14, 21118.42, -3506.30, -144.39, 9946.30, -51062.25, -21567.11, 31748.01, 6959.17, 7414.19, 0.00, 0.00, 0.00, 0.00, 0.00, 0.00, 0.00
154, 9990.80, 47120.70, 1988.14, 21118.42, -3506.30, -144.39, 9946.30, -51062.25, -21555.06, 31739.05, 6955.95, 7426.21, 0.00, 0.00, 0.00, 0.00, 0.00, 0.00, 0.00
155, 9995.36, 47121.68, 1990.49, 21127.87, -3500.31, -128.86, 9958.06, -51052.52, -21555.06, 31739.05, 6955.95, 7426.21, 0.00, 0.00, 0.00, 0.00, 0.00, 0.00, 0.00
156, 9995.36, 47121.68, 1990.49, 21127.87, -3500.31, -128.86, 9958.06, -51052.52, -21564.11, 31743.54, 6958.50, 7415.08, 0.00, 0.00, 0.00, 0.00, 0.00, 0.00, 0.00
157, 9984.79, 47113.25, 1983.90, 21115.85, -3511.84, -141.62, 9949.83, -51062.40, -21564.11, 31743.54, 6958.50, 7415.08, 0.00, 0.00, 0.00, 0.00, 0.00, 0.00, 0.00
158, 9984.79, 47113.25, 1983.90, 21115.85, -3511.84, -141.62, 9949.83, -51062.40, -21563.98, 31731.92, 6954.75, 7428.47, 0.00, 0.00, 0.00, 0.00, -0.06, 0.32, 0.96
159, 9994.22, 47117.01, 1988.19, 21123.65, -3501.20, -134.36, 9966.98, -51047.05, -21563.98, 31731.92, 6954.75, 7428.47, 0.00, 0.00, 0.00, 0.00, 0.00, 0.00, 0.00
160, 9994.22, 47117.01, 1988.19, 21123.65, -3501.20, -134.36, 9966.98, -51047.05, -21557.45, 31760.44, 6968.07, 7432.63, 0.00, 0.00, 0.00, 0.00, 0.00, 0.00, 0.00
161, 9998.90, 47113.52, 1988.10, 21120.61, -3503.05, -135.65, 9964.94, -51051.09, -21557.45, 31760.44, 6968.07, 7432.63, 0.00, 0.00, 0.00, 0.00, 0.00, 0.00, 0.00
162, 9998.90, 47113.52, 1988.10, 21120.61, -3503.05, -135.65, 9964.94, -51051.09, -21561.95, 31731.12, 6952.89, 7436.07, 0.00, 0.00, 0.00, 0.00, 0.00, 0.00, 0.00
163, 9988.93, 47116.09, 1991.52, 21129.21, -3501.51, -131.56, 9975.76, -51040.96, -21561.95, 31731.12, 6952.89, 7436.07, 0.00, 0.00, 0.00, 0.00, 0.00, 0.00, 0.00
164, 9988.93, 47116.09, 1991.52, 21129.21, -3501.51, -131.56, 9975.76, -51040.96, -21561.43, 31746.23, 6967.04, 7447.49, 0.00, 0.00, 0.00, 0.00, 0.00, 0.00, 0.00
165, 9995.90, 47132.03, 1992.39, 21127.36, -3500.19, -128.43, 9974.80, -51042.96, -21561.43, 31746.23, 6967.04, 7447.49, 0.00, 0.00, 0.00, 0.00, 0.00, 0.00, 0.00
166, 9995.90, 47132.03, 1992.39, 21127.36, -3500.19, -128.43, 9974.80, -51042.96, -21555.28, 31738.20, 6954.03, 7427.13, 0.00, 0.00, 0.00, 0.00, 0.00, 0.00, 0.00
167, 9988.01, 47103.42, 1979.36, 21117.26, -3508.04, -142.51, 9974.53, -51046.69, -21555.28, 31738.20, 6954.03, 7427.13, 0.00, 0.00, 0.00, 0.00, 0.00, 0.00, 0.00
168, 9988.01, 47103.42, 1979.36, 21117.26, -3508.04, -142.51, 9974.53, -51046.69, -21556.69, 31746.70, 6953.36, 7450.44, 0.00, 0.00, 0.00, 0.00, -0.07, 0.31, 0.96
169, 9985.17, 47111.17, 1983.90, 21123.25, -3500.44, -137.13, 9981.31, -51046.82, -21556.69, 31746.70, 6953.36, 7450.44, 0.00, 0.00, 0.00, 0.00, 0.00, 0.00, 0.00
170, 9985.17, 47111.17, 1983.90, 21123.25, -3500.44, -137.13, 9981.31, -51046.82, -21559.87, 31728.12, 6947.28, 7450.69, 0.00, 0.00, 0.00, 0.00, 0.00, 0.00, 0.00
171, 9984.84, 47103.80, 1979.27, 21117.66, -3512.87, -134.31, 9974.80, -51047.29, -21559.87, 31728.12, 6947.28, 7450.69, 0.00, 0.00, 0.00, 0.00, 0.00, 0.00, 0.00
172, 9984.84, 47103.80, 1979.27, 21117.66, -3512.87, -134.31, 9974.80, -51047.29, -21564.87, 31745.64, 6955.93, 7450.51, 0.00, 0.00, 0.00, 0.00, 0.00, 0.00, 0.00
173, 9993.69, 47118.53, 1984.32, 21123.29, -3504.69, -132.84, 9994.94, -51027.11, -21564.87, 31745.64, 6955.93, 7450.51, 0.00, 0.00, 0.00, 0.00, 0.00, 0.00, 0.00
174, 9993.69, 47118.53, 1984.32, 21123.29, -3504.69, -132.84, 9994.94, -51027.11, -21560.13, 31740.57, 6953.87, 7470.15, 0.00, 0.00, 0.00, 0.00, 0.00, 0.00, 0.00
175, 9985.64, 47119.09, 1985.26, 21116.41, -3509.74, -139.61, 9989.46, -51036.03, -21560.13, 31740.57, 6953.87, 7470.15, 0.00, 0.00, 0.00, 0.00, 0.00, 0.00, 0.00
176, 9985.64, 47119.09, 1985.26, 21116.41, -3509.74, -139.61, 9989.46, -51036.03, -21559.89, 31746.29, 6964.83, 7463.67, 0.00, 0.00, 0.00, 0.00, 0.00, 0.00, 0.00
177, 9995.28, 47123.60, 1990.22, 21129.01, -3504.95, -116.50, 9998.18, -51026.01, -21559.89, 31746.29, 6964.83, 7463.67, 0.00, 0.00, 0.00, 0.00, -0.06, 0.32, 0.96
178, 9995.28, 47123.60, 1990.22, 21129.01, -3504.95, -116.50, 9998.18, -51026.01, -21559.20, 31730.56, 6957.92, 7466.62, 0.00, 0.00, 0.00, 0.00, 0.00, 0.00, 0.00
179, 9990.29, 47117.88, 1986.13, 21114.33, -3509.25, -148.84, 9994.43, -51033.25, -21559.20, 31730.56, 6957.92, 7466.62, 0.00, 0.00, 0.00, 0.00, 0.00, 0.00, 0.00
180, 9990.29, 47117.88, 1986.13, 21114.33, -3509.25, -148.84, 9994.43, -51033.25, -21557.05, 31750.21, 6968.04, 7475.47, 0.00, 0.00, 0.00, 0.00, 0.00, 0.00, 0.00
181, 10006.03, 47130.53, 1995.45, 21131.07, -3497.96, -128.88, 10013.87, -51013.12, -21557.05, 31750.21, 6968.04, 7475.47, 0.00, 0.00, 0.00, 0.00, 0.00, 0.00, 0.00
182, 10006.03, 47130.53, 1995.45, 21131.07, -3497.96, -128.88, 10013.87, -51013.12, -21563.00, 31736.06, 6957.92, 7465.55, 0.00, 0.00, 0.00, 0.00, 0.00, 0.00, 0.00
183, 9992.37, 47112.49, 1983.36, 21109.66, -3515.82, -143.65, 9994.11, -51035.22, -21563.00, 31736.06, 6957.92, 7465.55, 0.00, 0.00, 0.00, 0.00, 0.00, 0.00, 0.00
184, 9992.37, 47112.49, 1983.36, 21109.66, -3515.82, -143.65, 9994.11, -51035.22, -21562.04, 31730.92, 6956.00, 7469.57, 0.00, 0.00, 0.00, 0.00, 0.00, 0.00, 0.00
185, 10006.94, 47137.52, 1997.28, 21134.15, -3498.32, -125.46, 10025.79, -51010.05, -21562.04, 31730.92, 6956.00, 7469.57, 0.00, 0.00, 0.00, 0.00, 0.00, 0.00, 0.00
186, 10006.94, 47137.52, 1997.28, 21134.15, -3498.32, -125.46, 10025.79, -51010.05, -21559.53, 31741.78, 6968.13, 7483.25, 0.00, 0.00, 0.00, 0.00, 0.00, 0.00, 0.00
187, 9988.95, 47116.22, 1988.70, 21117.57, -3514.95, -136.44, 10007.01, -51021.52, -21559.53, 31741.78, 6968.13, 7483.25, 0.00, 0.00, 0.00, 0.00, -0.06, 0.32, 0.95
188, 9988.95, 47116.22, 1988.70, 21117.57, -3514.95, -136.44, 10007.01, -51021.52, -21559.53, 31738.58, 6953.16, 7488.77, 0.00, 0.00, 0.00, 0.00, 0.00, 0.00, 0.00
189, 10001.33, 47132.18, 1991.41, 21132.57, -3502.72, -128.30, 10028.51, -51010.23, -21559.53, 31738.58, 6953.16, 7488.77, 0.00, 0.00, 0.00, 0.00, 0.00, 0.00, 0.00
190, 10001.33, 47132.18, 1991.41, 21132.57, -3502.72, -128.30, 10028.51, -51010.23, -21567.98, 31733.84, 6951.71, 7481.31, 0.00, 0.00, 0.00, 0.00, 0.00, 0.00, 0.00
191, 9991.36, 47100.15, 1974.26, 21114.64, -3520.53, -133.84, 10008.06, -51021.48, -21567.98, 31733.84, 6951.71, 7481.31, 0.00, 0.00, 0.00, 0.00, 0.00, 0.00, 0.00
192, 9991.36, 47100.15, 1974.26, 21114.64, -3520.53, -133.84, 10008.06, -51021.48, -21564.85, 31732.88, 6941.33, 7486.54, 0.00, 0.00, 0.00, 0.00, 0.00, 0.00, 0.00
193, 9987.23, 47103.53, 1979.74, 21129.48, -3507.46, -124.32, 10032.51, -51004.62, -21564.85, 31732.88, 6941.33, 7486.54, 0.00, 0.00, 0.00, 0.00, 0.00, 0.00, 0.00
194, 9987.23, 47103.53, 1979.74, 21129.48, -3507.46, -124.32, 10032.51, -51004.62, -21565.41, 31738.47, 6943.14, 7489.33, 0.00, 0.00, 0.00, 0.00, 0.00, 0.00, 0.00
195, 9974.82, 47096.89, 1972.63, 21108.47, -3523.57, -143.63, 10017.49, -51024.20, -21565.41, 31738.47, 6943.14, 7489.33, 0.00, 0.00, 0.00, 0.00, 0.00, 0.00, 0.00
196, 9974.82, 47096.89, 1972.63, 21108.47, -3523.57, -143.63, 10017.49, -51024.20, -21569.25, 31730.42, 6936.64, 7508.11, 0.00, 0.00, 0.00, 0.00, 0.00, 0.00, 0.00
197, 9987.74, 47121.16, 1980.54, 21123.89, -3511.01, -130.89, 10036.98, -50998.77, -21569.25, 31730.42, 6936.64, 7508.11, 0.00, 0.00, 0.00, 0.00, -0.06, 0.31, 0.96
198, 9987.74, 47121.16, 1980.54, 21123.89, -3511.01, -130.89, 10036.98, -50998.77, -21558.75, 31742.98, 6949.94, 7510.19, 0.00, 0.00, 0.00, 0.00, 0.00, 0.00, 0.00
199, 9981.91, 47105.32, 1975.67, 21114.24, -3516.62, -132.84, 10028.91, -51010.79, -21558.75, 31742.98, 6949.94, 7510.19, 0.00, 0.00, 0.00, 0.00, 0.00, 0.00, 0.00
200, 9981.91, 47105.32, 1975.67, 21114.24, -3516.62, -132.84, 10028.91, -51010.79, -21557.41, 31728.28, 6941.00, 7502.94, 0.00, 0.00, 0.00, 0.00, 0.00, 0.00, 0.00
201, 9989.58, 47116.89, 1984.66, 21127.74, -3509.72, -123.47, 10045.39, -50995.28, -21557.41, 31728.28, 6941.00, 7502.94, 0.00, 0.00, 0.00, 0.00, 0.00, 0.00, 0.00
202, 9989.58, 47116.89, 1984.66, 21127.74, -3509.72, -123.47, 10045.39, -50995.28, -21556.69, 31746.27, 6955.04, 7504.08, 0.00, 0.00, 0.00, 0.00, 0.00, 0.00, 0.00
203, 9984.39, 47100.96, 1978.64, 21118.22, -3515.62, -133.82, 10037.92, -51007.04, -21556.69, 31746.27, 6955.04, 7504.08, 0.00, 0.00, 0.00, 0.00, 0.00, 0.00, 0.00
204, 9984.39, 47100.96, 1978.64, 21118.22, -3515.62, -133.82, 10037.92, -51007.04, -21555.75, 31727.12, 6951.59, 7505.51, 0.00, 0.00, 0.00, 0.00, 0.00, 0.00, 0.00
205, 9996.17, 47124.07, 1990.85, 21130.33, -3504.60, -127.94, 10055.65, -50988.44, -21555.75, 31727.12, 6951.59, 7505.51, 0.00, 0.00, 0.00, 0.00, 0.00, 0.00, 0.00
206, 9996.17, 47124.07, 1990.85, 21130.33, -3504.60, -127.94, 10055.65, -50988.44, -21565.77, 31740.97, 6957.52, 7509.14, 0.00, 0.00, 0.00, 0.00, 0.00, 0.00, 0.00
207, 9985.37, 47113.07, 1978.29, 21115.67, -3517.47, -136.57, 10048.49, -50991.01, -21565.77, 31740.97, 6957.52, 7509.14, 0.00, 0.00, 0.00, 0.00, -0.06, 0.32, 0.97
208, 9985.37, 47113.07, 1978.29, 21115.67, -3517.47, -136.57, 10048.49, -50991.01, -21563.38, 31728.32, 6946.45, 7538.08, 0.00, 0.00, 0.00, 0.00, 0.00, 0.00, 0.00
209, 9994.85, 47112.27, 1985.51, 21129.01, -3512.24, -117.30, 10057.12, -50985.87, -21563.38, 31728.32, 6946.45, 7538.08, 0.00, 0.00, 0.00, 0.00, 0.00, 0.00, 0.00
210, 9994.85, 47112.27, 1985.51, 21129.01, -3512.24, -117.30, 10057.12, -50985.87, -21555.44, 31749.04, 6960.51, 7530.08, 0.00, 0.00, 0.00, 0.00, 0.00, 0.00, 0.00
211, 9984.43, 47111.29, 1984.05, 21125.64, -3510.65, -127.90, 10058.28, -50989.07, -21555.44, 31749.04, 6960.51, 7530.08, 0.00, 0.00, 0.00, 0.00, 0.00, 0.00, 0.00
212, 9984.43, 47111.29, 1984.05, 21125.64, -3510.65, -127.90, 10058.28, -50989.07, -21556.60, 31730.20, 6942.85, 7542.15, 0.00, 0.00, 0.00, 0.00, 0.00, 0.00, 0.00
213, 9985.51, 47110.34, 1977.37, 21121.55, -3516.02, -130.47, 10058.67, -50986.23, -21556.60, 31730.20, 6942.85, 7542.15, 0.00, 0.00, 0.00, 0.00, 0.00, 0.00, 0.00
214, 9985.51, 47110.34, 1977.37, 21121.55, -3516.02, -130.47, 10058.67, -50986.23, -21559.35, 31749.04, 6944.19, 7530.32, 0.00, 0.00, 0.00, 0.00, 0.00, 0.00, 0.00
215, 9975.32, 47107.44, 1978.73, 21121.95, -3513.18, -131.63, 10069.33, -50975.03, -21559.35, 31749.04, 6944.19, 7530.32, 0.00, 0.00, 0.00, 0.00, 0.00, 0.00, 0.00
216, 9975.32, 47107.44, 1978.73, 21121.95, -3513.18, -131.63, 10069.33, -50975.03, -21567.53, 31725.86, 6931.43, 7544.43, 0.00, 0.00, 0.00, 0.00, -0.06, 0.31, 0.96
217, 9970.64, 47091.23, 1965.59, 21111.89, -3523.64, -136.14, 10062.22, -50985.00, -21567.53, 31725.86, 6931.43, 7544.43, 0.00, 0.00, 0.00, 0.00, 0.00, 0.00, 0.00
218, 9970.64, 47091.23, 1965.59, 21111.89, -3523.64, -136.14, 10062.22, -50985.00, -21562.88, 31742.18, 6941.62, 7543.45, 0.00, 0.00, 0.00, 0.00, 0.00, 0.00, 0.00
219, 9982.53, 47100.00, 1975.87, 21123.74, -3516.69, -126.11, 10072.79, -50976.13, -21562.88, 31742.18, 6941.62, 7543.45, 0.00, 0.00, 0.00, 0.00, 0.00, 0.00, 0.00
220, 9982.53, 47100.00, 1975.87, 21123.74, -3516.69, -126.11, 10072.79, -50976.13, -21563.26, 31728.61, 6935.23, 7555.34, 0.00, 0.00, 0.00, 0.00, 0.00, 0.00, 0.00
221, 9975.09, 47098.48, 1971.67, 21113.21, -3522.57, -132.59, 10066.29, -50981.94, -21563.26, 31728.61, 6935.23, 7555.34, 0.00, 0.00, 0.00, 0.00, 0.00, 0.00, 0.00
222, 9975.09, 47098.48, 1971.67, 21113.21, -3522.57, -132.59, 10066.29, -50981.94, -21561.74, 31734.98, 6941.51, 7529.36, 0.00, 0.00, 0.00, 0.00, 0.00, 0.00, 0.00
223, 9982.00, 47113.90, 1975.07, 21120.81, -3515.44, -127.70, 10080.10, -50966.69, -21561.74, 31734.98, 6941.51, 7529.36, 0.00, 0.00, 0.00, 0.00, 0.00, 0.00, 0.00
224, 9982.00, 47113.90, 1975.07, 21120.81, -3515.44, -127.70, 10080.10, -50966.69, -21560.80, 31731.83, 6937.98, 7551.42, 0.00, 0.00, 0.00, 0.00, 0.00, 0.00, 0.00
225, 9976.75, 47106.64, 1970.37, 21108.81, -3522.68, -139.79, 10074.65, -50972.91, -21560.80, 31731.83, 6937.98, 7551.42, 0.00, 0.00, 0.00, 0.00, 0.00, 0.00, 0.00
