%OpenBCI Raw EEG Data
%
%Sample Rate = 250.0 Hz
%First Column = SampleIndex
%Other Columns = EEG data in microvolts followed by Accel Data (in G) interleaved with Aux Data
0, 0.00, 0.00, 0.00, 0.00, 0.00, 0.00, 0.00, 0.00, -26937.65, 28741.10, -599.00, 10684.38, 0.00, 0.00, 0.00, 0.00, -0.01, 0.32, 0.96
1, 13458.88, 37801.71, -340.60, 15657.53, 340.57, -196.05, 8069.99, -36409.98, -26937.65, 28741.10, -599.00, 10684.38, 0.00, 0.00, 0.00, 0.00, 0.00, 0.00, 0.00
2, 13458.88, 37801.71, -340.60, 15657.53, 340.57, -196.05, 8069.99, -36409.98, -27619.56, 28793.74, -189.45, 12161.56, 0.00, 0.00, 0.00, 0.00, 0.00, 0.00, 0.00
3, 13467.73, 37799.77, -336.77, 15655.70, 339.30, -196.90, 8064.67, -36411.46, -27619.56, 28793.74, -189.45, 12161.56, 0.00, 0.00, 0.00, 0.00, 0.00, 0.00, 0.00
4, 13467.73, 37799.77, -336.77, 15655.70, 339.30, -196.90, 8064.67, -36411.46, -27619.31, 28757.28, -182.28, 12141.60, 0.00, 0.00, 0.00, 0.00, 0.00, 0.00, 0.00
5, 13465.18, 37795.77, -334.96, 15654.58, 337.53, -197.77, 8065.22, -36417.11, -27619.31, 28757.28, -182.28, 12141.60, 0.00, 0.00, 0.00, 0.00, 0.00, 0.00, 0.00
6, 13465.18, 37795.77, -334.96, 15654.58, 337.53, -197.77, 8065.22, -36417.11, -27632.14, 28788.71, -187.93, 12159.77, 0.00, 0.00, 0.00, 0.00, -0.02, 0.33, 0.97
7, 13467.04, 37798.77, -331.63, 15661.89, 339.72, -191.49, 8067.84, -36415.13, -27632.14, 28788.71, -187.93, 12159.77, 0.00, 0.00, 0.00, 0.00, 0.00, 0.00, 0.00
8, 13467.04, 37798.77, -331.63, 15661.89, 339.72, -191.49, 8067.84, -36415.13, -27627.81, 28758.76, -185.92, 12142.47, 0.00, 0.00, 0.00, 0.00, 0.00, 0.00, 0.00
9, 13465.96, 37792.02, -337.31, 15652.55, 331.59, -199.33, 8059.64, -36421.99, -27627.81, 28758.76, -185.92, 12142.47, 0.00, 0.00, 0.00, 0.00, 0.00, 0.00, 0.00
10, 13465.96, 37792.02, -337.31, 15652.55, 331.59, -199.33, 8059.64, -36421.99, -27636.03, 28783.44, -191.89, 12158.92, 0.00, 0.00, 0.00, 0.00, 0.00, 0.00, 0.00
11, 13479.73, 37831.20, -324.44, 15664.59, 341.04, -194.15, 8068.96, -36417.70, -27636.03, 28783.44, -191.89, 12158.92, 0.00, 0.00, 0.00, 0.00, 0.00, 0.00, 0.00
12, 13479.73, 37831.20, -324.44, 15664.59, 341.04, -194.15, 8068.96, -36417.70, -27633.26, 28754.71, -181.92, 12141.67, 0.00, 0.00, 0.00, 0.00, 0.00, 0.00, 0.00
13, 13468.31, 37788.71, -337.80, 15655.94, 330.76, -201.46, 8057.45, -36425.07, -27633.26, 28754.71, -181.92, 12141.67, 0.00, 0.00, 0.00, 0.00, 0.00, 0.00, 0.00
14, 13468.31, 37788.71, -337.80, 15655.94, 330.76, -201.46, 8057.45, -36425.07, -27637.17, 28779.79, -190.84, 12155.75, 0.00, 0.00, 0.00, 0.00, 0.00, 0.00, 0.00
15, 13479.55, 37798.09, -326.56, 15671.10, 345.63, -188.51, 8073.25, -36413.32, -27637.17, 28779.79, -190.84, 12155.75, 0.00, 0.00, 0.00, 0.00, 0.00, 0.00, 0.00
16, 13479.55, 37798.09, -326.56, 15671.10, 345.63, -188.51, 8073.25, -36413.32, -27632.83, 28762.71, -183.69, 12143.99, 0.00, 0.00, 0.00, 0.00, -0.03, 0.33, 0.96
17, 13476.63, 37797.22, -328.86, 15663.16, 333.58, -194.28, 8060.64, -36426.08, -27632.83, 28762.71, -183.69, 12143.99, 0.00, 0.00, 0.00, 0.00, 0.00, 0.00, 0.00
18, 13476.63, 37797.22, -328.86, 15663.16, 333.58, -194.28, 8060.64, -36426.08, -27640.52, 28782.01, -178.26, 12159.06, 0.00, 0.00, 0.00, 0.00, 0.00, 0.00, 0.00
19, 13494.87, 37833.16, -303.34, 15685.38, 361.16, -178.52, 8087.06, -36408.62, -27640.52, 28782.01, -178.26, 12159.06, 0.00, 0.00, 0.00, 0.00, 0.00, 0.00, 0.00
20, 13494.87, 37833.16, -303.34, 15685.38, 361.16, -178.52, 8087.06, -36408.62, -27637.91, 28769.87, -170.25, 12150.41, 0.00, 0.00, 0.00, 0.00, 0.00, 0.00, 0.00
21, 13465.41, 37786.65, -346.25, 15627.40, 313.35, -215.47, 8046.18, -36435.33, -27637.91, 28769.87, -170.25, 12150.41, 0.00, 0.00, 0.00, 0.00, 0.00, 0.00, 0.00
22, 13465.41, 37786.65, -346.25, 15627.40, 313.35, -215.47, 8046.18, -36435.33, -27653.02, 28762.63, -197.86, 12146.41, 0.00, 0.00, 0.00, 0.00, 0.00, 0.00, 0.00
23, 13483.80, 37822.91, -327.50, 15651.21, 322.02, -202.42, 8061.98, -36431.80, -27653.02, 28762.63, -197.86, 12146.41, 0.00, 0.00, 0.00, 0.00, 0.00, 0.00, 0.00
24, 13483.80, 37822.91, -327.50, 15651.21, 322.02, -202.42, 8061.98, -36431.80, -27651.54, 28762.38, -156.24, 12148.22, 0.00, 0.00, 0.00, 0.00, 0.00, 0.00, 0.00
25, 13483.78, 37810.54, -318.58, 15627.42, 324.44, -209.12, 8053.78, -36431.02, -27651.54, 28762.38, -156.24, 12148.22, 0.00, 0.00, 0.00, 0.00, 0.00, 0.00, 0.00
26, 13483.78, 37810.54, -318.58, 15627.42, 324.44, -209.12, 8053.78, -36431.02, -27646.96, 28765.91, -168.96, 12149.09, 0.00, 0.00, 0.00, 0.00, -0.03, 0.33, 0.96
27, 13498.22, 37834.95, -310.87, 15652.37, 333.82, -195.15, 8072.33, -36426.10, -27646.96, 28765.91, -168.96, 12149.09, 0.00, 0.00, 0.00, 0.00, 0.00, 0.00, 0.00
28, 13498.22, 37834.95, -310.87, 15652.37, 333.82, -195.15, 8072.33, -36426.10, -27654.52, 28766.92, -150.67, 12148.73, 0.00, 0.00, 0.00, 0.00, 0.00, 0.00, 0.00
29, 13489.63, 37822.46, -313.06, 15640.14, 325.64, -202.89, 8057.89, -36429.45, -27654.52, 28766.92, -150.67, 12148.73, 0.00, 0.00, 0.00, 0.00, 0.00, 0.00, 0.00
30, 13489.63, 37822.46, -313.06, 15640.14, 325.64, -202.89, 8057.89, -36429.45, -27646.27, 28768.71, -159.35, 12155.30, 0.00, 0.00, 0.00, 0.00, 0.00, 0.00, 0.00
31, 13502.35, 37836.83, -302.87, 15660.59, 341.13, -188.34, 8079.28, -36420.04, -27646.27, 28768.71, -159.35, 12155.30, 0.00, 0.00, 0.00, 0.00, 0.00, 0.00, 0.00
32, 13502.35, 37836.83, -302.87, 15660.59, 341.13, -188.34, 8079.28, -36420.04, -27654.96, 28774.12, -151.88, 12155.30, 0.00, 0.00, 0.00, 0.00, 0.00, 0.00, 0.00
33, 13487.06, 37820.80, -314.31, 15637.10, 322.71, -207.13, 8053.80, -36435.31, -27654.96, 28774.12, -151.88, 12155.30, 0.00, 0.00, 0.00, 0.00, 0.00, 0.00, 0.00
34, 13487.06, 37820.80, -314.31, 15637.10, 322.71, -207.13, 8053.80, -36435.31, -27654.40, 28752.03, -160.93, 12147.64, 0.00, 0.00, 0.00, 0.00, 0.00, 0.00, 0.00
35, 13496.72, 37836.88, -307.52, 15654.87, 337.15, -195.06, 8074.79, -36426.91, -27654.40, 28752.03, -160.93, 12147.64, 0.00, 0.00, 0.00, 0.00, 0.00, 0.00, 0.00
36, 13496.72, 37836.88, -307.52, 15654.87, 337.15, -195.06, 8074.79, -36426.91, -27660.51, 28774.34, -156.17, 12155.12, 0.00, 0.00, 0.00, 0.00, -0.03, 0.33, 0.96
37, 13486.26, 37813.00, -317.24, 15636.92, 323.34, -207.51, 8055.79, -36435.44, -27660.51, 28774.34, -156.17, 12155.12, 0.00, 0.00, 0.00, 0.00, 0.00, 0.00, 0.00
38, 13486.26, 37813.00, -317.24, 15636.92, 323.34, -207.51, 8055.79, -36435.44, -27654.90, 28754.60, -162.88, 12150.27, 0.00, 0.00, 0.00, 0.00, 0.00, 0.00, 0.00
39, 13498.37, 37834.89, -305.93, 15657.78, 338.58, -191.73, 8076.56, -36424.82, -27654.90, 28754.60, -162.88, 12150.27, 0.00, 0.00, 0.00, 0.00, 0.00, 0.00, 0.00
40, 13498.37, 37834.89, -305.93, 15657.78, 338.58, -191.73, 8076.56, -36424.82, -27666.27, 28773.96, -156.57, 12157.67, 0.00, 0.00, 0.00, 0.00, 0.00, 0.00, 0.00
41, 13494.24, 37825.95, -310.64, 15645.66, 325.91, -202.48, 8059.77, -36435.18, -27666.27, 28773.96, -156.57, 12157.67, 0.00, 0.00, 0.00, 0.00, 0.00, 0.00, 0.00
42, 13494.24, 37825.95, -310.64, 15645.66, 325.91, -202.48, 8059.77, -36435.18, -27662.72, 28746.06, -163.61, 12142.94, 0.00, 0.00, 0.00, 0.00, 0.00, 0.00, 0.00
43, 13495.42, 37828.80, -309.37, 15655.45, 332.17, -192.16, 8068.60, -36435.18, -27662.72, 28746.06, -163.61, 12142.94, 0.00, 0.00, 0.00, 0.00, 0.00, 0.00, 0.00
44, 13495.42, 37828.80, -309.37, 15655.45, 332.17, -192.16, 8068.60, -36435.18, -27673.40, 28772.39, -164.15, 12160.56, 0.00, 0.00, 0.00, 0.00, 0.00, 0.00, 0.00
45, 13501.41, 37837.93, -305.19, 15653.40, 331.21, -194.62, 8065.34, -36431.78, -27673.40, 28772.39, -164.15, 12160.56, 0.00, 0.00, 0.00, 0.00, 0.00, 0.00, 0.00
46, 13501.41, 37837.93, -305.19, 15653.40, 331.21, -194.62, 8065.34, -36431.78, -27659.88, 28751.12, -158.72, 12150.39, 0.00, 0.00, 0.00, 0.00, -0.03, 0.32, 0.96
47, 13492.92, 37823.62, -311.65, 15654.51, 332.88, -197.46, 8070.43, -36435.78, -27659.88, 28751.12, -158.72, 12150.39, 0.00, 0.00, 0.00, 0.00, 0.00, 0.00, 0.00
48, 13492.92, 37823.62, -311.65, 15654.51, 332.88, -197.46, 8070.43, -36435.78, -27673.38, 28770.96, -168.22, 12160.38, 0.00, 0.00, 0.00, 0.00, 0.00, 0.00, 0.00
49, 13497.12, 37821.61, -310.42, 15653.57, 334.16, -197.37, 8068.89, -36432.20, -27673.38, 28770.96, -168.22, 12160.38, 0.00, 0.00, 0.00, 0.00, 0.00, 0.00, 0.00
50, 13497.12, 37821.61, -310.42, 15653.57, 334.16, -197.37, 8068.89, -36432.20, -27657.94, 28747.16, -160.40, 12147.21, 0.00, 0.00, 0.00, 0.00, 0.00, 0.00, 0.00
51, 13501.44, 37849.46, -306.69, 15657.93, 337.22, -192.11, 8075.24, -36430.79, -27657.94, 28747.16, -160.40, 12147.21, 0.00, 0.00, 0.00, 0.00, 0.00, 0.00, 0.00
52, 13501.44, 37849.46, -306.69, 15657.93, 337.22, -192.11, 8075.24, -36430.79, -27667.55, 28778.74, -165.22, 12167.13, 0.00, 0.00, 0.00, 0.00, 0.00, 0.00, 0.00
53, 13499.83, 37833.28, -305.03, 15657.24, 338.05, -188.94, 8075.55, -36430.39, -27667.55, 28778.74, -165.22, 12167.13, 0.00, 0.00, 0.00, 0.00, 0.00, 0.00, 0.00
54, 13499.83, 37833.28, -305.03, 15657.24, 338.05, -188.94, 8075.55, -36430.39, -27656.55, 28753.42, -149.09, 12156.15, 0.00, 0.00, 0.00, 0.00, 0.00, 0.00, 0.00
55, 13501.35, 37827.11, -306.42, 15660.24, 337.27, -190.84, 8076.09, -36432.94, -27656.55, 28753.42, -149.09, 12156.15, 0.00, 0.00, 0.00, 0.00, -0.02, 0.33, 0.96
56, 13501.35, 37827.11, -306.42, 15660.24, 337.27, -190.84, 8076.09, -36432.94, -27671.15, 28775.14, -167.59, 12169.94, 0.00, 0.00, 0.00, 0.00, 0.00, 0.00, 0.00
57, 13498.24, 37828.76, -309.21, 15658.40, 337.56, -191.06, 8075.39, -36439.09, -27671.15, 28775.14, -167.59, 12169.94, 0.00, 0.00, 0.00, 0.00, 0.00, 0.00, 0.00
58, 13498.24, 37828.76, -309.21, 15658.40, 337.56, -191.06, 8075.39, -36439.09, -27670.05, 28745.44, -165.40, 12149.83, 0.00, 0.00, 0.00, 0.00, 0.00, 0.00, 0.00
59, 13488.56, 37830.62, -316.81, 15644.99, 328.28, -199.11, 8067.77, -36443.38, -27670.05, 28745.44, -165.40, 12149.83, 0.00, 0.00, 0.00, 0.00, 0.00, 0.00, 0.00
60, 13488.56, 37830.62, -316.81, 15644.99, 328.28, -199.11, 8067.77, -36443.38, -27672.55, 28772.28, -171.53, 12167.17, 0.00, 0.00, 0.00, 0.00, 0.00, 0.00, 0.00
61, 13497.15, 37835.96, -311.14, 15660.06, 340.95, -186.46, 8083.71, -36430.97, -27672.55, 28772.28, -171.53, 12167.17, 0.00, 0.00, 0.00, 0.00, 0.00, 0.00, 0.00
62, 13497.15, 37835.96, -311.14, 15660.06, 340.95, -186.46, 8083.71, -36430.97, -27658.72, 28760.59, -156.13, 12162.39, 0.00, 0.00, 0.00, 0.00, 0.00, 0.00, 0.00
63, 13486.89, 37818.91, -316.32, 15647.96, 333.40, -193.77, 8075.28, -36433.54, -27658.72, 28760.59, -156.13, 12162.39, 0.00, 0.00, 0.00, 0.00, 0.00, 0.00, 0.00
64, 13486.89, 37818.91, -316.32, 15647.96, 333.40, -193.77, 8075.28, -36433.54, -27667.21, 28781.51, -168.00, 12180.40, 0.00, 0.00, 0.00, 0.00, 0.00, 0.00, 0.00
65, 13503.02, 37835.85, -307.65, 15663.68, 344.95, -180.42, 8090.64, -36428.11, -27667.21, 28781.51, -168.00, 12180.40, 0.00, 0.00, 0.00, 0.00, -0.03, 0.33, 0.96
66, 13503.02, 37835.85, -307.65, 15663.68, 344.95, -180.42, 8090.64, -36428.11, -27672.08, 28757.69, -160.95, 12161.85, 0.00, 0.00, 0.00, 0.00, 0.00, 0.00, 0.00
67, 13490.86, 37823.00, -317.95, 15639.11, 325.08, -202.82, 8065.90, -36445.05, -27672.08, 28757.69, -160.95, 12161.85, 0.00, 0.00, 0.00, 0.00, 0.00, 0.00, 0.00
68, 13490.86, 37823.00, -317.95, 15639.11, 325.08, -202.82, 8065.90, -36445.05, -27679.33, 28762.36, -173.45, 12163.22, 0.00, 0.00, 0.00, 0.00, 0.00, 0.00, 0.00
69, 13501.75, 37840.88, -307.45, 15664.35, 343.32, -183.35, 8088.87, -36433.88, -27679.33, 28762.36, -173.45, 12163.22, 0.00, 0.00, 0.00, 0.00, 0.00, 0.00, 0.00
70, 13501.75, 37840.88, -307.45, 15664.35, 343.32, -183.35, 8088.87, -36433.88, -27670.19, 28761.26, -153.51, 12162.54, 0.00, 0.00, 0.00, 0.00, 0.00, 0.00, 0.00
71, 13492.05, 37833.21, -315.79, 15640.52, 329.55, -197.95, 8072.11, -36440.63, -27670.19, 28761.26, -153.51, 12162.54, 0.00, 0.00, 0.00, 0.00, 0.00, 0.00, 0.00
72, 13492.05, 37833.21, -315.79, 15640.52, 329.55, -197.95, 8072.11, -36440.63, -27678.81, 28760.93, -173.32, 12166.90, 0.00, 0.00, 0.00, 0.00, 0.00, 0.00, 0.00
73, 13503.45, 37838.20, -308.23, 15663.52, 342.90, -182.66, 8089.90, -36437.19, -27678.81, 28760.93, -173.32, 12166.90, 0.00, 0.00, 0.00, 0.00, 0.00, 0.00, 0.00
74, 13503.45, 37838.20, -308.23, 15663.52, 342.90, -182.66, 8089.90, -36437.19, -27685.56, 28757.20, -159.28, 12162.68, 0.00, 0.00, 0.00, 0.00, 0.00, 0.00, 0.00
75, 13492.29, 37824.89, -318.11, 15638.35, 328.32, -199.49, 8070.61, -36446.55, -27685.56, 28757.20, -159.28, 12162.68, 0.00, 0.00, 0.00, 0.00, -0.03, 0.33, 0.96
76, 13492.29, 37824.89, -318.11, 15638.35, 328.32, -199.49, 8070.61, -36446.55, -27674.50, 28757.75, -162.23, 12168.24, 0.00, 0.00, 0.00, 0.00, 0.00, 0.00, 0.00
77, 13510.24, 37874.23, -295.71, 15666.78, 353.05, -177.85, 8099.82, -36429.54, -27674.50, 28757.75, -162.23, 12168.24, 0.00, 0.00, 0.00, 0.00, 0.00, 0.00, 0.00
78, 13510.24, 37874.23, -295.71, 15666.78, 353.05, -177.85, 8099.82, -36429.54, -27672.84, 28772.08, -147.37, 12172.78, 0.00, 0.00, 0.00, 0.00, 0.00, 0.00, 0.00
79, 13497.84, 37820.56, -310.00, 15648.05, 337.91, -191.35, 8081.72, -36434.84, -27672.84, 28772.08, -147.37, 12172.78, 0.00, 0.00, 0.00, 0.00, 0.00, 0.00, 0.00
80, 13497.84, 37820.56, -310.00, 15648.05, 337.91, -191.35, 8081.72, -36434.84, -27672.44, 28756.79, -162.16, 12166.90, 0.00, 0.00, 0.00, 0.00, 0.00, 0.00, 0.00
81, 13503.96, 37843.91, -305.37, 15664.79, 344.66, -181.74, 8095.15, -36440.32, -27672.44, 28756.79, -162.16, 12166.90, 0.00, 0.00, 0.00, 0.00, 0.00, 0.00, 0.00
82, 13503.96, 37843.91, -305.37, 15664.79, 344.66, -181.74, 8095.15, -36440.32, -27688.22, 28762.00, -160.84, 12167.55, 0.00, 0.00, 0.00, 0.00, 0.00, 0.00, 0.00
83, 13501.33, 37845.95, -309.53, 15644.66, 333.24, -192.56, 8078.48, -36445.75, -27688.22, 28762.00, -160.84, 12167.55, 0.00, 0.00, 0.00, 0.00, 0.00, 0.00, 0.00
84, 13501.33, 37845.95, -309.53, 15644.66, 333.24, -192.56, 8078.48, -36445.75, -27679.88, 28747.52, -163.95, 12164.51, 0.00, 0.00, 0.00, 0.00, 0.00, 0.00, 0.00
85, 13503.78, 37832.29, -306.29, 15666.81, 345.58, -175.95, 8098.28, -36437.81, -27679.88, 28747.52, -163.95, 12164.51, 0.00, 0.00, 0.00, 0.00, -0.03, 0.33, 0.96
86, 13503.78, 37832.29, -306.29, 15666.81, 345.58, -175.95, 8098.28, -36437.81, -27674.19, 28778.12, -151.81, 12178.28, 0.00, 0.00, 0.00, 0.00, 0.00, 0.00, 0.00
87, 13494.51, 37824.29, -311.85, 15648.52, 338.99, -186.99, 8087.67, -36438.50, -27674.19, 28778.12, -151.81, 12178.28, 0.00, 0.00, 0.00, 0.00, 0.00, 0.00, 0.00
88, 13494.51, 37824.29, -311.85, 15648.52, 338.99, -186.99, 8087.67, -36438.50, -27668.73, 28757.91, -163.82, 12170.75, 0.00, 0.00, 0.00, 0.00, 0.00, 0.00, 0.00
89, 13502.69, 37846.46, -307.38, 15662.47, 343.35, -180.49, 8098.64, -36437.88, -27668.73, 28757.91, -163.82, 12170.75, 0.00, 0.00, 0.00, 0.00, 0.00, 0.00, 0.00
90, 13502.69, 37846.46, -307.38, 15662.47, 343.35, -180.49, 8098.64, -36437.88, -27682.37, 28774.92, -161.85, 12178.21, 0.00, 0.00, 0.00, 0.00, 0.00, 0.00, 0.00
91, 13493.01, 37826.53, -318.07, 15645.89, 332.82, -192.78, 8084.31, -36446.80, -27682.37, 28774.92, -161.85, 12178.21, 0.00, 0.00, 0.00, 0.00, 0.00, 0.00, 0.00
92, 13493.01, 37826.53, -318.07, 15645.89, 332.82, -192.78, 8084.31, -36446.80, -27673.98, 28746.58, -167.73, 12163.46, 0.00, 0.00, 0.00, 0.00, 0.00, 0.00, 0.00
93, 13498.93, 37832.81, -311.78, 15657.15, 339.79, -182.93, 8095.58, -36442.21, -27673.98, 28746.58, -167.73, 12163.46, 0.00, 0.00, 0.00, 0.00, 0.00, 0.00, 0.00
94, 13498.93, 37832.81, -311.78, 15657.15, 339.79, -182.93, 8095.58, -36442.21, -27683.08, 28776.28, -164.96, 12177.90, 0.00, 0.00, 0.00, 0.00, -0.03, 0.33, 0.95
95, 13495.87, 37834.46, -313.15, 15648.77, 334.83, -186.70, 8089.03, -36441.66, -27683.08, 28776.28, -164.96, 12177.90, 0.00, 0.00, 0.00, 0.00, 0.00, 0.00, 0.00
96, 13495.87, 37834.46, -313.15, 15648.77, 334.83, -186.70, 8089.03, -36441.66, -27668.82, 28753.73, -161.36, 12172.78, 0.00, 0.00, 0.00, 0.00, 0.00, 0.00, 0.00
97, 13500.50, 37849.01, -308.43, 15656.35, 339.95, -181.43, 8096.76, -36439.82, -27668.82, 28753.73, -161.36, 12172.78, 0.00, 0.00, 0.00, 0.00, 0.00, 0.00, 0.00
98, 13500.50, 37849.01, -308.43, 15656.35, 339.95, -181.43, 8096.76, -36439.82, -27676.60, 28781.65, -164.93, 12187.76, 0.00, 0.00, 0.00, 0.00, 0.00, 0.00, 0.00
99, 13501.88, 37840.25, -310.78, 15651.90, 339.59, -183.95, 8093.41, -36439.73, -27676.60, 28781.65, -164.93, 12187.76, 0.00, 0.00, 0.00, 0.00, 0.00, 0.00, 0.00
100, 13501.88, 37840.25, -310.78, 15651.90, 339.59, -183.95, 8093.41, -36439.73, -27668.58, 28752.17, -163.12, 12170.01, 0.00, 0.00, 0.00, 0.00, 0.00, 0.00, 0.00
101, 13492.56, 37834.82, -316.14, 15646.22, 335.30, -186.75, 8089.86, -36443.31, -27668.58, 28752.17, -163.12, 12170.01, 0.00, 0.00, 0.00, 0.00, 0.00, 0.00, 0.00
102, 13492.56, 37834.82, -316.14, 15646.22, 335.30, -186.75, 8089.86, -36443.31, -27678.10, 28777.96, -161.69, 12185.83, 0.00, 0.00, 0.00, 0.00, 0.00, 0.00, 0.00
103, 13498.87, 37839.94, -305.30, 15656.70, 342.74, -181.43, 8097.30, -36439.98, -27678.10, 28777.96, -161.69, 12185.83, 0.00, 0.00, 0.00, 0.00, 0.00, 0.00, 0.00
104, 13498.87, 37839.94, -305.30, 15656.70, 342.74, -181.43, 8097.30, -36439.98, -27677.25, 28745.75, -159.26, 12168.89, 0.00, 0.00, 0.00, 0.00, -0.03, 0.33, 0.95
105, 13493.28, 37832.92, -313.37, 15647.29, 334.20, -188.22, 8089.57, -36447.00, -27677.25, 28745.75, -159.26, 12168.89, 0.00, 0.00, 0.00, 0.00, 0.00, 0.00, 0.00
106, 13493.28, 37832.92, -313.37, 15647.29, 334.20, -188.22, 8089.57, -36447.00, -27684.04, 28773.64, -172.35, 12188.34, 0.00, 0.00, 0.00, 0.00, 0.00, 0.00, 0.00
107, 13498.02, 37836.50, -308.54, 15657.13, 344.24, -179.66, 8099.89, -36436.92, -27684.04, 28773.64, -172.35, 12188.34, 0.00, 0.00, 0.00, 0.00, 0.00, 0.00, 0.00
108, 13498.02, 37836.50, -308.54, 15657.13, 344.24, -179.66, 8099.89, -36436.92, -27670.74, 28758.51, -161.69, 12179.29, 0.00, 0.00, 0.00, 0.00, 0.00, 0.00, 0.00
109, 13490.77, 37829.01, -314.06, 15647.54, 338.07, -185.03, 8090.77, -36441.30, -27670.74, 28758.51, -161.69, 12179.29, 0.00, 0.00, 0.00, 0.00, 0.00, 0.00, 0.00
110, 13490.77, 37829.01, -314.06, 15647.54, 338.07, -185.03, 8090.77, -36441.30, -27676.46, 28777.94, -166.54, 12191.60, 0.00, 0.00, 0.00, 0.00, 0.00, 0.00, 0.00
111, 13500.05, 37846.87, -305.53, 15659.23, 347.19, -179.80, 8102.17, -36437.39, -27676.46, 28777.94, -166.54, 12191.60, 0.00, 0.00, 0.00, 0.00, 0.00, 0.00, 0.00
112, 13500.05, 37846.87, -305.53, 15659.23, 347.19, -179.80, 8102.17, -36437.39, -27677.56, 28755.29, -160.80, 12178.50, 0.00, 0.00, 0.00, 0.00, 0.00, 0.00, 0.00
113, 13481.83, 37823.02, -320.28, 15640.79, 329.89, -193.59, 8085.05, -36447.69, -27677.56, 28755.29, -160.80, 12178.50, 0.00, 0.00, 0.00, 0.00, 0.00, 0.00, 0.00
114, 13481.83, 37823.02, -320.28, 15640.79, 329.89, -193.59, 8085.05, -36447.69, -27676.40, 28773.62, -167.39, 12191.76, 0.00, 0.00, 0.00, 0.00, -0.03, 0.33, 0.95
115, 13496.83, 37846.44, -302.80, 15661.26, 349.47, -173.07, 8107.20, -36434.23, -27676.40, 28773.62, -167.39, 12191.76, 0.00, 0.00, 0.00, 0.00, 0.00, 0.00, 0.00
116, 13496.83, 37846.44, -302.80, 15661.26, 349.47, -173.07, 8107.20, -36434.23, -27671.17, 28766.89, -155.55, 12187.74, 0.00, 0.00, 0.00, 0.00, 0.00, 0.00, 0.00
117, 13488.99, 37838.11, -312.75, 15643.45, 335.28, -189.12, 8090.15, -36442.26, -27671.17, 28766.89, -155.55, 12187.74, 0.00, 0.00, 0.00, 0.00, 0.00, 0.00, 0.00
118, 13488.99, 37838.11, -312.75, 15643.45, 335.28, -189.12, 8090.15, -36442.26, -27671.95, 28773.44, -164.75, 12195.49, 0.00, 0.00, 0.00, 0.00, 0.00, 0.00, 0.00
119, 13500.77, 37849.95, -304.18, 15660.84, 351.39, -172.53, 8112.36, -36430.57, -27671.95, 28773.44, -164.75, 12195.49, 0.00, 0.00, 0.00, 0.00, 0.00, 0.00, 0.00
120, 13500.77, 37849.95, -304.18, 15660.84, 351.39, -172.53, 8112.36, -36430.57, -27662.63, 28777.89, -150.67, 12197.15, 0.00, 0.00, 0.00, 0.00, 0.00, 0.00, 0.00
121, 13500.74, 37841.43, -303.09, 15646.85, 342.97, -184.04, 8096.81, -36434.62, -27662.63, 28777.89, -150.67, 12197.15, 0.00, 0.00, 0.00, 0.00, 0.00, 0.00, 0.00
122, 13500.74, 37841.43, -303.09, 15646.85, 342.97, -184.04, 8096.81, -36434.62, -27662.88, 28777.09, -157.47, 12200.92, 0.00, 0.00, 0.00, 0.00, 0.00, 0.00, 0.00
123, 13504.86, 37843.00, -299.78, 15664.59, 352.71, -170.25, 8114.04, -36429.39, -27662.88, 28777.09, -157.47, 12200.92, 0.00, 0.00, 0.00, 0.00, 0.00, 0.00, 0.00
124, 13504.86, 37843.00, -299.78, 15664.59, 352.71, -170.25, 8114.04, -36429.39, -27672.84, 28776.04, -154.50, 12194.08, 0.00, 0.00, 0.00, 0.00, -0.04, 0.33, 0.96
125, 13486.95, 37822.55, -312.19, 15640.95, 335.30, -189.54, 8090.82, -36442.33, -27672.84, 28776.04, -154.50, 12194.08, 0.00, 0.00, 0.00, 0.00, 0.00, 0.00, 0.00
126, 13486.95, 37822.55, -312.19, 15640.95, 335.30, -189.54, 8090.82, -36442.33, -27670.77, 28764.10, -168.76, 12189.86, 0.00, 0.00, 0.00, 0.00, 0.00, 0.00, 0.00
127, 13501.48, 37850.67, -301.10, 15660.03, 349.94, -172.47, 8110.62, -36432.67, -27670.77, 28764.10, -168.76, 12189.86, 0.00, 0.00, 0.00, 0.00, 0.00, 0.00, 0.00
128, 13501.48, 37850.67, -301.10, 15660.03, 349.94, -172.47, 8110.62, -36432.67, -27675.77, 28779.61, -155.30, 12197.44, 0.00, 0.00, 0.00, 0.00, 0.00, 0.00, 0.00
129, 13493.97, 37838.77, -305.66, 15646.24, 339.37, -183.51, 8094.13, -36436.45, -27675.77, 28779.61, -155.30, 12197.44, 0.00, 0.00, 0.00, 0.00, 0.00, 0.00, 0.00
130, 13493.97, 37838.77, -305.66, 15646.24, 339.37, -183.51, 8094.13, -36436.45, -27664.22, 28772.42, -159.03, 12197.06, 0.00, 0.00, 0.00, 0.00, 0.00, 0.00, 0.00
131, 13499.42, 37844.05, -301.37, 15661.62, 352.24, -173.18, 8113.19, -36430.70, -27664.22, 28772.42, -159.03, 12197.06, 0.00, 0.00, 0.00, 0.00, 0.00, 0.00, 0.00
132, 13499.42, 37844.05, -301.37, 15661.62, 352.24, -173.18, 8113.19, -36430.70, -27672.62, 28781.60, -156.93, 12198.58, 0.00, 0.00, 0.00, 0.00, 0.00, 0.00, 0.00
133, 13488.23, 37836.20, -310.38, 15640.70, 338.43, -188.78, 8092.43, -36440.50, -27672.62, 28781.60, -156.93, 12198.58, 0.00, 0.00, 0.00, 0.00, -0.03, 0.32, 0.95
134, 13488.23, 37836.20, -310.38, 15640.70, 338.43, -188.78, 8092.43, -36440.50, -27669.65, 28757.87, -163.93, 12188.45, 0.00, 0.00, 0.00, 0.00, 0.00, 0.00, 0.00
135, 13495.09, 37834.26, -307.40, 15654.65, 343.52, -178.23, 8106.84, -36435.71, -27669.65, 28757.87, -163.93, 12188.45, 0.00, 0.00, 0.00, 0.00, 0.00, 0.00, 0.00
136, 13495.09, 37834.26, -307.40, 15654.65, 343.52, -178.23, 8106.84, -36435.71, -27674.95, 28783.08, -162.21, 12201.73, 0.00, 0.00, 0.00, 0.00, 0.00, 0.00, 0.00
137, 13487.27, 37832.81, -310.35, 15643.14, 338.00, -187.42, 8096.49, -36438.82, -27674.95, 28783.08, -162.21, 12201.73, 0.00, 0.00, 0.00, 0.00, 0.00, 0.00, 0.00
138, 13487.27, 37832.81, -310.35, 15643.14, 338.00, -187.42, 8096.49, -36438.82, -27673.29, 28752.43, -166.23, 12186.06, 0.00, 0.00, 0.00, 0.00, 0.00, 0.00, 0.00
139, 13490.80, 37831.49, -310.22, 15653.15, 341.29, -180.42, 8104.03, -36440.36, -27673.29, 28752.43, -166.23, 12186.06, 0.00, 0.00, 0.00, 0.00, 0.00, 0.00, 0.00
140, 13490.80, 37831.49, -310.22, 15653.15, 341.29, -180.42, 8104.03, -36440.36, -27678.90, 28782.72, -162.77, 12202.42, 0.00, 0.00, 0.00, 0.00, 0.00, 0.00, 0.00
141, 13491.00, 37824.71, -310.06, 15646.85, 337.40, -183.78, 8096.29, -36442.64, -27678.90, 28782.72, -162.77, 12202.42, 0.00, 0.00, 0.00, 0.00, 0.00, 0.00, 0.00
142, 13491.00, 37824.71, -310.06, 15646.85, 337.40, -183.78, 8096.29, -36442.64, -27668.87, 28755.05, -165.74, 12188.03, 0.00, 0.00, 0.00, 0.00, 0.00, 0.00, 0.00
143, 13497.88, 37838.62, -305.53, 15654.98, 342.52, -178.10, 8105.66, -36438.04, -27668.87, 28755.05, -165.74, 12188.03, 0.00, 0.00, 0.00, 0.00, -0.03, 0.33, 0.96
144, 13497.88, 37838.62, -305.53, 15654.98, 342.52, -178.10, 8105.66, -36438.04, -27674.59, 28785.43, -167.71, 12208.54, 0.00, 0.00, 0.00, 0.00, 0.00, 0.00, 0.00
145, 13500.07, 37847.63, -302.13, 15650.69, 343.05, -180.96, 8103.42, -36436.05, -27674.59, 28785.43, -167.71, 12208.54, 0.00, 0.00, 0.00, 0.00, 0.00, 0.00, 0.00
146, 13500.07, 37847.63, -302.13, 15650.69, 343.05, -180.96, 8103.42, -36436.05, -27664.28, 28756.39, -160.24, 12194.04, 0.00, 0.00, 0.00, 0.00, 0.00, 0.00, 0.00
147, 13489.30, 37832.05, -308.95, 15649.30, 337.91, -184.78, 8101.39, -36443.67, -27664.28, 28756.39, -160.24, 12194.04, 0.00, 0.00, 0.00, 0.00, 0.00, 0.00, 0.00
148, 13489.30, 37832.05, -308.95, 15649.30, 337.91, -184.78, 8101.39, -36443.67, -27673.80, 28780.57, -168.42, 12206.09, 0.00, 0.00, 0.00, 0.00, 0.00, 0.00, 0.00
149, 13496.18, 37846.62, -303.42, 15652.57, 343.88, -177.56, 8105.81, -36436.72, -27673.80, 28780.57, -168.42, 12206.09, 0.00, 0.00, 0.00, 0.00, 0.00, 0.00, 0.00
150, 13496.18, 37846.62, -303.42, 15652.57, 343.88, -177.56, 8105.81, -36436.72, -27663.10, 28760.44, -161.83, 12198.26, 0.00, 0.00, 0.00, 0.00, 0.00, 0.00, 0.00
151, 13491.60, 37833.72, -308.95, 15650.18, 336.39, -182.81, 8097.52, -36442.66, -27663.10, 28760.44, -161.83, 12198.26, 0.00, 0.00, 0.00, 0.00, 0.00, 0.00, 0.00
152, 13491.60, 37833.72, -308.95, 15650.18, 336.39, -182.81, 8097.52, -36442.66, -27679.88, 28775.61, -176.47, 12204.45, 0.00, 0.00, 0.00, 0.00, 0.00, 0.00, 0.00
153, 13491.74, 37836.43, -304.21, 15654.92, 342.03, -179.71, 8104.34, -36440.14, -27679.88, 28775.61, -176.47, 12204.45, 0.00, 0.00, 0.00, 0.00, -0.03, 0.33, 0.95
154, 13491.74, 37836.43, -304.21, 15654.92, 342.03, -179.71, 8104.34, -36440.14, -27671.59, 28754.80, -165.09, 12192.76, 0.00, 0.00, 0.00, 0.00, 0.00, 0.00, 0.00
155, 13491.74, 37830.57, -308.30, 15646.82, 335.61, -185.52, 8094.86, -36444.07, -27671.59, 28754.80, -165.09, 12192.76, 0.00, 0.00, 0.00, 0.00, 0.00, 0.00, 0.00
156, 13491.74, 37830.57, -308.30, 15646.82, 335.61, -185.52, 8094.86, -36444.07, -27678.12, 28773.47, -173.74, 12204.99, 0.00, 0.00, 0.00, 0.00, 0.00, 0.00, 0.00
157, 13503.83, 37844.12, -300.77, 15663.30, 346.36, -172.85, 8109.79, -36435.60, -27678.12, 28773.47, -173.74, 12204.99, 0.00, 0.00, 0.00, 0.00, 0.00, 0.00, 0.00
158, 13503.83, 37844.12, -300.77, 15663.30, 346.36, -172.85, 8109.79, -36435.60, -27669.89, 28759.92, -162.90, 12195.69, 0.00, 0.00, 0.00, 0.00, 0.00, 0.00, 0.00
159, 13485.21, 37826.73, -311.47, 15647.81, 334.23, -186.26, 8093.63, -36442.86, -27669.89, 28759.92, -162.90, 12195.69, 0.00, 0.00, 0.00, 0.00, 0.00, 0.00, 0.00
160, 13485.21, 37826.73, -311.47, 15647.81, 334.23, -186.26, 8093.63, -36442.86, -27671.01, 28778.21, -173.99, 12208.88, 0.00, 0.00, 0.00, 0.00, 0.00, 0.00, 0.00
161, 13498.84, 37852.45, -302.15, 15662.78, 348.51, -175.13, 8112.63, -36434.15, -27671.01, 28778.21, -173.99, 12208.88, 0.00, 0.00, 0.00, 0.00, 0.00, 0.00, 0.00
162, 13498.84, 37852.45, -302.15, 15662.78, 348.51, -175.13, 8112.63, -36434.15, -27668.64, 28764.79, -166.32, 12200.41, 0.00, 0.00, 0.00, 0.00, 0.00, 0.00, 0.00
163, 13488.70, 37823.00, -314.82, 15645.33, 332.64, -185.21, 8094.08, -36442.02, -27668.64, 28764.79, -166.32, 12200.41, 0.00, 0.00, 0.00, 0.00, -0.03, 0.33, 0.95
164, 13488.70, 37823.00, -314.82, 15645.33, 332.64, -185.21, 8094.08, -36442.02, -27669.69, 28773.15, -177.70, 12209.75, 0.00, 0.00, 0.00, 0.00, 0.00, 0.00, 0.00
165, 13499.40, 37848.34, -305.21, 15663.32, 344.37, -174.86, 8108.41, -36438.73, -27669.69, 28773.15, -177.70, 12209.75, 0.00, 0.00, 0.00, 0.00, 0.00, 0.00, 0.00
166, 13499.40, 37848.34, -305.21, 15663.32, 344.37, -174.86, 8108.41, -36438.73, -27670.41, 28762.18, -162.36, 12198.08, 0.00, 0.00, 0.00, 0.00, 0.00, 0.00, 0.00
167, 13489.05, 37829.57, -308.92, 15646.76, 332.91, -186.64, 8094.19, -36443.36, -27670.41, 28762.18, -162.36, 12198.08, 0.00, 0.00, 0.00, 0.00, 0.00, 0.00, 0.00
168, 13489.05, 37829.57, -308.92, 15646.76, 332.91, -186.64, 8094.19, -36443.36, -27666.36, 28765.42, -174.63, 12205.37, 0.00, 0.00, 0.00, 0.00, 0.00, 0.00, 0.00
169, 13498.26, 37834.93, -304.14, 15666.14, 346.41, -173.85, 8110.82, -36439.31, -27666.36, 28765.42, -174.63, 12205.37, 0.00, 0.00, 0.00, 0.00, 0.00, 0.00, 0.00
170, 13498.26, 37834.93, -304.14, 15666.14, 346.41, -173.85, 8110.82, -36439.31, -27666.23, 28770.03, -162.25, 12204.92, 0.00, 0.00, 0.00, 0.00, 0.00, 0.00, 0.00
171, 13488.34, 37828.25, -310.40, 15644.30, 333.96, -185.90, 8094.15, -36443.96, -27666.23, 28770.03, -162.25, 12204.92, 0.00, 0.00, 0.00, 0.00, 0.00, 0.00, 0.00
172, 13488.34, 37828.25, -310.40, 15644.30, 333.96, -185.90, 8094.15, -36443.96, -27659.59, 28767.74, -172.51, 12207.49, 0.00, 0.00, 0.00, 0.00, -0.03, 0.33, 0.95
173, 13503.69, 37856.16, -294.15, 15670.49, 354.92, -166.03, 8119.85, -36429.18, -27659.59, 28767.74, -172.51, 12207.49, 0.00, 0.00, 0.00, 0.00, 0.00, 0.00, 0.00
174, 13503.69, 37856.16, -294.15, 15670.49, 354.92, -166.03, 8119.85, -36429.18, -27657.29, 28778.52, -154.52, 12210.00, 0.00, 0.00, 0.00, 0.00, 0.00, 0.00, 0.00
175, 13496.09, 37844.61, -302.60, 15648.39, 340.73, -183.95, 8099.44, -36437.10, -27657.29, 28778.52, -154.52, 12210.00, 0.00, 0.00, 0.00, 0.00, 0.00, 0.00, 0.00
176, 13496.09, 37844.61, -302.60, 15648.39, 340.73, -183.95, 8099.44, -36437.10, -27658.20, 28763.41, -163.08, 12205.55, 0.00, 0.00, 0.00, 0.00, 0.00, 0.00, 0.00
177, 13504.86, 37852.84, -292.67, 15667.10, 355.06, -171.10, 8118.58, -36430.84, -27658.20, 28763.41, -163.08, 12205.55, 0.00, 0.00, 0.00, 0.00, 0.00, 0.00, 0.00
178, 13504.86, 37852.84, -292.67, 15667.10, 355.06, -171.10, 8118.58, -36430.84, -27661.62, 28779.41, -150.07, 12212.10, 0.00, 0.00, 0.00, 0.00, 0.00, 0.00, 0.00
179, 13487.47, 37828.58, -306.44, 15646.49, 337.87, -185.36, 8098.55, -36440.11, -27661.62, 28779.41, -150.07, 12212.10, 0.00, 0.00, 0.00, 0.00, 0.00, 0.00, 0.00
180, 13487.47, 37828.58, -306.44, 15646.49, 337.87, -185.36, 8098.55, -36440.11, -27661.38, 28758.80, -170.10, 12206.91, 0.00, 0.00, 0.00, 0.00, 0.00, 0.00, 0.00
181, 13495.49, 37849.53, -301.93, 15662.58, 345.89, -174.32, 8112.01, -36436.45, -27661.38, 28758.80, -170.10, 12206.91, 0.00, 0.00, 0.00, 0.00, 0.00, 0.00, 0.00
182, 13495.49, 37849.53, -301.93, 15662.58, 345.89, -174.32, 8112.01, -36436.45, -27665.92, 28779.57, -163.06, 12215.50, 0.00, 0.00, 0.00, 0.00, -0.03, 0.33, 0.95
183, 13496.56, 37831.82, -307.00, 15649.24, 337.87, -181.29, 8098.15, -36442.26, -27665.92, 28779.57, -163.06, 12215.50, 0.00, 0.00, 0.00, 0.00, 0.00, 0.00, 0.00
184, 13496.56, 37831.82, -307.00, 15649.24, 337.87, -181.29, 8098.15, -36442.26, -27664.04, 28754.94, -170.59, 12205.10, 0.00, 0.00, 0.00, 0.00, 0.00, 0.00, 0.00
185, 13490.13, 37840.36, -304.14, 15655.83, 345.04, -177.52, 8109.30, -36439.82, -27664.04, 28754.94, -170.59, 12205.10, 0.00, 0.00, 0.00, 0.00, 0.00, 0.00, 0.00
186, 13490.13, 37840.36, -304.14, 15655.83, 345.04, -177.52, 8109.30, -36439.82, -27668.60, 28780.78, -164.69, 12218.25, 0.00, 0.00, 0.00, 0.00, 0.00, 0.00, 0.00
187, 13486.39, 37823.31, -310.09, 15648.12, 336.95, -183.80, 8099.27, -36441.81, -27668.60, 28780.78, -164.69, 12218.25, 0.00, 0.00, 0.00, 0.00, 0.00, 0.00, 0.00
188, 13486.39, 37823.31, -310.09, 15648.12, 336.95, -183.80, 8099.27, -36441.81, -27658.74, 28755.90, -170.79, 12209.30, 0.00, 0.00, 0.00, 0.00, 0.00, 0.00, 0.00
189, 13494.08, 37838.26, -303.85, 15658.63, 344.44, -174.32, 8108.85, -36440.00, -27658.74, 28755.90, -170.79, 12209.30, 0.00, 0.00, 0.00, 0.00, 0.00, 0.00, 0.00
190, 13494.08, 37838.26, -303.85, 15658.63, 344.44, -174.32, 8108.85, -36440.00, -27672.29, 28780.98, -177.70, 12222.18, 0.00, 0.00, 0.00, 0.00, 0.00, 0.00, 0.00
191, 13493.01, 37834.98, -311.63, 15648.54, 334.09, -181.36, 8099.62, -36445.28, -27672.29, 28780.98, -177.70, 12222.18, 0.00, 0.00, 0.00, 0.00, 0.00, 0.00, 0.00
192, 13493.01, 37834.98, -311.63, 15648.54, 334.09, -181.36, 8099.62, -36445.28, -27658.88, 28758.42, -169.52, 12212.19, 0.00, 0.00, 0.00, 0.00, -0.03, 0.33, 0.96
193, 13493.28, 37835.38, -306.46, 15657.13, 344.31, -178.17, 8111.31, -36437.03, -27658.88, 28758.42, -169.52, 12212.19, 0.00, 0.00, 0.00, 0.00, 0.00, 0.00, 0.00
194, 13493.28, 37835.38, -306.46, 15657.13, 344.31, -178.17, 8111.31, -36437.03, -27662.50, 28786.92, -167.41, 12225.13, 0.00, 0.00, 0.00, 0.00, 0.00, 0.00, 0.00
195, 13493.68, 37839.82, -304.10, 15653.37, 344.69, -178.59, 8106.66, -36439.42, -27662.50, 28786.92, -167.41, 12225.13, 0.00, 0.00, 0.00, 0.00, 0.00, 0.00, 0.00
196, 13493.68, 37839.82, -304.10, 15653.37, 344.69, -178.59, 8106.66, -36439.42, -27654.61, 28755.74, -160.46, 12209.48, 0.00, 0.00, 0.00, 0.00, 0.00, 0.00, 0.00
197, 13496.16, 37840.45, -305.57, 15653.93, 343.48, -175.53, 8107.07, -36438.68, -27654.61, 28755.74, -160.46, 12209.48, 0.00, 0.00, 0.00, 0.00, 0.00, 0.00, 0.00
198, 13496.16, 37840.45, -305.57, 15653.93, 343.48, -175.53, 8107.07, -36438.68, -27659.39, 28785.80, -167.48, 12225.31, 0.00, 0.00, 0.00, 0.00, 0.00, 0.00, 0.00
199, 13490.73, 37835.20, -307.16, 15652.70, 343.26, -178.70, 8108.23, -36437.75, -27659.39, 28785.80, -167.48, 12225.31, 0.00, 0.00, 0.00, 0.00, 0.00, 0.00, 0.00
200, 13490.73, 37835.20, -307.16, 15652.70, 343.26, -178.70, 8108.23, -36437.75, -27658.25, 28754.47, -167.71, 12204.25, 0.00, 0.00, 0.00, 0.00, 0.00, 0.00, 0.00
201, 13487.29, 37833.37, -312.03, 15644.83, 332.15, -185.97, 8096.83, -36448.47, -27658.25, 28754.47, -167.71, 12204.25, 0.00, 0.00, 0.00, 0.00, 0.00, 0.00, 0.00
202, 13487.29, 37833.37, -312.03, 15644.83, 332.15, -185.97, 8096.83, -36448.47, -27666.25, 28776.57, -173.34, 12217.62, 0.00, 0.00, 0.00, 0.00, -0.03, 0.33, 0.96
203, 13501.93, 37847.25, -300.41, 15662.40, 346.07, -172.35, 8111.65, -36439.98, -27666.25, 28776.57, -173.34, 12217.62, 0.00, 0.00, 0.00, 0.00, 0.00, 0.00, 0.00
204, 13501.93, 37847.25, -300.41, 15662.40, 346.07, -172.35, 8111.65, -36439.98, -27658.94, 28755.99, -160.33, 12208.37, 0.00, 0.00, 0.00, 0.00, 0.00, 0.00, 0.00
205, 13500.01, 37838.13, -304.36, 15648.72, 338.38, -182.14, 8101.81, -36444.54, -27658.94, 28755.99, -160.33, 12208.37, 0.00, 0.00, 0.00, 0.00, 0.00, 0.00, 0.00
206, 13500.01, 37838.13, -304.36, 15648.72, 338.38, -182.14, 8101.81, -36444.54, -27663.41, 28777.09, -169.38, 12225.49, 0.00, 0.00, 0.00, 0.00, 0.00, 0.00, 0.00
207, 13502.51, 37840.05, -302.75, 15661.11, 347.75, -173.58, 8112.83, -36439.78, -27663.41, 28777.09, -169.38, 12225.49, 0.00, 0.00, 0.00, 0.00, 0.00, 0.00, 0.00
208, 13502.51, 37840.05, -302.75, 15661.11, 347.75, -173.58, 8112.83, -36439.78, -27663.88, 28755.79, -165.27, 12208.88, 0.00, 0.00, 0.00, 0.00, 0.00, 0.00, 0.00
209, 13494.62, 37835.87, -309.71, 15647.58, 334.56, -185.68, 8097.05, -36449.37, -27663.88, 28755.79, -165.27, 12208.88, 0.00, 0.00, 0.00, 0.00, 0.00, 0.00, 0.00
210, 13494.62, 37835.87, -309.71, 15647.58, 334.56, -185.68, 8097.05, -36449.37, -27664.19, 28768.86, -176.09, 12215.63, 0.00, 0.00, 0.00, 0.00, 0.00, 0.00, 0.00
211, 13503.14, 37848.83, -301.28, 15663.14, 348.55, -173.16, 8115.36, -36441.16, -27664.19, 28768.86, -176.09, 12215.63, 0.00, 0.00, 0.00, 0.00, -0.03, 0.32, 0.95
212, 13503.14, 37848.83, -301.28, 15663.14, 348.55, -173.16, 8115.36, -36441.16, -27664.51, 28757.64, -161.36, 12207.81, 0.00, 0.00, 0.00, 0.00, 0.00, 0.00, 0.00
213, 13497.01, 37839.96, -305.32, 15649.77, 336.66, -182.73, 8098.39, -36447.71, -27664.51, 28757.64, -161.36, 12207.81, 0.00, 0.00, 0.00, 0.00, 0.00, 0.00, 0.00
214, 13497.01, 37839.96, -305.32, 15649.77, 336.66, -182.73, 8098.39, -36447.71, -27657.85, 28770.90, -166.41, 12221.04, 0.00, 0.00, 0.00, 0.00, 0.00, 0.00, 0.00
215, 13511.38, 37850.78, -294.35, 15671.79, 352.58, -167.19, 8121.91, -36436.92, -27657.85, 28770.90, -166.41, 12221.04, 0.00, 0.00, 0.00, 0.00, 0.00, 0.00, 0.00
216, 13511.38, 37850.78, -294.35, 15671.79, 352.58, -167.19, 8121.91, -36436.92, -27661.18, 28762.83, -159.26, 12212.79, 0.00, 0.00, 0.00, 0.00, 0.00, 0.00, 0.00
217, 13490.64, 37823.49, -307.14, 15649.93, 335.43, -181.94, 8098.31, -36447.56, -27661.18, 28762.83, -159.26, 12212.79, 0.00, 0.00, 0.00, 0.00, 0.00, 0.00, 0.00
218, 13490.64, 37823.49, -307.14, 15649.93, 335.43, -181.94, 8098.31, -36447.56, -27657.06, 28765.42, -168.29, 12221.06, 0.00, 0.00, 0.00, 0.00, 0.00, 0.00, 0.00
219, 13508.43, 37851.07, -292.00, 15673.36, 358.28, -165.58, 8124.99, -36431.18, -27657.06, 28765.42, -168.29, 12221.06, 0.00, 0.00, 0.00, 0.00, 0.00, 0.00, 0.00
220, 13508.43, 37851.07, -292.00, 15673.36, 358.28, -165.58, 8124.99, -36431.18, -27653.55, 28777.96, -154.65, 12228.19, 0.00, 0.00, 0.00, 0.00, 0.00, 0.00, 0.00
221, 13498.40, 37836.16, -300.36, 15651.92, 343.48, -181.92, 8105.28, -36441.01, -27653.55, 28777.96, -154.65, 12228.19, 0.00, 0.00, 0.00, 0.00, -0.03, 0.33, 0.96
222, 13498.40, 37836.16, -300.36, 15651.92, 343.48, -181.92, 8105.28, -36441.01, -27648.88, 28769.20, -162.77, 12227.61, 0.00, 0.00, 0.00, 0.00, 0.00, 0.00, 0.00
223, 13510.09, 37847.76, -291.49, 15673.24, 359.37, -165.38, 8126.69, -36434.32, -27648.88, 28769.20, -162.77, 12227.61, 0.00, 0.00, 0.00, 0.00, 0.00, 0.00, 0.00
224, 13510.09, 37847.76, -291.49, 15673.24, 359.37, -165.38, 8126.69, -36434.32, -27649.89, 28785.34, -150.20, 12232.01, 0.00, 0.00, 0.00, 0.00, 0.00, 0.00, 0.00
225, 13499.69, 37849.73, -296.38, 15656.75, 349.76, -173.02, 8111.47, -36437.41, -27649.89, 28785.34, -150.20, 12232.01, 0.00, 0.00, 0.00, 0.00, 0.00, 0.00, 0.00
226, 13499.69, 37849.73, -296.38, 15656.75, 349.76, -173.02, 8111.47, -36437.41, -27646.16, 28769.71, -160.71, 12230.58, 0.00, 0.00, 0.00, 0.00, 0.00, 0.00, 0.00
227, 13504.83, 37858.00, -296.09, 15670.65, 358.61, -166.95, 8125.55, -36433.39, -27646.16, 28769.71, -160.71, 12230.58, 0.00, 0.00, 0.00, 0.00, 0.00, 0.00, 0.00
228, 13504.83, 37858.00, -296.09, 15670.65, 358.61, -166.95, 8125.55, -36433.39, -27658.74, 28781.60, -152.71, 12230.32, 0.00, 0.00, 0.00, 0.00, 0.00, 0.00, 0.00
229, 13488.27, 37816.91, -306.42, 15650.91, 341.71, -183.26, 8105.84, -36443.49, -27658.74, 28781.60, -152.71, 12230.32, 0.00, 0.00, 0.00, 0.00, 0.00, 0.00, 0.00
230, 13488.27, 37816.91, -306.42, 15650.91, 341.71, -183.26, 8105.84, -36443.49, -27649.71, 28760.93, -160.62, 12222.27, 0.00, 0.00, 0.00, 0.00, 0.00, 0.00, 0.00
231, 13500.61, 37842.84, -295.98, 15669.44, 356.31, -168.58, 8124.32, -36432.96, -27649.71, 28760.93, -160.62, 12222.27, 0.00, 0.00, 0.00, 0.00, -0.03, 0.33, 0.96
232, 13500.61, 37842.84, -295.98, 15669.44, 356.31, -168.58, 8124.32, -36432.96, -27655.86, 28779.75, -158.38, 12229.38, 0.00, 0.00, 0.00, 0.00, 0.00, 0.00, 0.00
233, 13498.73, 37835.63, -303.27, 15653.02, 344.62, -179.31, 8108.41, -36443.13, -27655.86, 28779.75, -158.38, 12229.38, 0.00, 0.00, 0.00, 0.00, 0.00, 0.00, 0.00
234, 13498.73, 37835.63, -303.27, 15653.02, 344.62, -179.31, 8108.41, -36443.13, -27655.21, 28750.60, -167.41, 12214.98, 0.00, 0.00, 0.00, 0.00, 0.00, 0.00, 0.00
235, 13492.21, 37835.13, -306.24, 15663.83, 346.92, -172.51, 8115.72, -36441.75, -27655.21, 28750.60, -167.41, 12214.98, 0.00, 0.00, 0.00, 0.00, 0.00, 0.00, 0.00
236, 13492.21, 37835.13, -306.24, 15663.83, 346.92, -172.51, 8115.72, -36441.75, -27663.61, 28778.67, -168.62, 12229.89, 0.00, 0.00, 0.00, 0.00, 0.00, 0.00, 0.00
237, 13485.68, 37819.89, -312.59, 15652.34, 338.65, -180.38, 8103.67, -36446.93, -27663.61, 28778.67, -168.62, 12229.89, 0.00, 0.00, 0.00, 0.00, 0.00, 0.00, 0.00
238, 13485.68, 37819.89, -312.59, 15652.34, 338.65, -180.38, 8103.67, -36446.93, -27654.16, 28751.34, -170.74, 12216.05, 0.00, 0.00, 0.00, 0.00, 0.00, 0.00, 0.00
239, 13496.63, 37846.51, -300.79, 15661.75, 351.12, -175.08, 8117.48, -36437.63, -27654.16, 28751.34, -170.74, 12216.05, 0.00, 0.00, 0.00, 0.00, 0.00, 0.00, 0.00
240, 13496.63, 37846.51, -300.79, 15661.75, 351.12, -175.08, 8117.48, -36437.63, -27651.52, 28783.75, -155.26, 12234.43, 0.00, 0.00, 0.00, 0.00, 0.00, 0.00, 0.00
241, 13500.54, 37848.52, -295.85, 15668.62, 354.10, -171.91, 8118.11, -36437.39, -27651.52, 28783.75, -155.26, 12234.43, 0.00, 0.00, 0.00, 0.00, -0.03, 0.33, 0.96
242, 13500.54, 37848.52, -295.85, 15668.62, 354.10, -171.91, 8118.11, -36437.39, -27645.33, 28757.42, -156.62, 12225.04, 0.00, 0.00, 0.00, 0.00, 0.00, 0.00, 0.00
243, 13505.21, 37839.47, -295.29, 15666.34, 352.38, -172.49, 8119.70, -36437.93, -27645.33, 28757.42, -156.62, 12225.04, 0.00, 0.00, 0.00, 0.00, 0.00, 0.00, 0.00
244, 13505.21, 37839.47, -295.29, 15666.34, 352.38, -172.49, 8119.70, -36437.93, -27651.97, 28788.15, -155.41, 12239.01, 0.00, 0.00, 0.00, 0.00, 0.00, 0.00, 0.00
245, 13516.28, 37868.64, -291.04, 15671.28, 357.74, -168.31, 8121.93, -36435.73, -27651.97, 28788.15, -155.41, 12239.01, 0.00, 0.00, 0.00, 0.00, 0.00, 0.00, 0.00
246, 13516.28, 37868.64, -291.04, 15671.28, 357.74, -168.31, 8121.93, -36435.73, -27648.55, 28757.57, -147.41, 12222.18, 0.00, 0.00, 0.00, 0.00, 0.00, 0.00, 0.00
247, 13497.57, 37827.80, -303.36, 15661.02, 348.20, -175.82, 8113.10, -36443.09, -27648.55, 28757.57, -147.41, 12222.18, 0.00, 0.00, 0.00, 0.00, 0.00, 0.00, 0.00
248, 13497.57, 37827.80, -303.36, 15661.02, 348.20, -175.82, 8113.10, -36443.09, -27653.51, 28781.98, -162.70, 12235.30, 0.00, 0.00, 0.00, 0.00, 0.00, 0.00, 0.00
249, 13496.63, 37836.72, -298.57, 15667.75, 354.74, -168.80, 8120.86, -36436.89, -27653.51, 28781.98, -162.70, 12235.30, 0.00, 0.00, 0.00, 0.00, 0.00, 0.00, 0.00
250, 13496.63, 37836.72, -298.57, 15667.75, 354.74, -168.80, 8120.86, -36436.89, -27648.26, 28758.02, -154.96, 12222.34, 0.00, 0.00, 0.00, 0.00, -0.03, 0.33, 0.96
251, 13498.89, 37838.06, -300.79, 15661.20, 346.63, -177.29, 8112.03, -36443.22, -27648.26, 28758.02, -154.96, 12222.34, 0.00, 0.00, 0.00, 0.00, 0.00, 0.00, 0.00
252, 13498.89, 37838.06, -300.79, 15661.20, 346.63, -177.29, 8112.03, -36443.22, -27654.16, 28775.41, -160.69, 12232.98, 0.00, 0.00, 0.00, 0.00, 0.00, 0.00, 0.00
253, 13512.68, 37859.07, -290.15, 15672.60, 359.15, -167.75, 8125.42, -36435.29, -27654.16, 28775.41, -160.69, 12232.98, 0.00, 0.00, 0.00, 0.00, 0.00, 0.00, 0.00
254, 13512.68, 37859.07, -290.15, 15672.60, 359.15, -167.75, 8125.42, -36435.29, -27644.68, 28761.49, -147.79, 12226.31, 0.00, 0.00, 0.00, 0.00, 0.00, 0.00, 0.00
255, 13500.12, 37850.82, -296.09, 15659.77, 350.41, -178.64, 8113.93, -36440.79, -27644.68, 28761.49, -147.79, 12226.31, 0.00, 0.00, 0.00, 0.00, 0.00, 0.00, 0.00
0, 13500.12, 37850.82, -296.09, 15659.77, 350.41, -178.64, 8113.93, -36440.79, -27646.11, 28778.56, -154.90, 12238.32, 0.00, 0.00, 0.00, 0.00, 0.00, 0.00, 0.00
1, 13510.49, 37853.50, -289.95, 15674.76, 364.76, -164.37, 8130.89, -36432.56, -27646.11, 28778.56, -154.90, 12238.32, 0.00, 0.00, 0.00, 0.00, 0.00, 0.00, 0.00
2, 13510.49, 37853.50, -289.95, 15674.76, 364.76, -164.37, 8130.89, -36432.56, -27643.50, 28768.21, -144.08, 12235.23, 0.00, 0.00, 0.00, 0.00, 0.00, 0.00, 0.00
3, 13497.77, 37835.96, -303.42, 15654.20, 347.46, -178.55, 8109.91, -36443.96, -27643.50, 28768.21, -144.08, 12235.23, 0.00, 0.00, 0.00, 0.00, 0.00, 0.00, 0.00
4, 13497.77, 37835.96, -303.42, 15654.20, 347.46, -178.55, 8109.91, -36443.96, -27642.54, 28776.02, -155.34, 12239.39, 0.00, 0.00, 0.00, 0.00, -0.03, 0.33, 0.96
5, 13504.52, 37853.71, -292.58, 15673.62, 366.50, -164.35, 8133.58, -36428.31, -27642.54, 28776.02, -155.34, 12239.39, 0.00, 0.00, 0.00, 0.00, 0.00, 0.00, 0.00
6, 13504.52, 37853.71, -292.58, 15673.62, 366.50, -164.35, 8133.58, -36428.31, -27644.10, 28773.09, -147.50, 12234.58, 0.00, 0.00, 0.00, 0.00, 0.00, 0.00, 0.00
7, 13497.97, 37836.41, -303.31, 15654.60, 348.62, -177.76, 8113.08, -36441.50, -27644.10, 28773.09, -147.50, 12234.58, 0.00, 0.00, 0.00, 0.00, 0.00, 0.00, 0.00
8, 13497.97, 37836.41, -303.31, 15654.60, 348.62, -177.76, 8113.08, -36441.50, -27643.88, 28773.42, -153.96, 12239.57, 0.00, 0.00, 0.00, 0.00, 0.00, 0.00, 0.00
9, 13509.75, 37855.20, -290.86, 15676.08, 367.49, -161.65, 8135.34, -36428.29, -27643.88, 28773.42, -153.96, 12239.57, 0.00, 0.00, 0.00, 0.00, 0.00, 0.00, 0.00
10, 13509.75, 37855.20, -290.86, 15676.08, 367.49, -161.65, 8135.34, -36428.29, -27640.28, 28780.60, -138.87, 12242.83, 0.00, 0.00, 0.00, 0.00, 0.00, 0.00, 0.00
11, 13496.59, 37842.06, -300.47, 15654.74, 351.73, -176.58, 8115.38, -36437.10, -27640.28, 28780.60, -138.87, 12242.83, 0.00, 0.00, 0.00, 0.00, 0.00, 0.00, 0.00
12, 13496.59, 37842.06, -300.47, 15654.74, 351.73, -176.58, 8115.38, -36437.10, -27639.32, 28774.96, -156.53, 12244.62, 0.00, 0.00, 0.00, 0.00, 0.00, 0.00, 0.00
13, 13511.41, 37862.51, -291.96, 15674.74, 367.69, -162.83, 8137.47, -36427.53, -27639.32, 28774.96, -156.53, 12244.62, 0.00, 0.00, 0.00, 0.00, 0.00, 0.00, 0.00
14, 13511.41, 37862.51, -291.96, 15674.74, 367.69, -162.83, 8137.47, -36427.53, -27641.80, 28781.49, -141.49, 12243.82, 0.00, 0.00, 0.00, 0.00, -0.03, 0.33, 0.96
15, 13494.82, 37832.65, -306.44, 15651.72, 348.82, -178.34, 8113.93, -36439.00, -27641.80, 28781.49, -141.49, 12243.82, 0.00, 0.00, 0.00, 0.00, 0.00, 0.00, 0.00
16, 13494.82, 37832.65, -306.44, 15651.72, 348.82, -178.34, 8113.93, -36439.00, -27634.64, 28770.99, -150.40, 12243.66, 0.00, 0.00, 0.00, 0.00, 0.00, 0.00, 0.00
17, 13511.20, 37859.00, -291.53, 15675.79, 368.36, -162.54, 8137.58, -36426.55, -27634.64, 28770.99, -150.40, 12243.66, 0.00, 0.00, 0.00, 0.00, 0.00, 0.00, 0.00
18, 13511.20, 37859.00, -291.53, 15675.79, 368.36, -162.54, 8137.58, -36426.55, -27643.68, 28782.47, -141.51, 12246.52, 0.00, 0.00, 0.00, 0.00, 0.00, 0.00, 0.00
19, 13494.17, 37826.75, -308.72, 15650.22, 346.56, -180.85, 8113.10, -36441.48, -27643.68, 28782.47, -141.51, 12246.52, 0.00, 0.00, 0.00, 0.00, 0.00, 0.00, 0.00
20, 13494.17, 37826.75, -308.72, 15650.22, 346.56, -180.85, 8113.10, -36441.48, -27639.45, 28763.14, -156.51, 12236.71, 0.00, 0.00, 0.00, 0.00, 0.00, 0.00, 0.00
21, 13501.62, 37848.10, -298.98, 15669.00, 362.21, -167.01, 8132.75, -36430.26, -27639.45, 28763.14, -156.51, 12236.71, 0.00, 0.00, 0.00, 0.00, 0.00, 0.00, 0.00
22, 13501.62, 37848.10, -298.98, 15669.00, 362.21, -167.01, 8132.75, -36430.26, -27639.59, 28790.65, -143.59, 12251.75, 0.00, 0.00, 0.00, 0.00, 0.00, 0.00, 0.00
23, 13497.06, 37844.99, -301.64, 15657.11, 355.55, -174.86, 8122.18, -36431.44, -27639.59, 28790.65, -143.59, 12251.75, 0.00, 0.00, 0.00, 0.00, 0.00, 0.00, 0.00
24, 13497.06, 37844.99, -301.64, 15657.11, 355.55, -174.86, 8122.18, -36431.44, -27631.58, 28766.54, -151.16, 12242.77, 0.00, 0.00, 0.00, 0.00, -0.03, 0.33, 0.96
25, 13501.55, 37844.00, -300.14, 15671.46, 363.08, -164.29, 8134.11, -36428.65, -27631.58, 28766.54, -151.16, 12242.77, 0.00, 0.00, 0.00, 0.00, 0.00, 0.00, 0.00
26, 13501.55, 37844.00, -300.14, 15671.46, 363.08, -164.29, 8134.11, -36428.65, -27636.10, 28792.44, -143.68, 12255.98, 0.00, 0.00, 0.00, 0.00, 0.00, 0.00, 0.00
27, 13500.43, 37844.00, -303.16, 15659.12, 358.16, -172.31, 8123.52, -36431.51, -27636.10, 28792.44, -143.68, 12255.98, 0.00, 0.00, 0.00, 0.00, 0.00, 0.00, 0.00
28, 13500.43, 37844.00, -303.16, 15659.12, 358.16, -172.31, 8123.52, -36431.51, -27638.00, 28757.28, -153.74, 12235.41, 0.00, 0.00, 0.00, 0.00, 0.00, 0.00, 0.00
29, 13497.61, 37839.20, -300.59, 15668.10, 360.38, -168.51, 8131.03, -36431.73, -27638.00, 28757.28, -153.74, 12235.41, 0.00, 0.00, 0.00, 0.00, 0.00, 0.00, 0.00
30, 13497.61, 37839.20, -300.59, 15668.10, 360.38, -168.51, 8131.03, -36431.73, -27643.03, 28786.99, -149.87, 12253.38, 0.00, 0.00, 0.00, 0.00, 0.00, 0.00, 0.00
31, 13502.24, 37849.79, -296.47, 15667.14, 359.04, -166.52, 8127.92, -36429.81, -27643.03, 28786.99, -149.87, 12253.38, 0.00, 0.00, 0.00, 0.00, 0.00, 0.00, 0.00
32, 13502.24, 37849.79, -296.47, 15667.14, 359.04, -166.52, 8127.92, -36429.81, -27632.46, 28762.43, -144.48, 12244.67, 0.00, 0.00, 0.00, 0.00, 0.00, 0.00, 0.00
33, 13502.08, 37847.85, -297.57, 15667.88, 361.41, -166.52, 8129.98, -36430.59, -27632.46, 28762.43, -144.48, 12244.67, 0.00, 0.00, 0.00, 0.00, 0.00, 0.00, 0.00
34, 13502.08, 37847.85, -297.57, 15667.88, 361.41, -166.52, 8129.98, -36430.59, -27641.48, 28786.23, -151.81, 12254.37, 0.00, 0.00, 0.00, 0.00, -0.03, 0.33, 0.96
35, 13501.15, 37839.22, -299.98, 15666.83, 362.01, -168.00, 8127.21, -36431.55, -27641.48, 28786.23, -151.81, 12254.37, 0.00, 0.00, 0.00, 0.00, 0.00, 0.00, 0.00
36, 13501.15, 37839.22, -299.98, 15666.83, 362.01, -168.00, 8127.21, -36431.55, -27634.24, 28758.60, -146.16, 12242.50, 0.00, 0.00, 0.00, 0.00, 0.00, 0.00, 0.00
37, 13498.40, 37836.70, -301.66, 15662.85, 357.20, -172.38, 8126.04, -36434.39, -27634.24, 28758.60, -146.16, 12242.50, 0.00, 0.00, 0.00, 0.00, 0.00, 0.00, 0.00
38, 13498.40, 37836.70, -301.66, 15662.85, 357.20, -172.38, 8126.04, -36434.39, -27641.35, 28787.15, -152.15, 12259.33, 0.00, 0.00, 0.00, 0.00, 0.00, 0.00, 0.00
39, 13503.49, 37851.65, -297.75, 15672.93, 362.41, -164.26, 8133.42, -36430.64, -27641.35, 28787.15, -152.15, 12259.33, 0.00, 0.00, 0.00, 0.00, 0.00, 0.00, 0.00
40, 13503.49, 37851.65, -297.75, 15672.93, 362.41, -164.26, 8133.42, -36430.64, -27642.42, 28756.55, -152.28, 12239.35, 0.00, 0.00, 0.00, 0.00, 0.00, 0.00, 0.00
41, 13491.36, 37837.70, -306.24, 15660.86, 351.57, -173.67, 8123.20, -36439.33, -27642.42, 28756.55, -152.28, 12239.35, 0.00, 0.00, 0.00, 0.00, 0.00, 0.00, 0.00
42, 13491.36, 37837.70, -306.24, 15660.86, 351.57, -173.67, 8123.20, -36439.33, -27643.85, 28782.16, -152.24, 12254.03, 0.00, 0.00, 0.00, 0.00, 0.00, 0.00, 0.00
43, 13499.49, 37840.14, -299.94, 15674.81, 364.20, -164.22, 8134.51, -36431.80, -27643.85, 28782.16, -152.24, 12254.03, 0.00, 0.00, 0.00, 0.00, -0.03, 0.33, 0.96
44, 13499.49, 37840.14, -299.94, 15674.81, 364.20, -164.22, 8134.51, -36431.80, -27640.17, 28760.12, -148.68, 12240.49, 0.00, 0.00, 0.00, 0.00, 0.00, 0.00, 0.00
45, 13492.94, 37835.82, -303.87, 15662.94, 354.34, -171.21, 8122.13, -36438.46, -27640.17, 28760.12, -148.68, 12240.49, 0.00, 0.00, 0.00, 0.00, 0.00, 0.00, 0.00
46, 13492.94, 37835.82, -303.87, 15662.94, 354.34, -171.21, 8122.13, -36438.46, -27637.73, 28779.44, -151.03, 12255.08, 0.00, 0.00, 0.00, 0.00, 0.00, 0.00, 0.00
47, 13509.66, 37846.53, -296.34, 15680.31, 369.38, -161.63, 8141.62, -36427.06, -27637.73, 28779.44, -151.03, 12255.08, 0.00, 0.00, 0.00, 0.00, 0.00, 0.00, 0.00
48, 13509.66, 37846.53, -296.34, 15680.31, 369.38, -161.63, 8141.62, -36427.06, -27633.84, 28768.86, -142.92, 12248.00, 0.00, 0.00, 0.00, 0.00, 0.00, 0.00, 0.00
49, 13497.19, 37847.96, -300.92, 15663.68, 358.57, -173.65, 8125.93, -36434.15, -27633.84, 28768.86, -142.92, 12248.00, 0.00, 0.00, 0.00, 0.00, 0.00, 0.00, 0.00
50, 13497.19, 37847.96, -300.92, 15663.68, 358.57, -173.65, 8125.93, -36434.15, -27635.34, 28777.04, -152.24, 12255.53, 0.00, 0.00, 0.00, 0.00, 0.00, 0.00, 0.00
51, 13506.58, 37845.04, -293.75, 15680.04, 370.12, -160.60, 8142.07, -36426.46, -27635.34, 28777.04, -152.24, 12255.53, 0.00, 0.00, 0.00, 0.00, 0.00, 0.00, 0.00
52, 13506.58, 37845.04, -293.75, 15680.04, 370.12, -160.60, 8142.07, -36426.46, -27636.59, 28770.45, -142.49, 12248.91, 0.00, 0.00, 0.00, 0.00, 0.00, 0.00, 0.00
53, 13486.82, 37819.95, -310.73, 15659.48, 349.40, -175.89, 8117.46, -36441.81, -27636.59, 28770.45, -142.49, 12248.91, 0.00, 0.00, 0.00, 0.00, -0.03, 0.33, 0.97
54, 13486.82, 37819.95, -310.73, 15659.48, 349.40, -175.89, 8117.46, -36441.81, -27643.65, 28766.76, -161.67, 12248.73, 0.00, 0.00, 0.00, 0.00, 0.00, 0.00, 0.00
55, 13502.82, 37844.61, -300.52, 15675.99, 366.52, -162.70, 8140.86, -36431.69, -27643.65, 28766.76, -161.67, 12248.73, 0.00, 0.00, 0.00, 0.00, 0.00, 0.00, 0.00
56, 13502.82, 37844.61, -300.52, 15675.99, 366.52, -162.70, 8140.86, -36431.69, -27637.37, 28772.62, -146.96, 12251.86, 0.00, 0.00, 0.00, 0.00, 0.00, 0.00, 0.00
57, 13487.56, 37829.28, -309.64, 15661.11, 353.25, -175.44, 8123.50, -36437.97, -27637.37, 28772.62, -146.96, 12251.86, 0.00, 0.00, 0.00, 0.00, 0.00, 0.00, 0.00
58, 13487.56, 37829.28, -309.64, 15661.11, 353.25, -175.44, 8123.50, -36437.97, -27636.99, 28768.59, -159.81, 12251.15, 0.00, 0.00, 0.00, 0.00, 0.00, 0.00, 0.00
59, 13491.71, 37834.30, -309.10, 15674.43, 363.55, -162.79, 8140.93, -36432.02, -27636.99, 28768.59, -159.81, 12251.15, 0.00, 0.00, 0.00, 0.00, 0.00, 0.00, 0.00
60, 13491.71, 37834.30, -309.10, 15674.43, 363.55, -162.79, 8140.93, -36432.02, -27639.54, 28778.81, -151.86, 12253.70, 0.00, 0.00, 0.00, 0.00, 0.00, 0.00, 0.00
61, 13484.25, 37819.98, -314.67, 15655.29, 350.30, -175.77, 8120.37, -36440.20, -27639.54, 28778.81, -151.86, 12253.70, 0.00, 0.00, 0.00, 0.00, 0.00, 0.00, 0.00
62, 13484.25, 37819.98, -314.67, 15655.29, 350.30, -175.77, 8120.37, -36440.20, -27632.14, 28769.69, -158.47, 12253.27, 0.00, 0.00, 0.00, 0.00, 0.00, 0.00, 0.00
63, 13491.74, 37844.77, -305.21, 15673.49, 364.47, -161.80, 8140.19, -36431.29, -27632.14, 28769.69, -158.47, 12253.27, 0.00, 0.00, 0.00, 0.00, -0.03, 0.33, 0.96
64, 13491.74, 37844.77, -305.21, 15673.49, 364.47, -161.80, 8140.19, -36431.29, -27636.54, 28780.20, -144.17, 12255.42, 0.00, 0.00, 0.00, 0.00, 0.00, 0.00, 0.00
65, 13488.00, 37836.05, -306.71, 15659.41, 359.35, -171.26, 8129.11, -36432.85, -27636.54, 28780.20, -144.17, 12255.42, 0.00, 0.00, 0.00, 0.00, 0.00, 0.00, 0.00
66, 13488.00, 37836.05, -306.71, 15659.41, 359.35, -171.26, 8129.11, -36432.85, -27623.65, 28771.12, -141.84, 12255.91, 0.00, 0.00, 0.00, 0.00, 0.00, 0.00, 0.00
67, 13498.53, 37844.96, -299.25, 15676.73, 369.81, -162.36, 8146.29, -36426.39, -27623.65, 28771.12, -141.84, 12255.91, 0.00, 0.00, 0.00, 0.00, 0.00, 0.00, 0.00
68, 13498.53, 37844.96, -299.25, 15676.73, 369.81, -162.36, 8146.29, -36426.39, -27631.09, 28787.79, -141.80, 12263.89, 0.00, 0.00, 0.00, 0.00, 0.00, 0.00, 0.00
69, 13481.37, 37826.55, -309.97, 15656.50, 356.53, -176.09, 8127.92, -36433.36, -27631.09, 28787.79, -141.80, 12263.89, 0.00, 0.00, 0.00, 0.00, 0.00, 0.00, 0.00
70, 13481.37, 37826.55, -309.97, 15656.50, 356.53, -176.09, 8127.92, -36433.36, -27630.91, 28762.43, -151.08, 12252.06, 0.00, 0.00, 0.00, 0.00, 0.00, 0.00, 0.00
71, 13491.56, 37838.91, -304.59, 15671.97, 363.39, -163.93, 8140.10, -36432.22, -27630.91, 28762.43, -151.08, 12252.06, 0.00, 0.00, 0.00, 0.00, 0.00, 0.00, 0.00
72, 13491.56, 37838.91, -304.59, 15671.97, 363.39, -163.93, 8140.10, -36432.22, -27637.01, 28788.15, -148.08, 12265.23, 0.00, 0.00, 0.00, 0.00, 0.00, 0.00, 0.00
73, 13490.31, 37827.69, -305.21, 15665.20, 356.82, -168.55, 8129.71, -36436.67, -27637.01, 28788.15, -148.08, 12265.23, 0.00, 0.00, 0.00, 0.00, -0.03, 0.33, 0.95
74, 13490.31, 37827.69, -305.21, 15665.20, 356.82, -168.55, 8129.71, -36436.67, -27634.56, 28758.80, -150.00, 12251.64, 0.00, 0.00, 0.00, 0.00, 0.00, 0.00, 0.00
75, 13495.47, 37837.75, -303.09, 15673.51, 363.35, -162.83, 8139.01, -36433.03, -27634.56, 28758.80, -150.00, 12251.64, 0.00, 0.00, 0.00, 0.00, 0.00, 0.00, 0.00
76, 13495.47, 37837.75, -303.09, 15673.51, 363.35, -162.83, 8139.01, -36433.03, -27639.76, 28784.66, -147.43, 12265.14, 0.00, 0.00, 0.00, 0.00, 0.00, 0.00, 0.00
77, 13491.83, 37827.62, -305.91, 15666.69, 358.34, -168.76, 8131.41, -36435.62, -27639.76, 28784.66, -147.43, 12265.14, 0.00, 0.00, 0.00, 0.00, 0.00, 0.00, 0.00
78, 13491.83, 37827.62, -305.91, 15666.69, 358.34, -168.76, 8131.41, -36435.62, -27636.61, 28755.90, -152.37, 12248.87, 0.00, 0.00, 0.00, 0.00, 0.00, 0.00, 0.00
79, 13487.85, 37829.61, -309.82, 15668.30, 358.61, -169.25, 8135.63, -36436.63, -27636.61, 28755.90, -152.37, 12248.87, 0.00, 0.00, 0.00, 0.00, 0.00, 0.00, 0.00
80, 13487.85, 37829.61, -309.82, 15668.30, 358.61, -169.25, 8135.63, -36436.63, -27643.21, 28781.60, -155.55, 12263.75, 0.00, 0.00, 0.00, 0.00, 0.00, 0.00, 0.00
81, 13483.33, 37829.88, -310.82, 15665.64, 356.56, -167.53, 8133.67, -36437.37, -27643.21, 28781.60, -155.55, 12263.75, 0.00, 0.00, 0.00, 0.00, 0.00, 0.00, 0.00
82, 13483.33, 37829.88, -310.82, 15665.64, 356.56, -167.53, 8133.67, -36437.37, -27636.30, 28758.11, -156.89, 12255.28, 0.00, 0.00, 0.00, 0.00, -0.03, 0.33, 0.95
83, 13485.37, 37822.19, -313.68, 15667.70, 353.02, -169.72, 8132.84, -36439.67, -27636.30, 28758.11, -156.89, 12255.28, 0.00, 0.00, 0.00, 0.00, 0.00, 0.00, 0.00
84, 13485.37, 37822.19, -313.68, 15667.70, 353.02, -169.72, 8132.84, -36439.67, -27642.22, 28782.23, -156.86, 12266.86, 0.00, 0.00, 0.00, 0.00, 0.00, 0.00, 0.00
85, 13490.89, 37830.15, -307.09, 15670.29, 358.23, -165.74, 8135.52, -36436.67, -27642.22, 28782.23, -156.86, 12266.86, 0.00, 0.00, 0.00, 0.00, 0.00, 0.00, 0.00
86, 13490.89, 37830.15, -307.09, 15670.29, 358.23, -165.74, 8135.52, -36436.67, -27631.87, 28760.26, -149.04, 12259.64, 0.00, 0.00, 0.00, 0.00, 0.00, 0.00, 0.00
87, 13487.74, 37827.96, -310.20, 15667.37, 357.58, -168.15, 8134.25, -36436.20, -27631.87, 28760.26, -149.04, 12259.64, 0.00, 0.00, 0.00, 0.00, 0.00, 0.00, 0.00
88, 13487.74, 37827.96, -310.20, 15667.37, 357.58, -168.15, 8134.25, -36436.20, -27631.67, 28787.23, -149.80, 12274.13, 0.00, 0.00, 0.00, 0.00, 0.00, 0.00, 0.00
89, 13494.93, 37841.91, -302.37, 15677.54, 365.25, -160.46, 8144.69, -36429.88, -27631.67, 28787.23, -149.80, 12274.13, 0.00, 0.00, 0.00, 0.00, 0.00, 0.00, 0.00
90, 13494.93, 37841.91, -302.37, 15677.54, 365.25, -160.46, 8144.69, -36429.88, -27632.34, 28759.23, -148.91, 12260.11, 0.00, 0.00, 0.00, 0.00, 0.00, 0.00, 0.00
91, 13480.87, 37810.68, -316.01, 15662.20, 351.84, -173.40, 8129.91, -36440.85, -27632.34, 28759.23, -148.91, 12260.11, 0.00, 0.00, 0.00, 0.00, 0.00, 0.00, 0.00
92, 13480.87, 37810.68, -316.01, 15662.20, 351.84, -173.40, 8129.91, -36440.85, -27640.14, 28778.12, -160.84, 12268.54, 0.00, 0.00, 0.00, 0.00, -0.03, 0.33, 0.95
93, 13483.64, 37831.87, -309.59, 15672.46, 359.91, -167.44, 8140.13, -36434.59, -27640.14, 28778.12, -160.84, 12268.54, 0.00, 0.00, 0.00, 0.00, 0.00, 0.00, 0.00
94, 13483.64, 37831.87, -309.59, 15672.46, 359.91, -167.44, 8140.13, -36434.59, -27636.12, 28763.21, -152.30, 12260.92, 0.00, 0.00, 0.00, 0.00, 0.00, 0.00, 0.00
95, 13482.66, 37813.85, -319.09, 15659.92, 346.56, -177.05, 8126.78, -36440.47, -27636.12, 28763.21, -152.30, 12260.92, 0.00, 0.00, 0.00, 0.00, 0.00, 0.00, 0.00
96, 13482.66, 37813.85, -319.09, 15659.92, 346.56, -177.05, 8126.78, -36440.47, -27640.63, 28774.14, -162.25, 12268.07, 0.00, 0.00, 0.00, 0.00, 0.00, 0.00, 0.00
97, 13488.58, 37836.38, -311.81, 15674.67, 358.57, -161.85, 8142.27, -36434.73, -27640.63, 28774.14, -162.25, 12268.07, 0.00, 0.00, 0.00, 0.00, 0.00, 0.00, 0.00
98, 13488.58, 37836.38, -311.81, 15674.67, 358.57, -161.85, 8142.27, -36434.73, -27638.80, 28760.21, -152.89, 12257.41, 0.00, 0.00, 0.00, 0.00, 0.00, 0.00, 0.00
99, 13484.38, 37816.89, -319.92, 15658.18, 345.51, -176.53, 8124.95, -36443.02, -27638.80, 28760.21, -152.89, 12257.41, 0.00, 0.00, 0.00, 0.00, 0.00, 0.00, 0.00
100, 13484.38, 37816.89, -319.92, 15658.18, 345.51, -176.53, 8124.95, -36443.02, -27640.50, 28767.70, -160.82, 12261.38, 0.00, 0.00, 0.00, 0.00, 0.00, 0.00, 0.00
101, 13492.41, 37836.79, -308.54, 15675.23, 362.37, -162.97, 8147.88, -36430.55, -27640.50, 28767.70, -160.82, 12261.38, 0.00, 0.00, 0.00, 0.00, 0.00, 0.00, 0.00
102, 13492.41, 37836.79, -308.54, 15675.23, 362.37, -162.97, 8147.88, -36430.55, -27637.21, 28766.98, -146.87, 12260.40, 0.00, 0.00, 0.00, 0.00, -0.03, 0.33, 0.95
103, 13484.76, 37818.99, -319.63, 15656.55, 346.01, -179.93, 8126.80, -36443.07, -27637.21, 28766.98, -146.87, 12260.40, 0.00, 0.00, 0.00, 0.00, 0.00, 0.00, 0.00
104, 13484.76, 37818.99, -319.63, 15656.55, 346.01, -179.93, 8126.80, -36443.07, -27639.29, 28764.15, -161.25, 12261.56, 0.00, 0.00, 0.00, 0.00, 0.00, 0.00, 0.00
105, 13489.81, 37834.11, -306.67, 15680.75, 366.26, -158.94, 8151.64, -36431.11, -27639.29, 28764.15, -161.25, 12261.56, 0.00, 0.00, 0.00, 0.00, 0.00, 0.00, 0.00
106, 13489.81, 37834.11, -306.67, 15680.75, 366.26, -158.94, 8151.64, -36431.11, -27638.78, 28771.81, -145.35, 12265.23, 0.00, 0.00, 0.00, 0.00, 0.00, 0.00, 0.00
107, 13480.56, 37829.81, -317.15, 15654.49, 346.97, -181.83, 8125.53, -36445.28, -27638.78, 28771.81, -145.35, 12265.23, 0.00, 0.00, 0.00, 0.00, 0.00, 0.00, 0.00
108, 13480.56, 37829.81, -317.15, 15654.49, 346.97, -181.83, 8125.53, -36445.28, -27640.59, 28755.25, -155.32, 12255.62, 0.00, 0.00, 0.00, 0.00, 0.00, 0.00, 0.00
109, 13490.89, 37838.17, -305.21, 15674.99, 364.71, -163.73, 8148.04, -36433.99, -27640.59, 28755.25, -155.32, 12255.62, 0.00, 0.00, 0.00, 0.00, 0.00, 0.00, 0.00
110, 13490.89, 37838.17, -305.21, 15674.99, 364.71, -163.73, 8148.04, -36433.99, -27637.64, 28775.01, -137.35, 12265.59, 0.00, 0.00, 0.00, 0.00, 0.00, 0.00, 0.00
111, 13489.34, 37826.48, -313.21, 15659.99, 350.16, -173.70, 8129.46, -36441.30, -27637.64, 28775.01, -137.35, 12265.59, 0.00, 0.00, 0.00, 0.00, 0.00, 0.00, 0.00
112, 13489.34, 37826.48, -313.21, 15659.99, 350.16, -173.70, 8129.46, -36441.30, -27632.32, 28762.31, -151.12, 12265.16, 0.00, 0.00, 0.00, 0.00, -0.03, 0.34, 0.95
113, 13502.73, 37841.75, -303.34, 15679.41, 367.62, -160.04, 8150.25, -36430.48, -27632.32, 28762.31, -151.12, 12265.16, 0.00, 0.00, 0.00, 0.00, 0.00, 0.00, 0.00
114, 13502.73, 37841.75, -303.34, 15679.41, 367.62, -160.04, 8150.25, -36430.48, -27642.20, 28778.67, -148.19, 12269.63, 0.00, 0.00, 0.00, 0.00, 0.00, 0.00, 0.00
115, 13488.92, 37839.63, -314.69, 15658.40, 349.49, -172.53, 8130.16, -36440.83, -27642.20, 28778.67, -148.19, 12269.63, 0.00, 0.00, 0.00, 0.00, 0.00, 0.00, 0.00
116, 13488.92, 37839.63, -314.69, 15658.40, 349.49, -172.53, 8130.16, -36440.83, -27629.86, 28758.42, -145.13, 12265.52, 0.00, 0.00, 0.00, 0.00, 0.00, 0.00, 0.00
117, 13492.83, 37832.50, -309.68, 15675.90, 362.63, -162.68, 8149.60, -36430.44, -27629.86, 28758.42, -145.13, 12265.52, 0.00, 0.00, 0.00, 0.00, 0.00, 0.00, 0.00
118, 13492.83, 37832.50, -309.68, 15675.90, 362.63, -162.68, 8149.60, -36430.44, -27633.57, 28780.46, -143.72, 12271.00, 0.00, 0.00, 0.00, 0.00, 0.00, 0.00, 0.00
119, 13480.74, 37820.78, -318.62, 15654.00, 350.10, -179.82, 8131.90, -36440.59, -27633.57, 28780.46, -143.72, 12271.00, 0.00, 0.00, 0.00, 0.00, 0.00, 0.00, 0.00
120, 13480.74, 37820.78, -318.62, 15654.00, 350.10, -179.82, 8131.90, -36440.59, -27629.68, 28755.18, -149.29, 12261.18, 0.00, 0.00, 0.00, 0.00, 0.00, 0.00, 0.00
121, 13485.46, 37834.39, -309.66, 15669.85, 364.40, -164.75, 8150.36, -36429.79, -27629.68, 28755.18, -149.29, 12261.18, 0.00, 0.00, 0.00, 0.00, -0.03, 0.34, 0.96
122, 13485.46, 37834.39, -309.66, 15669.85, 364.40, -164.75, 8150.36, -36429.79, -27630.06, 28787.66, -140.86, 12281.77, 0.00, 0.00, 0.00, 0.00, 0.00, 0.00, 0.00
123, 13485.05, 37829.41, -313.82, 15661.87, 358.37, -170.68, 8141.94, -36432.05, -27630.06, 28787.66, -140.86, 12281.77, 0.00, 0.00, 0.00, 0.00, 0.00, 0.00, 0.00
124, 13485.05, 37829.41, -313.82, 15661.87, 358.37, -170.68, 8141.94, -36432.05, -27624.50, 28761.64, -146.56, 12270.50, 0.00, 0.00, 0.00, 0.00, 0.00, 0.00, 0.00
125, 13491.58, 37840.61, -309.50, 15670.07, 362.48, -164.46, 8149.56, -36430.66, -27624.50, 28761.64, -146.56, 12270.50, 0.00, 0.00, 0.00, 0.00, 0.00, 0.00, 0.00
126, 13491.58, 37840.61, -309.50, 15670.07, 362.48, -164.46, 8149.56, -36430.66, -27629.35, 28791.24, -140.57, 12286.60, 0.00, 0.00, 0.00, 0.00, 0.00, 0.00, 0.00
127, 13493.55, 37829.32, -309.86, 15666.11, 363.55, -166.99, 8146.50, -36428.65, -27629.35, 28791.24, -140.57, 12286.60, 0.00, 0.00, 0.00, 0.00, 0.00, 0.00, 0.00
128, 13493.55, 37829.32, -309.86, 15666.11, 363.55, -166.99, 8146.50, -36428.65, -27621.77, 28761.29, -138.71, 12270.97, 0.00, 0.00, 0.00, 0.00, 0.00, 0.00, 0.00
129, 13498.33, 37842.55, -306.53, 15671.59, 364.27, -163.21, 8147.75, -36431.24, -27621.77, 28761.29, -138.71, 12270.97, 0.00, 0.00, 0.00, 0.00, 0.00, 0.00, 0.00
130, 13498.33, 37842.55, -306.53, 15671.59, 364.27, -163.21, 8147.75, -36431.24, -27630.33, 28784.02, -139.94, 12281.01, 0.00, 0.00, 0.00, 0.00, 0.00, 0.00, 0.00
131, 13488.76, 37836.14, -309.04, 15669.82, 362.23, -166.41, 8147.70, -36432.74, -27630.33, 28784.02, -139.94, 12281.01, 0.00, 0.00, 0.00, 0.00, -0.03, 0.34, 0.96
132, 13488.76, 37836.14, -309.04, 15669.82, 362.23, -166.41, 8147.70, -36432.74, -27630.26, 28752.54, -143.45, 12262.73, 0.00, 0.00, 0.00, 0.00, 0.00, 0.00, 0.00
133, 13484.61, 37836.63, -317.31, 15662.47, 352.89, -172.15, 8139.07, -36437.97, -27630.26, 28752.54, -143.45, 12262.73, 0.00, 0.00, 0.00, 0.00, 0.00, 0.00, 0.00
134, 13484.61, 37836.63, -317.31, 15662.47, 352.89, -172.15, 8139.07, -36437.97, -27636.05, 28778.70, -148.10, 12276.92, 0.00, 0.00, 0.00, 0.00, 0.00, 0.00, 0.00
135, 13492.74, 37835.60, -309.21, 15673.91, 364.76, -163.66, 8148.78, -36431.09, -27636.05, 28778.70, -148.10, 12276.92, 0.00, 0.00, 0.00, 0.00, 0.00, 0.00, 0.00
136, 13492.74, 37835.60, -309.21, 15673.91, 364.76, -163.66, 8148.78, -36431.09, -27633.53, 28756.90, -141.44, 12267.51, 0.00, 0.00, 0.00, 0.00, 0.00, 0.00, 0.00
137, 13495.76, 37823.31, -316.21, 15665.26, 356.11, -170.95, 8140.80, -36437.52, -27633.53, 28756.90, -141.44, 12267.51, 0.00, 0.00, 0.00, 0.00, 0.00, 0.00, 0.00
138, 13495.76, 37823.31, -316.21, 15665.26, 356.11, -170.95, 8140.80, -36437.52, -27632.59, 28779.14, -144.01, 12281.95, 0.00, 0.00, 0.00, 0.00, 0.00, 0.00, 0.00
139, 13493.14, 37845.44, -307.45, 15676.48, 365.41, -162.12, 8152.06, -36431.87, -27632.59, 28779.14, -144.01, 12281.95, 0.00, 0.00, 0.00, 0.00, 0.00, 0.00, 0.00
140, 13493.14, 37845.44, -307.45, 15676.48, 365.41, -162.12, 8152.06, -36431.87, -27631.90, 28756.77, -139.74, 12268.16, 0.00, 0.00, 0.00, 0.00, 0.00, 0.00, 0.00
141, 13484.74, 37836.52, -317.19, 15663.39, 354.41, -169.87, 8139.30, -36436.52, -27631.90, 28756.77, -139.74, 12268.16, 0.00, 0.00, 0.00, 0.00, -0.03, 0.33, 0.96
142, 13484.74, 37836.52, -317.19, 15663.39, 354.41, -169.87, 8139.30, -36436.52, -27632.70, 28775.37, -147.81, 12281.88, 0.00, 0.00, 0.00, 0.00, 0.00, 0.00, 0.00
143, 13487.20, 37825.59, -317.98, 15674.32, 363.42, -160.06, 8151.66, -36430.35, -27632.70, 28775.37, -147.81, 12281.88, 0.00, 0.00, 0.00, 0.00, 0.00, 0.00, 0.00
144, 13487.20, 37825.59, -317.98, 15674.32, 363.42, -160.06, 8151.66, -36430.35, -27635.58, 28757.91, -142.60, 12267.98, 0.00, 0.00, 0.00, 0.00, 0.00, 0.00, 0.00
145, 13472.63, 37815.75, -326.98, 15654.85, 350.94, -180.56, 8137.20, -36438.10, -27635.58, 28757.91, -142.60, 12267.98, 0.00, 0.00, 0.00, 0.00, 0.00, 0.00, 0.00
146, 13472.63, 37815.75, -326.98, 15654.85, 350.94, -180.56, 8137.20, -36438.10, -27631.34, 28771.66, -147.99, 12277.77, 0.00, 0.00, 0.00, 0.00, 0.00, 0.00, 0.00
147, 13493.19, 37852.81, -310.35, 15675.70, 369.32, -165.43, 8156.51, -36427.82, -27631.34, 28771.66, -147.99, 12277.77, 0.00, 0.00, 0.00, 0.00, 0.00, 0.00, 0.00
148, 13493.19, 37852.81, -310.35, 15675.70, 369.32, -165.43, 8156.51, -36427.82, -27632.34, 28764.21, -137.02, 12271.22, 0.00, 0.00, 0.00, 0.00, 0.00, 0.00, 0.00
149, 13477.63, 37821.30, -324.84, 15656.95, 351.12, -177.52, 8135.23, -36440.29, -27632.34, 28764.21, -137.02, 12271.22, 0.00, 0.00, 0.00, 0.00, 0.00, 0.00, 0.00
150, 13477.63, 37821.30, -324.84, 15656.95, 351.12, -177.52, 8135.23, -36440.29, -27634.31, 28766.38, -149.89, 12276.56, 0.00, 0.00, 0.00, 0.00, 0.00, 0.00, 0.00
151, 13490.53, 37837.46, -313.97, 15674.92, 366.39, -164.75, 8155.37, -36431.58, -27634.31, 28766.38, -149.89, 12276.56, 0.00, 0.00, 0.00, 0.00, -0.03, 0.33, 0.95
152, 13490.53, 37837.46, -313.97, 15674.92, 366.39, -164.75, 8155.37, -36431.58, -27635.79, 28766.04, -135.79, 12275.96, 0.00, 0.00, 0.00, 0.00, 0.00, 0.00, 0.00
153, 13482.66, 37830.01, -324.57, 15656.26, 348.64, -179.04, 8134.34, -36441.61, -27635.79, 28766.04, -135.79, 12275.96, 0.00, 0.00, 0.00, 0.00, 0.00, 0.00, 0.00
154, 13482.66, 37830.01, -324.57, 15656.26, 348.64, -179.04, 8134.34, -36441.61, -27634.27, 28761.31, -148.01, 12277.30, 0.00, 0.00, 0.00, 0.00, 0.00, 0.00, 0.00
155, 13494.40, 37860.12, -312.92, 15680.51, 367.33, -161.85, 8158.57, -36430.68, -27634.27, 28761.31, -148.01, 12277.30, 0.00, 0.00, 0.00, 0.00, 0.00, 0.00, 0.00
156, 13494.40, 37860.12, -312.92, 15680.51, 367.33, -161.85, 8158.57, -36430.68, -27637.98, 28773.06, -142.07, 12283.33, 0.00, 0.00, 0.00, 0.00, 0.00, 0.00, 0.00
157, 13480.87, 37815.75, -324.44, 15657.51, 349.83, -176.22, 8136.24, -36437.57, -27637.98, 28773.06, -142.07, 12283.33, 0.00, 0.00, 0.00, 0.00, 0.00, 0.00, 0.00
158, 13480.87, 37815.75, -324.44, 15657.51, 349.83, -176.22, 8136.24, -36437.57, -27631.16, 28759.01, -147.41, 12279.06, 0.00, 0.00, 0.00, 0.00, 0.00, 0.00, 0.00
159, 13488.83, 37836.45, -313.62, 15680.08, 365.41, -161.74, 8159.08, -36427.42, -27631.16, 28759.01, -147.41, 12279.06, 0.00, 0.00, 0.00, 0.00, 0.00, 0.00, 0.00
160, 13488.83, 37836.45, -313.62, 15680.08, 365.41, -161.74, 8159.08, -36427.42, -27631.92, 28775.30, -141.40, 12286.37, 0.00, 0.00, 0.00, 0.00, -0.03, 0.33, 0.96
161, 13484.02, 37831.42, -321.08, 15660.19, 352.51, -175.48, 8138.85, -36436.32, -27631.92, 28775.30, -141.40, 12286.37, 0.00, 0.00, 0.00, 0.00, 0.00, 0.00, 0.00
162, 13484.02, 37831.42, -321.08, 15660.19, 352.51, -175.48, 8138.85, -36436.32, -27630.20, 28752.75, -150.81, 12275.53, 0.00, 0.00, 0.00, 0.00, 0.00, 0.00, 0.00
163, 13500.36, 37848.21, -309.59, 15679.17, 369.07, -161.36, 8158.79, -36428.61, -27630.20, 28752.75, -150.81, 12275.53, 0.00, 0.00, 0.00, 0.00, 0.00, 0.00, 0.00
164, 13500.36, 37848.21, -309.59, 15679.17, 369.07, -161.36, 8158.79, -36428.61, -27632.12, 28774.56, -134.36, 12287.71, 0.00, 0.00, 0.00, 0.00, 0.00, 0.00, 0.00
165, 13489.14, 37828.38, -318.62, 15663.45, 357.85, -172.87, 8144.64, -36433.30, -27632.12, 28774.56, -134.36, 12287.71, 0.00, 0.00, 0.00, 0.00, 0.00, 0.00, 0.00
166, 13489.14, 37828.38, -318.62, 15663.45, 357.85, -172.87, 8144.64, -36433.30, -27629.79, 28752.61, -141.78, 12278.21, 0.00, 0.00, 0.00, 0.00, 0.00, 0.00, 0.00
167, 13489.43, 37838.51, -314.58, 15676.64, 364.85, -164.55, 8158.07, -36428.52, -27629.79, 28752.61, -141.78, 12278.21, 0.00, 0.00, 0.00, 0.00, 0.00, 0.00, 0.00
168, 13489.43, 37838.51, -314.58, 15676.64, 364.85, -164.55, 8158.07, -36428.52, -27638.42, 28775.68, -139.90, 12288.12, 0.00, 0.00, 0.00, 0.00, 0.00, 0.00, 0.00
169, 13493.08, 37845.17, -315.09, 15666.65, 360.22, -168.40, 8147.77, -36431.53, -27638.42, 28775.68, -139.90, 12288.12, 0.00, 0.00, 0.00, 0.00, 0.00, 0.00, 0.00
170, 13493.08, 37845.17, -315.09, 15666.65, 360.22, -168.40, 8147.77, -36431.53, -27627.00, 28755.34, -136.52, 12279.98, 0.00, 0.00, 0.00, 0.00, -0.03, 0.33, 0.96
171, 13495.54, 37844.25, -313.77, 15673.27, 364.78, -166.61, 8158.23, -36426.59, -27627.00, 28755.34, -136.52, 12279.98, 0.00, 0.00, 0.00, 0.00, 0.00, 0.00, 0.00
172, 13495.54, 37844.25, -313.77, 15673.27, 364.78, -166.61, 8158.23, -36426.59, -27632.97, 28782.43, -136.79, 12295.96, 0.00, 0.00, 0.00, 0.00, 0.00, 0.00, 0.00
173, 13492.27, 37839.29, -314.73, 15670.88, 361.56, -168.73, 8152.17, -36430.86, -27632.97, 28782.43, -136.79, 12295.96, 0.00, 0.00, 0.00, 0.00, 0.00, 0.00, 0.00
174, 13492.27, 37839.29, -314.73, 15670.88, 361.56, -168.73, 8152.17, -36430.86, -27624.68, 28751.67, -130.27, 12277.86, 0.00, 0.00, 0.00, 0.00, 0.00, 0.00, 0.00
175, 13496.99, 37843.16, -310.26, 15677.07, 364.07, -164.24, 8156.46, -36429.03, -27624.68, 28751.67, -130.27, 12277.86, 0.00, 0.00, 0.00, 0.00, 0.00, 0.00, 0.00
176, 13496.99, 37843.16, -310.26, 15677.07, 364.07, -164.24, 8156.46, -36429.03, -27634.00, 28777.49, -139.50, 12291.00, 0.00, 0.00, 0.00, 0.00, 0.00, 0.00, 0.00
177, 13502.96, 37847.11, -310.69, 15675.32, 364.15, -163.70, 8155.15, -36429.74, -27634.00, 28777.49, -139.50, 12291.00, 0.00, 0.00, 0.00, 0.00, 0.00, 0.00, 0.00
178, 13502.96, 37847.11, -310.69, 15675.32, 364.15, -163.70, 8155.15, -36429.74, -27622.49, 28758.09, -121.50, 12286.28, 0.00, 0.00, 0.00, 0.00, 0.00, 0.00, 0.00
179, 13502.15, 37848.99, -305.53, 15678.79, 369.56, -162.41, 8161.69, -36422.82, -27622.49, 28758.09, -121.50, 12286.28, 0.00, 0.00, 0.00, 0.00, 0.00, 0.00, 0.00
180, 13502.15, 37848.99, -305.53, 15678.79, 369.56, -162.41, 8161.69, -36422.82, -27627.67, 28783.39, -125.68, 12300.34, 0.00, 0.00, 0.00, 0.00, -0.03, 0.32, 0.96
181, 13499.09, 37857.08, -307.22, 15678.18, 370.10, -162.39, 8160.02, -36426.52, -27627.67, 28783.39, -125.68, 12300.34, 0.00, 0.00, 0.00, 0.00, 0.00, 0.00, 0.00
182, 13499.09, 37857.08, -307.22, 15678.18, 370.10, -162.39, 8160.02, -36426.52, -27623.60, 28757.64, -124.88, 12282.15, 0.00, 0.00, 0.00, 0.00, 0.00, 0.00, 0.00
183, 13499.96, 37848.88, -314.44, 15672.06, 362.32, -167.39, 8152.93, -36433.59, -27623.60, 28757.64, -124.88, 12282.15, 0.00, 0.00, 0.00, 0.00, 0.00, 0.00, 0.00
184, 13499.96, 37848.88, -314.44, 15672.06, 362.32, -167.39, 8152.93, -36433.59, -27624.45, 28781.85, -129.51, 12297.82, 0.00, 0.00, 0.00, 0.00, 0.00, 0.00, 0.00
185, 13517.66, 37864.37, -300.74, 15687.59, 378.68, -153.15, 8169.43, -36421.47, -27624.45, 28781.85, -129.51, 12297.82, 0.00, 0.00, 0.00, 0.00, 0.00, 0.00, 0.00
186, 13517.66, 37864.37, -300.74, 15687.59, 378.68, -153.15, 8169.43, -36421.47, -27617.35, 28765.15, -116.07, 12291.94, 0.00, 0.00, 0.00, 0.00, 0.00, 0.00, 0.00
187, 13486.10, 37833.77, -315.90, 15671.79, 361.90, -166.95, 8154.65, -36431.62, -27617.35, 28765.15, -116.07, 12291.94, 0.00, 0.00, 0.00, 0.00, 0.00, 0.00, 0.00
188, 13486.10, 37833.77, -315.90, 15671.79, 361.90, -166.95, 8154.65, -36431.62, -27626.78, 28776.71, -129.04, 12297.82, 0.00, 0.00, 0.00, 0.00, 0.00, 0.00, 0.00
189, 13493.97, 37852.43, -308.01, 15681.58, 372.58, -159.79, 8167.39, -36424.31, -27626.78, 28776.71, -129.04, 12297.82, 0.00, 0.00, 0.00, 0.00, 0.00, 0.00, 0.00
190, 13493.97, 37852.43, -308.01, 15681.58, 372.58, -159.79, 8167.39, -36424.31, -27623.29, 28757.87, -125.01, 12286.08, 0.00, 0.00, 0.00, 0.00, -0.02, 0.32, 0.96
191, 13486.53, 37846.78, -320.23, 15665.17, 358.92, -172.64, 8151.44, -36433.16, -27623.29, 28757.87, -125.01, 12286.08, 0.00, 0.00, 0.00, 0.00, 0.00, 0.00, 0.00
192, 13486.53, 37846.78, -320.23, 15665.17, 358.92, -172.64, 8151.44, -36433.16, -27627.67, 28770.47, -138.47, 12294.38, 0.00, 0.00, 0.00, 0.00, 0.00, 0.00, 0.00
193, 13496.70, 37856.52, -313.64, 15681.29, 370.82, -160.19, 8166.70, -36427.13, -27627.67, 28770.47, -138.47, 12294.38, 0.00, 0.00, 0.00, 0.00, 0.00, 0.00, 0.00
194, 13496.70, 37856.52, -313.64, 15681.29, 370.82, -160.19, 8166.70, -36427.13, -27626.80, 28761.51, -127.65, 12285.93, 0.00, 0.00, 0.00, 0.00, 0.00, 0.00, 0.00
195, 13481.14, 37819.71, -327.41, 15661.17, 352.29, -173.96, 8143.84, -36438.98, -27626.80, 28761.51, -127.65, 12285.93, 0.00, 0.00, 0.00, 0.00, 0.00, 0.00, 0.00
196, 13481.14, 37819.71, -327.41, 15661.17, 352.29, -173.96, 8143.84, -36438.98, -27630.78, 28763.70, -143.39, 12292.74, 0.00, 0.00, 0.00, 0.00, 0.00, 0.00, 0.00
197, 13491.00, 37845.04, -315.27, 15679.59, 369.36, -159.14, 8167.75, -36430.04, -27630.78, 28763.70, -143.39, 12292.74, 0.00, 0.00, 0.00, 0.00, 0.00, 0.00, 0.00
198, 13491.00, 37845.04, -315.27, 15679.59, 369.36, -159.14, 8167.75, -36430.04, -27632.83, 28762.04, -134.13, 12289.99, 0.00, 0.00, 0.00, 0.00, 0.00, 0.00, 0.00
199, 13472.25, 37831.13, -330.11, 15658.87, 350.83, -179.80, 8145.67, -36441.03, -27632.83, 28762.04, -134.13, 12289.99, 0.00, 0.00, 0.00, 0.00, -0.03, 0.32, 0.96
200, 13472.25, 37831.13, -330.11, 15658.87, 350.83, -179.80, 8145.67, -36441.03, -27631.96, 28757.82, -145.87, 12288.92, 0.00, 0.00, 0.00, 0.00, 0.00, 0.00, 0.00
201, 13490.44, 37838.55, -317.51, 15681.02, 369.27, -161.40, 8167.26, -36429.77, -27631.96, 28757.82, -145.87, 12288.92, 0.00, 0.00, 0.00, 0.00, 0.00, 0.00, 0.00
202, 13490.44, 37838.55, -317.51, 15681.02, 369.27, -161.40, 8167.26, -36429.77, -27633.08, 28761.02, -130.71, 12287.29, 0.00, 0.00, 0.00, 0.00, 0.00, 0.00, 0.00
203, 13476.51, 37816.49, -331.54, 15661.06, 349.49, -174.01, 8142.65, -36442.82, -27633.08, 28761.02, -130.71, 12287.29, 0.00, 0.00, 0.00, 0.00, 0.00, 0.00, 0.00
204, 13476.51, 37816.49, -331.54, 15661.06, 349.49, -174.01, 8142.65, -36442.82, -27636.41, 28750.89, -156.13, 12284.81, 0.00, 0.00, 0.00, 0.00, 0.00, 0.00, 0.00
205, 13481.68, 37839.85, -326.76, 15674.27, 359.86, -167.01, 8162.14, -36435.71, -27636.41, 28750.89, -156.13, 12284.81, 0.00, 0.00, 0.00, 0.00, 0.00, 0.00, 0.00
206, 13481.68, 37839.85, -326.76, 15674.27, 359.86, -167.01, 8162.14, -36435.71, -27637.15, 28763.83, -145.04, 12289.39, 0.00, 0.00, 0.00, 0.00, 0.00, 0.00, 0.00
207, 13469.72, 37820.69, -336.77, 15657.06, 348.53, -179.73, 8144.24, -36440.38, -27637.15, 28763.83, -145.04, 12289.39, 0.00, 0.00, 0.00, 0.00, 0.00, 0.00, 0.00
208, 13469.72, 37820.69, -336.77, 15657.06, 348.53, -179.73, 8144.24, -36440.38, -27635.92, 28744.83, -152.08, 12280.58, 0.00, 0.00, 0.00, 0.00, 0.00, 0.00, 0.00
209, 13485.14, 37836.54, -324.59, 15679.37, 361.96, -164.64, 8161.74, -36436.11, -27635.92, 28744.83, -152.08, 12280.58, 0.00, 0.00, 0.00, 0.00, -0.03, 0.33, 0.96
210, 13485.14, 37836.54, -324.59, 15679.37, 361.96, -164.64, 8161.74, -36436.11, -27636.48, 28765.22, -140.86, 12290.80, 0.00, 0.00, 0.00, 0.00, 0.00, 0.00, 0.00
211, 13479.71, 37824.27, -328.41, 15665.87, 352.89, -172.51, 8149.04, -36438.28, -27636.48, 28765.22, -140.86, 12290.80, 0.00, 0.00, 0.00, 0.00, 0.00, 0.00, 0.00
212, 13479.71, 37824.27, -328.41, 15665.87, 352.89, -172.51, 8149.04, -36438.28, -27625.08, 28749.19, -141.64, 12285.66, 0.00, 0.00, 0.00, 0.00, 0.00, 0.00, 0.00
213, 13488.99, 37848.63, -321.53, 15681.11, 362.66, -161.47, 8165.14, -36433.23, -27625.08, 28749.19, -141.64, 12285.66, 0.00, 0.00, 0.00, 0.00, 0.00, 0.00, 0.00
214, 13488.99, 37848.63, -321.53, 15681.11, 362.66, -161.47, 8165.14, -36433.23, -27637.21, 28771.57, -144.91, 12294.44, 0.00, 0.00, 0.00, 0.00, 0.00, 0.00, 0.00
215, 13480.20, 37824.65, -331.81, 15660.37, 350.70, -179.89, 8147.66, -36440.65, -27637.21, 28771.57, -144.91, 12294.44, 0.00, 0.00, 0.00, 0.00, 0.00, 0.00, 0.00
216, 13480.20, 37824.65, -331.81, 15660.37, 350.70, -179.89, 8147.66, -36440.65, -27629.30, 28745.73, -143.07, 12283.47, 0.00, 0.00, 0.00, 0.00, 0.00, 0.00, 0.00
217, 13479.00, 37830.84, -326.83, 15676.13, 361.87, -168.31, 8162.21, -36434.01, -27629.30, 28745.73, -143.07, 12283.47, 0.00, 0.00, 0.00, 0.00, 0.00, 0.00, 0.00
218, 13479.00, 37830.84, -326.83, 15676.13, 361.87, -168.31, 8162.21, -36434.01, -27631.63, 28775.01, -135.61, 12300.03, 0.00, 0.00, 0.00, 0.00, 0.00, 0.00, 0.00
219, 13477.61, 37829.30, -327.03, 15663.12, 358.10, -175.44, 8152.17, -36437.03, -27631.63, 28775.01, -135.61, 12300.03, 0.00, 0.00, 0.00, 0.00, -0.03, 0.33, 0.96
220, 13477.61, 37829.30, -327.03, 15663.12, 358.10, -175.44, 8152.17, -36437.03, -27626.76, 28747.43, -138.02, 12287.89, 0.00, 0.00, 0.00, 0.00, 0.00, 0.00, 0.00
221, 13494.35, 37850.35, -316.41, 15680.93, 366.68, -162.94, 8166.68, -36431.75, -27626.76, 28747.43, -138.02, 12287.89, 0.00, 0.00, 0.00, 0.00, 0.00, 0.00, 0.00
222, 13494.35, 37850.35, -316.41, 15680.93, 366.68, -162.94, 8166.68, -36431.75, -27629.93, 28776.13, -131.54, 12304.05, 0.00, 0.00, 0.00, 0.00, 0.00, 0.00, 0.00
223, 13489.55, 37842.29, -317.57, 15676.26, 366.41, -165.89, 8162.79, -36430.37, -27629.93, 28776.13, -131.54, 12304.05, 0.00, 0.00, 0.00, 0.00, 0.00, 0.00, 0.00
224, 13489.55, 37842.29, -317.57, 15676.26, 366.41, -165.89, 8162.79, -36430.37, -27621.53, 28748.10, -131.07, 12288.38, 0.00, 0.00, 0.00, 0.00, 0.00, 0.00, 0.00
225, 13478.35, 37833.86, -324.52, 15677.54, 361.36, -166.12, 8161.85, -36434.82, -27621.53, 28748.10, -131.07, 12288.38, 0.00, 0.00, 0.00, 0.00, 0.00, 0.00, 0.00
226, 13478.35, 37833.86, -324.52, 15677.54, 361.36, -166.12, 8161.85, -36434.82, -27632.10, 28772.44, -137.55, 12298.94, 0.00, 0.00, 0.00, 0.00, 0.00, 0.00, 0.00
227, 13488.18, 37846.22, -317.53, 15676.04, 366.81, -166.88, 8165.27, -36428.76, -27632.10, 28772.44, -137.55, 12298.94, 0.00, 0.00, 0.00, 0.00, 0.00, 0.00, 0.00
228, 13488.18, 37846.22, -317.53, 15676.04, 366.81, -166.88, 8165.27, -36428.76, -27615.67, 28755.90, -119.34, 12293.26, 0.00, 0.00, 0.00, 0.00, 0.00, 0.00, 0.00
229, 13488.23, 37840.88, -321.04, 15672.60, 363.19, -167.88, 8163.08, -36428.20, -27615.67, 28755.90, -119.34, 12293.26, 0.00, 0.00, 0.00, 0.00, -0.03, 0.33, 0.96
230, 13488.23, 37840.88, -321.04, 15672.60, 363.19, -167.88, 8163.08, -36428.20, -27628.21, 28776.80, -132.97, 12306.24, 0.00, 0.00, 0.00, 0.00, 0.00, 0.00, 0.00
231, 13496.38, 37852.21, -315.94, 15684.44, 370.48, -162.50, 8168.49, -36425.81, -27628.21, 28776.80, -132.97, 12306.24, 0.00, 0.00, 0.00, 0.00, 0.00, 0.00, 0.00
232, 13496.38, 37852.21, -315.94, 15684.44, 370.48, -162.50, 8168.49, -36425.81, -27622.22, 28750.76, -123.96, 12289.61, 0.00, 0.00, 0.00, 0.00, 0.00, 0.00, 0.00
233, 13482.73, 37838.42, -324.32, 15671.79, 360.60, -168.69, 8159.01, -36432.00, -27622.22, 28750.76, -123.96, 12289.61, 0.00, 0.00, 0.00, 0.00, 0.00, 0.00, 0.00
234, 13482.73, 37838.42, -324.32, 15671.79, 360.60, -168.69, 8159.01, -36432.00, -27626.49, 28775.19, -134.94, 12306.13, 0.00, 0.00, 0.00, 0.00, 0.00, 0.00, 0.00
235, 13493.01, 37855.23, -314.67, 15685.78, 371.78, -158.32, 8173.67, -36424.18, -27626.49, 28775.19, -134.94, 12306.13, 0.00, 0.00, 0.00, 0.00, 0.00, 0.00, 0.00
236, 13493.01, 37855.23, -314.67, 15685.78, 371.78, -158.32, 8173.67, -36424.18, -27620.56, 28752.54, -125.15, 12290.51, 0.00, 0.00, 0.00, 0.00, 0.00, 0.00, 0.00
237, 13480.96, 37836.34, -323.63, 15670.96, 359.59, -174.48, 8158.19, -36431.71, -27620.56, 28752.54, -125.15, 12290.51, 0.00, 0.00, 0.00, 0.00, 0.00, 0.00, 0.00
238, 13480.96, 37836.34, -323.63, 15670.96, 359.59, -174.48, 8158.19, -36431.71, -27626.40, 28769.94, -132.05, 12302.33, 0.00, 0.00, 0.00, 0.00, -0.03, 0.33, 0.96
239, 13495.83, 37850.42, -315.45, 15685.74, 373.88, -159.26, 8172.98, -36423.75, -27626.40, 28769.94, -132.05, 12302.33, 0.00, 0.00, 0.00, 0.00, 0.00, 0.00, 0.00
240, 13495.83, 37850.42, -315.45, 15685.74, 373.88, -159.26, 8172.98, -36423.75, -27627.07, 28755.00, -123.20, 12291.89, 0.00, 0.00, 0.00, 0.00, 0.00, 0.00, 0.00
241, 13494.02, 37841.55, -324.37, 15670.38, 359.62, -172.24, 8156.02, -36431.00, -27627.07, 28755.00, -123.20, 12291.89, 0.00, 0.00, 0.00, 0.00, 0.00, 0.00, 0.00
242, 13494.02, 37841.55, -324.37, 15670.38, 359.62, -172.24, 8156.02, -36431.00, -27626.69, 28767.54, -136.70, 12302.47, 0.00, 0.00, 0.00, 0.00, 0.00, 0.00, 0.00
243, 13495.56, 37862.25, -315.23, 15691.04, 374.50, -155.81, 8177.59, -36422.93, -27626.69, 28767.54, -136.70, 12302.47, 0.00, 0.00, 0.00, 0.00, 0.00, 0.00, 0.00
244, 13495.56, 37862.25, -315.23, 15691.04, 374.50, -155.81, 8177.59, -36422.93, -27622.40, 28762.89, -116.45, 12300.72, 0.00, 0.00, 0.00, 0.00, 0.00, 0.00, 0.00
245, 13485.46, 37841.10, -323.30, 15669.29, 363.82, -172.15, 8158.16, -36428.38, -27622.40, 28762.89, -116.45, 12300.72, 0.00, 0.00, 0.00, 0.00, 0.00, 0.00, 0.00
246, 13485.46, 37841.10, -323.30, 15669.29, 363.82, -172.15, 8158.16, -36428.38, -27621.73, 28763.47, -130.85, 12302.13, 0.00, 0.00, 0.00, 0.00, 0.00, 0.00, 0.00
247, 13498.64, 37857.86, -314.15, 15691.28, 376.05, -158.16, 8176.83, -36421.92, -27621.73, 28763.47, -130.85, 12302.13, 0.00, 0.00, 0.00, 0.00, 0.00, 0.00, 0.00
248, 13498.64, 37857.86, -314.15, 15691.28, 376.05, -158.16, 8176.83, -36421.92, -27627.72, 28761.08, -122.22, 12297.33, 0.00, 0.00, 0.00, 0.00, -0.03, 0.33, 0.96
249, 13480.29, 37840.14, -330.43, 15666.45, 354.28, -176.87, 8151.93, -36431.71, -27627.72, 28761.08, -122.22, 12297.33, 0.00, 0.00, 0.00, 0.00, 0.00, 0.00, 0.00
250, 13480.29, 37840.14, -330.43, 15666.45, 354.28, -176.87, 8151.93, -36431.71, -27622.42, 28758.83, -132.12, 12301.42, 0.00, 0.00, 0.00, 0.00, 0.00, 0.00, 0.00
251, 13497.66, 37854.64, -315.58, 15693.52, 376.29, -154.05, 8178.99, -36416.04, -27622.42, 28758.83, -132.12, 12301.42, 0.00, 0.00, 0.00, 0.00, 0.00, 0.00, 0.00
252, 13497.66, 37854.64, -315.58, 15693.52, 376.29, -154.05, 8178.99, -36416.04, -27622.82, 28767.39, -119.89, 12302.87, 0.00, 0.00, 0.00, 0.00, 0.00, 0.00, 0.00
253, 13483.26, 37837.30, -327.92, 15669.33, 356.93, -172.38, 8153.87, -36431.09, -27622.82, 28767.39, -119.89, 12302.87, 0.00, 0.00, 0.00, 0.00, 0.00, 0.00, 0.00
254, 13483.26, 37837.30, -327.92, 15669.33, 356.93, -172.38, 8153.87, -36431.09, -27617.93, 28754.54, -133.91, 12300.30, 0.00, 0.00, 0.00, 0.00, 0.00, 0.00, 0.00
255, 13492.50, 37863.83, -318.78, 15689.83, 373.10, -160.75, 8177.16, -36418.19, -27617.93, 28754.54, -133.91, 12300.30, 0.00, 0.00, 0.00, 0.00, 0.00, 0.00, 0.00
0, 13492.50, 37863.83, -318.78, 15689.83, 373.10, -160.75, 8177.16, -36418.19, -27626.71, 28768.79, -125.57, 12305.57, 0.00, 0.00, 0.00, 0.00, 0.00, 0.00, 0.00
1, 13493.14, 37844.00, -328.55, 15670.09, 356.73, -173.67, 8155.75, -36427.38, -27626.71, 28768.79, -125.57, 12305.57, 0.00, 0.00, 0.00, 0.00, 0.00, 0.00, 0.00
2, 13493.14, 37844.00, -328.55, 15670.09, 356.73, -173.67, 8155.75, -36427.38, -27621.32, 28749.48, -129.26, 12298.35, 0.00, 0.00, 0.00, 0.00, -0.03, 0.33, 0.96
3, 13486.44, 37843.83, -324.01, 15686.36, 369.59, -160.87, 8173.85, -36421.43, -27621.32, 28749.48, -129.26, 12298.35, 0.00, 0.00, 0.00, 0.00, 0.00, 0.00, 0.00
4, 13486.44, 37843.83, -324.01, 15686.36, 369.59, -160.87, 8173.85, -36421.43, -27625.01, 28770.99, -124.50, 12306.40, 0.00, 0.00, 0.00, 0.00, 0.00, 0.00, 0.00
5, 13481.23, 37831.04, -327.56, 15671.43, 360.02, -169.78, 8157.58, -36429.07, -27625.01, 28770.99, -124.50, 12306.40, 0.00, 0.00, 0.00, 0.00, 0.00, 0.00, 0.00
6, 13481.23, 37831.04, -327.56, 15671.43, 360.02, -169.78, 8157.58, -36429.07, -27623.87, 28742.29, -138.96, 12294.17, 0.00, 0.00, 0.00, 0.00, 0.00, 0.00, 0.00
7, 13483.22, 37850.62, -325.46, 15680.22, 364.83, -166.14, 8167.55, -36424.36, -27623.87, 28742.29, -138.96, 12294.17, 0.00, 0.00, 0.00, 0.00, 0.00, 0.00, 0.00
8, 13483.22, 37850.62, -325.46, 15680.22, 364.83, -166.14, 8167.55, -36424.36, -27631.05, 28770.11, -134.60, 12306.94, 0.00, 0.00, 0.00, 0.00, 0.00, 0.00, 0.00
9, 13480.11, 37833.43, -335.07, 15666.69, 355.80, -175.51, 8154.18, -36429.23, -27631.05, 28770.11, -134.60, 12306.94, 0.00, 0.00, 0.00, 0.00, 0.00, 0.00, 0.00
10, 13480.11, 37833.43, -335.07, 15666.69, 355.80, -175.51, 8154.18, -36429.23, -27622.87, 28742.98, -138.07, 12296.43, 0.00, 0.00, 0.00, 0.00, 0.00, 0.00, 0.00
11, 13492.67, 37851.71, -325.42, 15681.54, 367.60, -167.46, 8169.36, -36422.52, -27622.87, 28742.98, -138.07, 12296.43, 0.00, 0.00, 0.00, 0.00, 0.00, 0.00, 0.00
12, 13492.67, 37851.71, -325.42, 15681.54, 367.60, -167.46, 8169.36, -36422.52, -27630.69, 28769.49, -129.77, 12308.05, 0.00, 0.00, 0.00, 0.00, -0.04, 0.33, 0.96
13, 13483.15, 37840.61, -329.24, 15674.54, 359.68, -170.52, 8159.10, -36429.77, -27630.69, 28769.49, -129.77, 12308.05, 0.00, 0.00, 0.00, 0.00, 0.00, 0.00, 0.00
14, 13483.15, 37840.61, -329.24, 15674.54, 359.68, -170.52, 8159.10, -36429.77, -27623.63, 28740.41, -126.18, 12293.35, 0.00, 0.00, 0.00, 0.00, 0.00, 0.00, 0.00
15, 13487.87, 37842.78, -319.92, 15685.67, 369.05, -159.73, 8168.20, -36421.38, -27623.63, 28740.41, -126.18, 12293.35, 0.00, 0.00, 0.00, 0.00, 0.00, 0.00, 0.00
16, 13487.87, 37842.78, -319.92, 15685.67, 369.05, -159.73, 8168.20, -36421.38, -27624.45, 28775.25, -124.23, 12316.97, 0.00, 0.00, 0.00, 0.00, 0.00, 0.00, 0.00
17, 13490.08, 37856.43, -319.18, 15683.57, 372.13, -164.84, 8170.59, -36419.60, -27624.45, 28775.25, -124.23, 12316.97, 0.00, 0.00, 0.00, 0.00, 0.00, 0.00, 0.00
18, 13490.08, 37856.43, -319.18, 15683.57, 372.13, -164.84, 8170.59, -36419.60, -27616.32, 28748.81, -119.83, 12303.72, 0.00, 0.00, 0.00, 0.00, 0.00, 0.00, 0.00
19, 13490.69, 37857.62, -320.10, 15681.56, 366.43, -166.61, 8168.85, -36421.90, -27616.32, 28748.81, -119.83, 12303.72, 0.00, 0.00, 0.00, 0.00, 0.00, 0.00, 0.00
20, 13490.69, 37857.62, -320.10, 15681.56, 366.43, -166.61, 8168.85, -36421.90, -27626.20, 28773.22, -123.02, 12314.02, 0.00, 0.00, 0.00, 0.00, 0.00, 0.00, 0.00
21, 13487.62, 37845.46, -320.03, 15686.88, 373.10, -163.21, 8171.51, -36418.72, -27626.20, 28773.22, -123.02, 12314.02, 0.00, 0.00, 0.00, 0.00, 0.00, 0.00, 0.00
22, 13487.62, 37845.46, -320.03, 15686.88, 373.10, -163.21, 8171.51, -36418.72, -27616.03, 28749.37, -118.64, 12303.50, 0.00, 0.00, 0.00, 0.00, -0.03, 0.34, 0.96
23, 13485.37, 37845.12, -320.39, 15681.02, 369.94, -165.81, 8170.21, -36419.17, -27616.03, 28749.37, -118.64, 12303.50, 0.00, 0.00, 0.00, 0.00, 0.00, 0.00, 0.00
24, 13485.37, 37845.12, -320.39, 15681.02, 369.94, -165.81, 8170.21, -36419.17, -27618.42, 28777.71, -124.52, 12324.04, 0.00, 0.00, 0.00, 0.00, 0.00, 0.00, 0.00
25, 13497.53, 37872.55, -309.93, 15696.29, 380.67, -151.90, 8185.41, -36411.95, -27618.42, 28777.71, -124.52, 12324.04, 0.00, 0.00, 0.00, 0.00, 0.00, 0.00, 0.00
26, 13497.53, 37872.55, -309.93, 15696.29, 380.67, -151.90, 8185.41, -36411.95, -27613.52, 28758.85, -115.58, 12315.25, 0.00, 0.00, 0.00, 0.00, 0.00, 0.00, 0.00
27, 13496.50, 37843.22, -321.62, 15682.23, 368.04, -164.51, 8173.14, -36417.83, -27613.52, 28758.85, -115.58, 12315.25, 0.00, 0.00, 0.00, 0.00, 0.00, 0.00, 0.00
28, 13496.50, 37843.22, -321.62, 15682.23, 368.04, -164.51, 8173.14, -36417.83, -27618.71, 28777.13, -128.90, 12328.84, 0.00, 0.00, 0.00, 0.00, 0.00, 0.00, 0.00
29, 13498.96, 37851.96, -314.89, 15697.81, 379.20, -155.66, 8185.72, -36412.69, -27618.71, 28777.13, -128.90, 12328.84, 0.00, 0.00, 0.00, 0.00, 0.00, 0.00, 0.00
30, 13498.96, 37851.96, -314.89, 15697.81, 379.20, -155.66, 8185.72, -36412.69, -27620.07, 28754.29, -118.46, 12310.87, 0.00, 0.00, 0.00, 0.00, 0.00, 0.00, 0.00
31, 13483.87, 37845.86, -327.90, 15676.04, 361.43, -172.06, 8163.30, -36425.77, -27620.07, 28754.29, -118.46, 12310.87, 0.00, 0.00, 0.00, 0.00, -0.03, 0.34, 0.96
32, 13483.87, 37845.86, -327.90, 15676.04, 361.43, -172.06, 8163.30, -36425.77, -27626.89, 28758.27, -140.23, 12315.01, 0.00, 0.00, 0.00, 0.00, 0.00, 0.00, 0.00
33, 13495.67, 37862.00, -314.85, 15697.12, 376.07, -156.24, 8183.62, -36416.94, -27626.89, 28758.27, -140.23, 12315.01, 0.00, 0.00, 0.00, 0.00, 0.00, 0.00, 0.00
34, 13495.67, 37862.00, -314.85, 15697.12, 376.07, -156.24, 8183.62, -36416.94, -27619.22, 28756.32, -116.47, 12310.69, 0.00, 0.00, 0.00, 0.00, 0.00, 0.00, 0.00
35, 13488.92, 37843.31, -322.27, 15678.72, 364.80, -169.49, 8166.77, -36420.76, -27619.22, 28756.32, -116.47, 12310.69, 0.00, 0.00, 0.00, 0.00, 0.00, 0.00, 0.00
36, 13488.92, 37843.31, -322.27, 15678.72, 364.80, -169.49, 8166.77, -36420.76, -27618.75, 28764.12, -127.70, 12318.49, 0.00, 0.00, 0.00, 0.00, 0.00, 0.00, 0.00
37, 13500.95, 37858.42, -309.82, 15701.90, 379.17, -153.53, 8185.95, -36414.52, -27618.75, 28764.12, -127.70, 12318.49, 0.00, 0.00, 0.00, 0.00, 0.00, 0.00, 0.00
38, 13500.95, 37858.42, -309.82, 15701.90, 379.17, -153.53, 8185.95, -36414.52, -27621.86, 28760.64, -113.75, 12313.44, 0.00, 0.00, 0.00, 0.00, 0.00, 0.00, 0.00
39, 13492.58, 37856.81, -315.18, 15682.56, 366.43, -168.29, 8167.10, -36421.29, -27621.86, 28760.64, -113.75, 12313.44, 0.00, 0.00, 0.00, 0.00, 0.00, 0.00, 0.00
40, 13492.58, 37856.81, -315.18, 15682.56, 366.43, -168.29, 8167.10, -36421.29, -27619.94, 28755.74, -121.03, 12318.40, 0.00, 0.00, 0.00, 0.00, 0.00, 0.00, 0.00
41, 13499.87, 37862.09, -309.57, 15699.22, 381.32, -157.36, 8187.06, -36412.76, -27619.94, 28755.74, -121.03, 12318.40, 0.00, 0.00, 0.00, 0.00, -0.03, 0.33, 0.96
42, 13499.87, 37862.09, -309.57, 15699.22, 381.32, -157.36, 8187.06, -36412.76, -27621.19, 28761.33, -116.79, 12315.52, 0.00, 0.00, 0.00, 0.00, 0.00, 0.00, 0.00
43, 13487.82, 37839.38, -324.93, 15673.47, 363.35, -172.73, 8164.69, -36420.63, -27621.19, 28761.33, -116.79, 12315.52, 0.00, 0.00, 0.00, 0.00, 0.00, 0.00, 0.00
44, 13487.82, 37839.38, -324.93, 15673.47, 363.35, -172.73, 8164.69, -36420.63, -27612.81, 28758.02, -122.26, 12319.21, 0.00, 0.00, 0.00, 0.00, 0.00, 0.00, 0.00
45, 13499.47, 37866.29, -312.01, 15697.74, 380.56, -152.37, 8187.71, -36408.66, -27612.81, 28758.02, -122.26, 12319.21, 0.00, 0.00, 0.00, 0.00, 0.00, 0.00, 0.00
46, 13499.47, 37866.29, -312.01, 15697.74, 380.56, -152.37, 8187.71, -36408.66, -27616.27, 28768.57, -111.09, 12322.43, 0.00, 0.00, 0.00, 0.00, 0.00, 0.00, 0.00
47, 13480.18, 37852.05, -320.39, 15679.44, 366.08, -169.61, 8168.94, -36417.11, -27616.27, 28768.57, -111.09, 12322.43, 0.00, 0.00, 0.00, 0.00, 0.00, 0.00, 0.00
48, 13480.18, 37852.05, -320.39, 15679.44, 366.08, -169.61, 8168.94, -36417.11, -27616.61, 28750.94, -120.79, 12317.69, 0.00, 0.00, 0.00, 0.00, 0.00, 0.00, 0.00
49, 13500.90, 37860.84, -313.84, 15699.73, 377.72, -154.94, 8186.53, -36411.28, -27616.61, 28750.94, -120.79, 12317.69, 0.00, 0.00, 0.00, 0.00, 0.00, 0.00, 0.00
50, 13500.90, 37860.84, -313.84, 15699.73, 377.72, -154.94, 8186.53, -36411.28, -27621.93, 28768.68, -120.16, 12322.32, 0.00, 0.00, 0.00, 0.00, 0.00, 0.00, 0.00
51, 13476.29, 37838.66, -328.08, 15677.98, 361.29, -170.77, 8162.68, -36424.22, -27621.93, 28768.68, -120.16, 12322.32, 0.00, 0.00, 0.00, 0.00, -0.03, 0.33, 0.95
52, 13476.29, 37838.66, -328.08, 15677.98, 361.29, -170.77, 8162.68, -36424.22, -27616.81, 28744.34, -131.41, 12310.85, 0.00, 0.00, 0.00, 0.00, 0.00, 0.00, 0.00
53, 13490.01, 37856.81, -321.51, 15694.50, 372.13, -161.11, 8182.53, -36414.88, -27616.81, 28744.34, -131.41, 12310.85, 0.00, 0.00, 0.00, 0.00, 0.00, 0.00, 0.00
54, 13490.01, 37856.81, -321.51, 15694.50, 372.13, -161.11, 8182.53, -36414.88, -27622.64, 28770.43, -120.30, 12323.68, 0.00, 0.00, 0.00, 0.00, 0.00, 0.00, 0.00
55, 13485.52, 37845.23, -324.03, 15683.55, 364.47, -168.40, 8170.19, -36419.55, -27622.64, 28770.43, -120.30, 12323.68, 0.00, 0.00, 0.00, 0.00, 0.00, 0.00, 0.00
56, 13485.52, 37845.23, -324.03, 15683.55, 364.47, -168.40, 8170.19, -36419.55, -27619.22, 28742.26, -126.80, 12310.83, 0.00, 0.00, 0.00, 0.00, 0.00, 0.00, 0.00
57, 13484.32, 37837.37, -323.99, 15692.42, 367.35, -162.30, 8176.54, -36418.48, -27619.22, 28742.26, -126.80, 12310.83, 0.00, 0.00, 0.00, 0.00, 0.00, 0.00, 0.00
58, 13484.32, 37837.37, -323.99, 15692.42, 367.35, -162.30, 8176.54, -36418.48, -27624.54, 28771.95, -124.07, 12327.41, 0.00, 0.00, 0.00, 0.00, 0.00, 0.00, 0.00
59, 13490.31, 37848.30, -317.82, 15688.69, 369.05, -163.57, 8175.57, -36414.86, -27624.54, 28771.95, -124.07, 12327.41, 0.00, 0.00, 0.00, 0.00, 0.00, 0.00, 0.00
60, 13490.31, 37848.30, -317.82, 15688.69, 369.05, -163.57, 8175.57, -36414.86, -27611.02, 28748.99, -118.98, 12317.35, 0.00, 0.00, 0.00, 0.00, 0.00, 0.00, 0.00
61, 13490.01, 37848.14, -317.93, 15697.56, 371.33, -158.92, 8182.10, -36414.30, -27611.02, 28748.99, -118.98, 12317.35, 0.00, 0.00, 0.00, 0.00, -0.03, 0.33, 0.95
62, 13490.01, 37848.14, -317.93, 15697.56, 371.33, -158.92, 8182.10, -36414.30, -27621.39, 28772.51, -123.72, 12326.65, 0.00, 0.00, 0.00, 0.00, 0.00, 0.00, 0.00
63, 13491.22, 37854.27, -317.66, 15687.84, 370.52, -164.53, 8176.16, -36414.37, -27621.39, 28772.51, -123.72, 12326.65, 0.00, 0.00, 0.00, 0.00, 0.00, 0.00, 0.00
64, 13491.22, 37854.27, -317.66, 15687.84, 370.52, -164.53, 8176.16, -36414.37, -27612.79, 28748.10, -114.98, 12317.11, 0.00, 0.00, 0.00, 0.00, 0.00, 0.00, 0.00
65, 13483.60, 37845.82, -320.10, 15690.25, 369.63, -163.86, 8177.81, -36412.93, -27612.79, 28748.10, -114.98, 12317.11, 0.00, 0.00, 0.00, 0.00, 0.00, 0.00, 0.00
66, 13483.60, 37845.82, -320.10, 15690.25, 369.63, -163.86, 8177.81, -36412.93, -27620.56, 28774.63, -118.33, 12331.73, 0.00, 0.00, 0.00, 0.00, 0.00, 0.00, 0.00
67, 13497.10, 37865.64, -310.78, 15698.01, 373.88, -155.79, 8182.73, -36411.55, -27620.56, 28774.63, -118.33, 12331.73, 0.00, 0.00, 0.00, 0.00, 0.00, 0.00, 0.00
68, 13497.10, 37865.64, -310.78, 15698.01, 373.88, -155.79, 8182.73, -36411.55, -27617.10, 28746.91, -112.88, 12317.08, 0.00, 0.00, 0.00, 0.00, 0.00, 0.00, 0.00
69, 13491.80, 37846.06, -319.41, 15690.81, 368.69, -164.22, 8179.42, -36413.88, -27617.10, 28746.91, -112.88, 12317.08, 0.00, 0.00, 0.00, 0.00, 0.00, 0.00, 0.00
70, 13491.80, 37846.06, -319.41, 15690.81, 368.69, -164.22, 8179.42, -36413.88, -27617.59, 28780.04, -121.01, 12339.03, 0.00, 0.00, 0.00, 0.00, -0.03, 0.34, 0.95
71, 13490.95, 37854.20, -314.42, 15697.50, 378.01, -155.52, 8188.72, -36407.21, -27617.59, 28780.04, -121.01, 12339.03, 0.00, 0.00, 0.00, 0.00, 0.00, 0.00, 0.00
72, 13490.95, 37854.20, -314.42, 15697.50, 378.01, -155.52, 8188.72, -36407.21, -27607.82, 28757.06, -111.60, 12324.68, 0.00, 0.00, 0.00, 0.00, 0.00, 0.00, 0.00
73, 13490.69, 37860.61, -315.87, 15689.27, 369.45, -163.41, 8178.77, -36414.90, -27607.82, 28757.06, -111.60, 12324.68, 0.00, 0.00, 0.00, 0.00, 0.00, 0.00, 0.00
74, 13490.69, 37860.61, -315.87, 15689.27, 369.45, -163.41, 8178.77, -36414.90, -27616.99, 28771.19, -117.32, 12331.21, 0.00, 0.00, 0.00, 0.00, 0.00, 0.00, 0.00
75, 13497.41, 37850.89, -315.81, 15696.02, 376.60, -157.07, 8186.86, -36410.63, -27616.99, 28771.19, -117.32, 12331.21, 0.00, 0.00, 0.00, 0.00, 0.00, 0.00, 0.00
76, 13497.41, 37850.89, -315.81, 15696.02, 376.60, -157.07, 8186.86, -36410.63, -27612.07, 28758.27, -106.10, 12327.34, 0.00, 0.00, 0.00, 0.00, 0.00, 0.00, 0.00
77, 13482.28, 37840.21, -321.28, 15686.81, 367.08, -164.33, 8176.07, -36414.32, -27612.07, 28758.27, -106.10, 12327.34, 0.00, 0.00, 0.00, 0.00, 0.00, 0.00, 0.00
78, 13482.28, 37840.21, -321.28, 15686.81, 367.08, -164.33, 8176.07, -36414.32, -27614.51, 28774.81, -123.09, 12339.35, 0.00, 0.00, 0.00, 0.00, 0.00, 0.00, 0.00
79, 13485.57, 37854.60, -315.61, 15701.03, 379.24, -153.24, 8191.80, -36405.63, -27614.51, 28774.81, -123.09, 12339.35, 0.00, 0.00, 0.00, 0.00, 0.00, 0.00, 0.00
80, 13485.57, 37854.60, -315.61, 15701.03, 379.24, -153.24, 8191.80, -36405.63, -27612.23, 28763.47, -108.38, 12330.88, 0.00, 0.00, 0.00, 0.00, -0.03, 0.33, 0.96
81, 13485.48, 37844.95, -321.26, 15686.39, 367.46, -164.33, 8176.11, -36415.15, -27612.23, 28763.47, -108.38, 12330.88, 0.00, 0.00, 0.00, 0.00, 0.00, 0.00, 0.00
82, 13485.48, 37844.95, -321.26, 15686.39, 367.46, -164.33, 8176.11, -36415.15, -27614.04, 28769.40, -119.87, 12339.28, 0.00, 0.00, 0.00, 0.00, 0.00, 0.00, 0.00
83, 13497.70, 37873.06, -311.18, 15706.55, 380.25, -150.32, 8192.72, -36408.33, -27614.04, 28769.40, -119.87, 12339.28, 0.00, 0.00, 0.00, 0.00, 0.00, 0.00, 0.00
84, 13497.70, 37873.06, -311.18, 15706.55, 380.25, -150.32, 8192.72, -36408.33, -27610.17, 28766.54, -106.71, 12333.54, 0.00, 0.00, 0.00, 0.00, 0.00, 0.00, 0.00
85, 13480.85, 37834.98, -322.29, 15686.10, 367.02, -166.01, 8176.16, -36414.28, -27610.17, 28766.54, -106.71, 12333.54, 0.00, 0.00, 0.00, 0.00, 0.00, 0.00, 0.00
86, 13480.85, 37834.98, -322.29, 15686.10, 367.02, -166.01, 8176.16, -36414.28, -27610.44, 28765.13, -117.19, 12339.39, 0.00, 0.00, 0.00, 0.00, 0.00, 0.00, 0.00
87, 13495.89, 37855.70, -310.49, 15711.60, 383.78, -150.81, 8198.17, -36401.65, -27610.44, 28765.13, -117.19, 12339.39, 0.00, 0.00, 0.00, 0.00, 0.00, 0.00, 0.00
88, 13495.89, 37855.70, -310.49, 15711.60, 383.78, -150.81, 8198.17, -36401.65, -27607.02, 28773.15, -99.91, 12341.85, 0.00, 0.00, 0.00, 0.00, 0.00, 0.00, 0.00
89, 13496.00, 37847.76, -312.59, 15697.34, 373.30, -160.11, 8180.13, -36407.26, -27607.02, 28773.15, -99.91, 12341.85, 0.00, 0.00, 0.00, 0.00, 0.00, 0.00, 0.00
90, 13496.00, 37847.76, -312.59, 15697.34, 373.30, -160.11, 8180.13, -36407.26, -27604.83, 28767.52, -113.23, 12343.50, 0.00, 0.00, 0.00, 0.00, -0.03, 0.33, 0.96
91, 13504.07, 37870.78, -301.68, 15715.73, 388.85, -146.63, 8203.78, -36397.98, -27604.83, 28767.52, -113.23, 12343.50, 0.00, 0.00, 0.00, 0.00, 0.00, 0.00, 0.00
92, 13504.07, 37870.78, -301.68, 15715.73, 388.85, -146.63, 8203.78, -36397.98, -27610.17, 28772.28, -107.38, 12340.06, 0.00, 0.00, 0.00, 0.00, 0.00, 0.00, 0.00
93, 13492.83, 37853.13, -315.43, 15696.31, 369.38, -162.92, 8179.08, -36411.73, -27610.17, 28772.28, -107.38, 12340.06, 0.00, 0.00, 0.00, 0.00, 0.00, 0.00, 0.00
94, 13492.83, 37853.13, -315.43, 15696.31, 369.38, -162.92, 8179.08, -36411.73, -27605.99, 28758.85, -113.79, 12334.74, 0.00, 0.00, 0.00, 0.00, 0.00, 0.00, 0.00
95, 13500.41, 37861.77, -309.04, 15711.51, 383.38, -150.87, 8196.12, -36405.56, -27605.99, 28758.85, -113.79, 12334.74, 0.00, 0.00, 0.00, 0.00, 0.00, 0.00, 0.00
96, 13500.41, 37861.77, -309.04, 15711.51, 383.38, -150.87, 8196.12, -36405.56, -27610.84, 28772.64, -105.19, 12338.30, 0.00, 0.00, 0.00, 0.00, 0.00, 0.00, 0.00
97, 13498.33, 37855.54, -314.09, 15695.15, 372.18, -160.89, 8180.89, -36410.75, -27610.84, 28772.64, -105.19, 12338.30, 0.00, 0.00, 0.00, 0.00, 0.00, 0.00, 0.00
98, 13498.33, 37855.54, -314.09, 15695.15, 372.18, -160.89, 8180.89, -36410.75, -27606.91, 28756.17, -110.75, 12336.75, 0.00, 0.00, 0.00, 0.00, 0.00, 0.00, 0.00
99, 13489.97, 37849.41, -314.58, 15706.70, 379.60, -154.09, 8195.02, -36402.74, -27606.91, 28756.17, -110.75, 12336.75, 0.00, 0.00, 0.00, 0.00, 0.00, 0.00, 0.00
100, 13489.97, 37849.41, -314.58, 15706.70, 379.60, -154.09, 8195.02, -36402.74, -27614.42, 28777.04, -107.74, 12344.35, 0.00, 0.00, 0.00, 0.00, -0.02, 0.32, 0.95
101, 13492.81, 37849.30, -319.85, 15690.72, 368.62, -164.73, 8178.50, -36408.78, -27614.42, 28777.04, -107.74, 12344.35, 0.00, 0.00, 0.00, 0.00, 0.00, 0.00, 0.00
102, 13492.81, 37849.30, -319.85, 15690.72, 368.62, -164.73, 8178.50, -36408.78, -27611.02, 28750.67, -116.18, 12334.81, 0.00, 0.00, 0.00, 0.00, 0.00, 0.00, 0.00
103, 13492.65, 37859.94, -314.11, 15704.42, 376.45, -155.99, 8191.65, -36406.16, -27611.02, 28750.67, -116.18, 12334.81, 0.00, 0.00, 0.00, 0.00, 0.00, 0.00, 0.00
104, 13492.65, 37859.94, -314.11, 15704.42, 376.45, -155.99, 8191.65, -36406.16, -27615.11, 28775.86, -106.95, 12345.45, 0.00, 0.00, 0.00, 0.00, 0.00, 0.00, 0.00
105, 13491.69, 37850.31, -315.63, 15696.42, 372.94, -163.12, 8182.55, -36407.39, -27615.11, 28775.86, -106.95, 12345.45, 0.00, 0.00, 0.00, 0.00, 0.00, 0.00, 0.00
106, 13491.69, 37850.31, -315.63, 15696.42, 372.94, -163.12, 8182.55, -36407.39, -27611.98, 28749.62, -110.57, 12335.70, 0.00, 0.00, 0.00, 0.00, 0.00, 0.00, 0.00
107, 13492.21, 37863.03, -312.19, 15702.52, 378.39, -157.36, 8191.02, -36404.02, -27611.98, 28749.62, -110.57, 12335.70, 0.00, 0.00, 0.00, 0.00, 0.00, 0.00, 0.00
108, 13492.21, 37863.03, -312.19, 15702.52, 378.39, -157.36, 8191.02, -36404.02, -27609.43, 28780.06, -106.51, 12349.05, 0.00, 0.00, 0.00, 0.00, 0.00, 0.00, 0.00
109, 13493.73, 37857.98, -315.85, 15695.24, 373.54, -160.44, 8182.88, -36407.46, -27609.43, 28780.06, -106.51, 12349.05, 0.00, 0.00, 0.00, 0.00, -0.03, 0.33, 0.95
110, 13493.73, 37857.98, -315.85, 15695.24, 373.54, -160.44, 8182.88, -36407.46, -27605.74, 28748.63, -104.58, 12335.39, 0.00, 0.00, 0.00, 0.00, 0.00, 0.00, 0.00
111, 13491.33, 37858.71, -313.93, 15701.59, 376.43, -161.98, 8192.14, -36401.74, -27605.74, 28748.63, -104.58, 12335.39, 0.00, 0.00, 0.00, 0.00, 0.00, 0.00, 0.00
112, 13491.33, 37858.71, -313.93, 15701.59, 376.43, -161.98, 8192.14, -36401.74, -27608.99, 28781.63, -110.08, 12355.22, 0.00, 0.00, 0.00, 0.00, 0.00, 0.00, 0.00
113, 13492.58, 37876.39, -313.64, 15697.14, 377.03, -159.14, 8190.68, -36399.99, -27608.99, 28781.63, -110.08, 12355.22, 0.00, 0.00, 0.00, 0.00, 0.00, 0.00, 0.00
114, 13492.58, 37876.39, -313.64, 15697.14, 377.03, -159.14, 8190.68, -36399.99, -27603.67, 28757.51, -100.85, 12344.42, 0.00, 0.00, 0.00, 0.00, 0.00, 0.00, 0.00
115, 13501.03, 37857.28, -315.61, 15698.55, 375.49, -159.10, 8190.01, -36399.68, -27603.67, 28757.51, -100.85, 12344.42, 0.00, 0.00, 0.00, 0.00, 0.00, 0.00, 0.00
116, 13501.03, 37857.28, -315.61, 15698.55, 375.49, -159.10, 8190.01, -36399.68, -27609.88, 28781.07, -103.94, 12355.53, 0.00, 0.00, 0.00, 0.00, 0.00, 0.00, 0.00
117, 13492.05, 37853.73, -312.05, 15704.87, 381.37, -156.57, 8195.24, -36396.46, -27609.88, 28781.07, -103.94, 12355.53, 0.00, 0.00, 0.00, 0.00, 0.00, 0.00, 0.00
118, 13492.05, 37853.73, -312.05, 15704.87, 381.37, -156.57, 8195.24, -36396.46, -27607.26, 28755.59, -103.91, 12341.87, 0.00, 0.00, 0.00, 0.00, 0.00, 0.00, 0.00
119, 13490.64, 37852.92, -319.14, 15694.14, 369.97, -165.89, 8184.49, -36403.14, -27607.26, 28755.59, -103.91, 12341.87, 0.00, 0.00, 0.00, 0.00, -0.03, 0.33, 0.95
120, 13490.64, 37852.92, -319.14, 15694.14, 369.97, -165.89, 8184.49, -36403.14, -27609.46, 28778.23, -112.47, 12355.13, 0.00, 0.00, 0.00, 0.00, 0.00, 0.00, 0.00
121, 13492.14, 37865.20, -314.78, 15703.49, 378.91, -156.62, 8195.16, -36395.10, -27609.46, 28778.23, -112.47, 12355.13, 0.00, 0.00, 0.00, 0.00, 0.00, 0.00, 0.00
122, 13492.14, 37865.20, -314.78, 15703.49, 378.91, -156.62, 8195.16, -36395.10, -27609.70, 28755.56, -107.18, 12341.00, 0.00, 0.00, 0.00, 0.00, 0.00, 0.00, 0.00
123, 13482.53, 37846.78, -326.54, 15690.30, 365.09, -167.91, 8180.74, -36406.09, -27609.70, 28755.56, -107.18, 12341.00, 0.00, 0.00, 0.00, 0.00, 0.00, 0.00, 0.00
124, 13482.53, 37846.78, -326.54, 15690.30, 365.09, -167.91, 8180.74, -36406.09, -27612.90, 28772.21, -119.60, 12353.25, 0.00, 0.00, 0.00, 0.00, 0.00, 0.00, 0.00
125, 13482.73, 37844.90, -326.47, 15699.82, 373.43, -157.62, 8193.52, -36401.71, -27612.90, 28772.21, -119.60, 12353.25, 0.00, 0.00, 0.00, 0.00, 0.00, 0.00, 0.00
126, 13482.73, 37844.90, -326.47, 15699.82, 373.43, -157.62, 8193.52, -36401.71, -27614.04, 28756.57, -115.20, 12341.16, 0.00, 0.00, 0.00, 0.00, 0.00, 0.00, 0.00
127, 13469.99, 37833.37, -337.78, 15680.40, 358.61, -174.03, 8176.16, -36411.32, -27614.04, 28756.57, -115.20, 12341.16, 0.00, 0.00, 0.00, 0.00, 0.00, 0.00, 0.00
128, 13469.99, 37833.37, -337.78, 15680.40, 358.61, -174.03, 8176.16, -36411.32, -27614.46, 28764.04, -128.05, 12347.37, 0.00, 0.00, 0.00, 0.00, 0.00, 0.00, 0.00
129, 13482.53, 37850.98, -327.86, 15701.21, 374.59, -156.84, 8195.13, -36400.55, -27614.46, 28764.04, -128.05, 12347.37, 0.00, 0.00, 0.00, 0.00, -0.03, 0.33, 0.96
130, 13482.53, 37850.98, -327.86, 15701.21, 374.59, -156.84, 8195.13, -36400.55, -27615.36, 28761.06, -119.92, 12345.72, 0.00, 0.00, 0.00, 0.00, 0.00, 0.00, 0.00
131, 13470.66, 37835.40, -337.27, 15682.32, 360.29, -171.88, 8178.19, -36408.29, -27615.36, 28761.06, -119.92, 12345.72, 0.00, 0.00, 0.00, 0.00, 0.00, 0.00, 0.00
132, 13470.66, 37835.40, -337.27, 15682.32, 360.29, -171.88, 8178.19, -36408.29, -27614.24, 28765.20, -128.37, 12349.47, 0.00, 0.00, 0.00, 0.00, 0.00, 0.00, 0.00
133, 13484.56, 37846.66, -330.00, 15700.74, 372.29, -160.11, 8194.51, -36402.25, -27614.24, 28765.20, -128.37, 12349.47, 0.00, 0.00, 0.00, 0.00, 0.00, 0.00, 0.00
134, 13484.56, 37846.66, -330.00, 15700.74, 372.29, -160.11, 8194.51, -36402.25, -27617.21, 28761.93, -117.08, 12344.04, 0.00, 0.00, 0.00, 0.00, 0.00, 0.00, 0.00
135, 13471.22, 37834.68, -336.64, 15679.66, 358.25, -174.39, 8175.80, -36410.83, -27617.21, 28761.93, -117.08, 12344.04, 0.00, 0.00, 0.00, 0.00, 0.00, 0.00, 0.00
136, 13471.22, 37834.68, -336.64, 15679.66, 358.25, -174.39, 8175.80, -36410.83, -27613.05, 28758.83, -126.33, 12347.01, 0.00, 0.00, 0.00, 0.00, 0.00, 0.00, 0.00
137, 13481.86, 37852.12, -325.75, 15702.30, 372.94, -157.76, 8196.83, -36401.83, -27613.05, 28758.83, -126.33, 12347.01, 0.00, 0.00, 0.00, 0.00, 0.00, 0.00, 0.00
138, 13481.86, 37852.12, -325.75, 15702.30, 372.94, -157.76, 8196.83, -36401.83, -27613.57, 28768.71, -117.70, 12351.46, 0.00, 0.00, 0.00, 0.00, 0.00, 0.00, 0.00
139, 13478.71, 37850.51, -329.82, 15683.66, 363.84, -173.16, 8180.27, -36405.74, -27613.57, 28768.71, -117.70, 12351.46, 0.00, 0.00, 0.00, 0.00, -0.04, 0.33, 0.96
140, 13478.71, 37850.51, -329.82, 15683.66, 363.84, -173.16, 8180.27, -36405.74, -27609.70, 28758.49, -118.49, 12350.75, 0.00, 0.00, 0.00, 0.00, 0.00, 0.00, 0.00
141, 13482.62, 37844.23, -325.69, 15700.69, 377.88, -158.59, 8198.89, -36399.34, -27609.70, 28758.49, -118.49, 12350.75, 0.00, 0.00, 0.00, 0.00, 0.00, 0.00, 0.00
142, 13482.62, 37844.23, -325.69, 15700.69, 377.88, -158.59, 8198.89, -36399.34, -27613.23, 28772.44, -110.48, 12354.30, 0.00, 0.00, 0.00, 0.00, 0.00, 0.00, 0.00
143, 13466.95, 37830.10, -335.10, 15682.86, 362.17, -171.30, 8179.42, -36406.50, -27613.23, 28772.44, -110.48, 12354.30, 0.00, 0.00, 0.00, 0.00, 0.00, 0.00, 0.00
144, 13466.95, 37830.10, -335.10, 15682.86, 362.17, -171.30, 8179.42, -36406.50, -27606.06, 28758.63, -123.05, 12353.47, 0.00, 0.00, 0.00, 0.00, 0.00, 0.00, 0.00
145, 13481.32, 37852.77, -324.03, 15700.49, 378.39, -154.54, 8199.65, -36394.45, -27606.06, 28758.63, -123.05, 12353.47, 0.00, 0.00, 0.00, 0.00, 0.00, 0.00, 0.00
146, 13481.32, 37852.77, -324.03, 15700.49, 378.39, -154.54, 8199.65, -36394.45, -27608.63, 28778.07, -111.47, 12359.75, 0.00, 0.00, 0.00, 0.00, 0.00, 0.00, 0.00
147, 13470.66, 37843.22, -334.47, 15681.22, 361.23, -171.75, 8179.71, -36407.53, -27608.63, 28778.07, -111.47, 12359.75, 0.00, 0.00, 0.00, 0.00, 0.00, 0.00, 0.00
148, 13470.66, 37843.22, -334.47, 15681.22, 361.23, -171.75, 8179.71, -36407.53, -27611.11, 28750.73, -124.90, 12346.25, 0.00, 0.00, 0.00, 0.00, -0.03, 0.33, 0.96
149, 13477.36, 37847.38, -328.68, 15696.02, 376.38, -163.41, 8200.72, -36394.63, -27611.11, 28750.73, -124.90, 12346.25, 0.00, 0.00, 0.00, 0.00, 0.00, 0.00, 0.00
150, 13477.36, 37847.38, -328.68, 15696.02, 376.38, -163.41, 8200.72, -36394.63, -27604.49, 28786.68, -107.51, 12365.48, 0.00, 0.00, 0.00, 0.00, 0.00, 0.00, 0.00
151, 13474.86, 37837.95, -330.74, 15684.93, 369.61, -168.80, 8187.80, -36398.65, -27604.49, 28786.68, -107.51, 12365.48, 0.00, 0.00, 0.00, 0.00, 0.00, 0.00, 0.00
152, 13474.86, 37837.95, -330.74, 15684.93, 369.61, -168.80, 8187.80, -36398.65, -27600.58, 28761.24, -111.20, 12356.69, 0.00, 0.00, 0.00, 0.00, 0.00, 0.00, 0.00
153, 13483.94, 37860.01, -323.21, 15699.28, 377.52, -156.91, 8199.11, -36394.14, -27600.58, 28761.24, -111.20, 12356.69, 0.00, 0.00, 0.00, 0.00, 0.00, 0.00, 0.00
154, 13483.94, 37860.01, -323.21, 15699.28, 377.52, -156.91, 8199.11, -36394.14, -27612.49, 28780.60, -113.37, 12362.17, 0.00, 0.00, 0.00, 0.00, 0.00, 0.00, 0.00
155, 13475.78, 37835.87, -333.06, 15688.60, 365.92, -169.14, 8186.59, -36405.04, -27612.49, 28780.60, -113.37, 12362.17, 0.00, 0.00, 0.00, 0.00, 0.00, 0.00, 0.00
156, 13475.78, 37835.87, -333.06, 15688.60, 365.92, -169.14, 8186.59, -36405.04, -27610.82, 28750.71, -117.99, 12347.01, 0.00, 0.00, 0.00, 0.00, 0.00, 0.00, 0.00
157, 13472.60, 37844.27, -331.79, 15691.62, 367.80, -165.92, 8191.31, -36405.29, -27610.82, 28750.71, -117.99, 12347.01, 0.00, 0.00, 0.00, 0.00, 0.00, 0.00, 0.00
158, 13472.60, 37844.27, -331.79, 15691.62, 367.80, -165.92, 8191.31, -36405.29, -27614.53, 28775.23, -109.12, 12357.50, 0.00, 0.00, 0.00, 0.00, -0.03, 0.34, 0.95
159, 13485.48, 37848.12, -325.91, 15691.93, 368.00, -163.15, 8190.28, -36404.31, -27614.53, 28775.23, -109.12, 12357.50, 0.00, 0.00, 0.00, 0.00, 0.00, 0.00, 0.00
160, 13485.48, 37848.12, -325.91, 15691.93, 368.00, -163.15, 8190.28, -36404.31, -27608.16, 28751.58, -106.75, 12345.40, 0.00, 0.00, 0.00, 0.00, 0.00, 0.00, 0.00
161, 13479.96, 37855.85, -323.54, 15694.32, 373.18, -166.57, 8194.89, -36401.80, -27608.16, 28751.58, -106.75, 12345.40, 0.00, 0.00, 0.00, 0.00, 0.00, 0.00, 0.00
162, 13479.96, 37855.85, -323.54, 15694.32, 373.18, -166.57, 8194.89, -36401.80, -27606.26, 28784.53, -107.33, 12368.94, 0.00, 0.00, 0.00, 0.00, 0.00, 0.00, 0.00
163, 13488.50, 37852.88, -321.42, 15700.09, 375.84, -161.25, 8200.92, -36393.55, -27606.26, 28784.53, -107.33, 12368.94, 0.00, 0.00, 0.00, 0.00, 0.00, 0.00, 0.00
164, 13488.50, 37852.88, -321.42, 15700.09, 375.84, -161.25, 8200.92, -36393.55, -27608.29, 28755.07, -113.30, 12348.62, 0.00, 0.00, 0.00, 0.00, 0.00, 0.00, 0.00
165, 13481.19, 37844.05, -332.33, 15687.15, 361.07, -173.11, 8185.72, -36407.84, -27608.29, 28755.07, -113.30, 12348.62, 0.00, 0.00, 0.00, 0.00, 0.00, 0.00, 0.00
166, 13481.19, 37844.05, -332.33, 15687.15, 361.07, -173.11, 8185.72, -36407.84, -27618.46, 28771.81, -120.90, 12358.95, 0.00, 0.00, 0.00, 0.00, 0.00, 0.00, 0.00
167, 13481.90, 37849.30, -328.44, 15698.34, 371.37, -161.02, 8197.10, -36400.20, -27618.46, 28771.81, -120.90, 12358.95, 0.00, 0.00, 0.00, 0.00, 0.00, 0.00, 0.00
168, 13481.90, 37849.30, -328.44, 15698.34, 371.37, -161.02, 8197.10, -36400.20, -27608.63, 28756.05, -110.13, 12352.11, 0.00, 0.00, 0.00, 0.00, -0.03, 0.34, 0.96
169, 13472.45, 37839.13, -331.43, 15684.93, 365.99, -171.48, 8188.07, -36403.61, -27608.63, 28756.05, -110.13, 12352.11, 0.00, 0.00, 0.00, 0.00, 0.00, 0.00, 0.00
170, 13472.45, 37839.13, -331.43, 15684.93, 365.99, -171.48, 8188.07, -36403.61, -27608.56, 28776.06, -117.06, 12362.24, 0.00, 0.00, 0.00, 0.00, 0.00, 0.00, 0.00
171, 13486.64, 37868.32, -323.23, 15701.72, 375.42, -159.50, 8200.59, -36398.09, -27608.56, 28776.06, -117.06, 12362.24, 0.00, 0.00, 0.00, 0.00, 0.00, 0.00, 0.00
172, 13486.64, 37868.32, -323.23, 15701.72, 375.42, -159.50, 8200.59, -36398.09, -27605.95, 28760.28, -108.61, 12353.41, 0.00, 0.00, 0.00, 0.00, 0.00, 0.00, 0.00
173, 13480.81, 37845.66, -330.20, 15684.02, 365.59, -173.87, 8186.04, -36404.33, -27605.95, 28760.28, -108.61, 12353.41, 0.00, 0.00, 0.00, 0.00, 0.00, 0.00, 0.00
174, 13480.81, 37845.66, -330.20, 15684.02, 365.59, -173.87, 8186.04, -36404.33, -27609.05, 28770.74, -117.01, 12360.89, 0.00, 0.00, 0.00, 0.00, 0.00, 0.00, 0.00
175, 13476.40, 37852.92, -324.26, 15698.23, 374.21, -162.70, 8197.17, -36400.04, -27609.05, 28770.74, -117.01, 12360.89, 0.00, 0.00, 0.00, 0.00, 0.00, 0.00, 0.00
176, 13476.40, 37852.92, -324.26, 15698.23, 374.21, -162.70, 8197.17, -36400.04, -27610.21, 28759.09, -105.72, 12351.44, 0.00, 0.00, 0.00, 0.00, 0.00, 0.00, 0.00
177, 13475.40, 37837.05, -331.45, 15684.15, 363.93, -174.03, 8185.83, -36404.78, -27610.21, 28759.09, -105.72, 12351.44, 0.00, 0.00, 0.00, 0.00, 0.00, 0.00, 0.00
178, 13475.40, 37837.05, -331.45, 15684.15, 363.93, -174.03, 8185.83, -36404.78, -27609.41, 28766.22, -116.99, 12358.91, 0.00, 0.00, 0.00, 0.00, -0.03, 0.34, 0.95
179, 13489.08, 37864.50, -317.19, 15704.47, 378.97, -159.79, 8204.30, -36396.48, -27609.41, 28766.22, -116.99, 12358.91, 0.00, 0.00, 0.00, 0.00, 0.00, 0.00, 0.00
180, 13489.08, 37864.50, -317.19, 15704.47, 378.97, -159.79, 8204.30, -36396.48, -27606.10, 28767.32, -101.14, 12359.29, 0.00, 0.00, 0.00, 0.00, 0.00, 0.00, 0.00
181, 13478.86, 37850.71, -329.82, 15684.89, 367.33, -170.05, 8188.74, -36399.46, -27606.10, 28767.32, -101.14, 12359.29, 0.00, 0.00, 0.00, 0.00, 0.00, 0.00, 0.00
182, 13478.86, 37850.71, -329.82, 15684.89, 367.33, -170.05, 8188.74, -36399.46, -27602.71, 28772.82, -112.27, 12367.40, 0.00, 0.00, 0.00, 0.00, 0.00, 0.00, 0.00
183, 13482.55, 37854.46, -319.74, 15709.79, 383.71, -153.80, 8210.60, -36388.80, -27602.71, 28772.82, -112.27, 12367.40, 0.00, 0.00, 0.00, 0.00, 0.00, 0.00, 0.00
184, 13482.55, 37854.46, -319.74, 15709.79, 383.71, -153.80, 8210.60, -36388.80, -27605.10, 28778.76, -102.08, 12372.88, 0.00, 0.00, 0.00, 0.00, 0.00, 0.00, 0.00
185, 13470.39, 37837.10, -330.60, 15687.39, 365.27, -167.44, 8187.60, -36400.38, -27605.10, 28778.76, -102.08, 12372.88, 0.00, 0.00, 0.00, 0.00, 0.00, 0.00, 0.00
186, 13470.39, 37837.10, -330.60, 15687.39, 365.27, -167.44, 8187.60, -36400.38, -27605.79, 28764.08, -118.73, 12363.71, 0.00, 0.00, 0.00, 0.00, 0.00, 0.00, 0.00
187, 13481.43, 37862.91, -324.95, 15705.63, 376.22, -159.86, 8204.79, -36393.38, -27605.79, 28764.08, -118.73, 12363.71, 0.00, 0.00, 0.00, 0.00, -0.03, 0.33, 0.96
188, 13481.43, 37862.91, -324.95, 15705.63, 376.22, -159.86, 8204.79, -36393.38, -27615.40, 28767.48, -116.12, 12361.79, 0.00, 0.00, 0.00, 0.00, 0.00, 0.00, 0.00
189, 13468.47, 37834.13, -337.76, 15684.31, 359.21, -174.41, 8182.26, -36408.75, -27615.40, 28767.48, -116.12, 12361.79, 0.00, 0.00, 0.00, 0.00, 0.00, 0.00, 0.00
190, 13468.47, 37834.13, -337.76, 15684.31, 359.21, -174.41, 8182.26, -36408.75, -27608.18, 28754.27, -115.36, 12357.83, 0.00, 0.00, 0.00, 0.00, 0.00, 0.00, 0.00
191, 13485.37, 37860.79, -320.79, 15709.03, 378.39, -156.10, 8205.66, -36393.29, -27608.18, 28754.27, -115.36, 12357.83, 0.00, 0.00, 0.00, 0.00, 0.00, 0.00, 0.00
192, 13485.37, 37860.79, -320.79, 15709.03, 378.39, -156.10, 8205.66, -36393.29, -27609.95, 28775.30, -104.32, 12367.11, 0.00, 0.00, 0.00, 0.00, 0.00, 0.00, 0.00
193, 13469.90, 37829.16, -333.11, 15690.75, 363.69, -168.89, 8185.52, -36402.16, -27609.95, 28775.30, -104.32, 12367.11, 0.00, 0.00, 0.00, 0.00, 0.00, 0.00, 0.00
194, 13469.90, 37829.16, -333.11, 15690.75, 363.69, -168.89, 8185.52, -36402.16, -27606.68, 28754.49, -114.98, 12358.03, 0.00, 0.00, 0.00, 0.00, 0.00, 0.00, 0.00
195, 13479.40, 37846.15, -324.35, 15708.11, 375.02, -157.96, 8204.41, -36392.35, -27606.68, 28754.49, -114.98, 12358.03, 0.00, 0.00, 0.00, 0.00, 0.00, 0.00, 0.00
196, 13479.40, 37846.15, -324.35, 15708.11, 375.02, -157.96, 8204.41, -36392.35, -27605.01, 28783.97, -112.18, 12376.72, 0.00, 0.00, 0.00, 0.00, 0.00, 0.00, 0.00
197, 13481.59, 37842.84, -329.38, 15696.36, 369.74, -165.74, 8193.84, -36392.66, -27605.01, 28783.97, -112.18, 12376.72, 0.00, 0.00, 0.00, 0.00, -0.03, 0.33, 0.96
198, 13481.59, 37842.84, -329.38, 15696.36, 369.74, -165.74, 8193.84, -36392.66, -27605.25, 28756.19, -114.49, 12360.09, 0.00, 0.00, 0.00, 0.00, 0.00, 0.00, 0.00
199, 13480.18, 37858.80, -324.50, 15706.15, 378.01, -162.03, 8205.06, -36391.57, -27605.25, 28756.19, -114.49, 12360.09, 0.00, 0.00, 0.00, 0.00, 0.00, 0.00, 0.00
200, 13480.18, 37858.80, -324.50, 15706.15, 378.01, -162.03, 8205.06, -36391.57, -27610.30, 28779.72, -109.46, 12371.09, 0.00, 0.00, 0.00, 0.00, 0.00, 0.00, 0.00
201, 13467.48, 37848.68, -334.49, 15693.34, 364.15, -168.17, 8191.38, -36399.75, -27610.30, 28779.72, -109.46, 12371.09, 0.00, 0.00, 0.00, 0.00, 0.00, 0.00, 0.00
202, 13467.48, 37848.68, -334.49, 15693.34, 364.15, -168.17, 8191.38, -36399.75, -27606.42, 28749.60, -111.92, 12355.46, 0.00, 0.00, 0.00, 0.00, 0.00, 0.00, 0.00
203, 13470.55, 37833.12, -331.57, 15700.80, 373.27, -163.32, 8198.93, -36395.01, -27606.42, 28749.60, -111.92, 12355.46, 0.00, 0.00, 0.00, 0.00, 0.00, 0.00, 0.00
204, 13470.55, 37833.12, -331.57, 15700.80, 373.27, -163.32, 8198.93, -36395.01, -27607.38, 28781.20, -108.45, 12374.60, 0.00, 0.00, 0.00, 0.00, 0.00, 0.00, 0.00
205, 13472.45, 37843.38, -329.06, 15696.85, 371.44, -167.57, 8197.64, -36392.26, -27607.38, 28781.20, -108.45, 12374.60, 0.00, 0.00, 0.00, 0.00, 0.00, 0.00, 0.00
206, 13472.45, 37843.38, -329.06, 15696.85, 371.44, -167.57, 8197.64, -36392.26, -27607.33, 28749.75, -113.64, 12359.13, 0.00, 0.00, 0.00, 0.00, 0.00, 0.00, 0.00
207, 13475.17, 37841.12, -332.06, 15698.84, 366.39, -168.93, 8197.55, -36396.53, -27607.33, 28749.75, -113.64, 12359.13, 0.00, 0.00, 0.00, 0.00, -0.03, 0.33, 0.96
208, 13475.17, 37841.12, -332.06, 15698.84, 366.39, -168.93, 8197.55, -36396.53, -27608.43, 28780.28, -114.66, 12378.04, 0.00, 0.00, 0.00, 0.00, 0.00, 0.00, 0.00
209, 13476.02, 37847.52, -328.01, 15699.62, 375.38, -163.41, 8201.66, -36390.96, -27608.43, 28780.28, -114.66, 12378.04, 0.00, 0.00, 0.00, 0.00, 0.00, 0.00, 0.00
210, 13476.02, 37847.52, -328.01, 15699.62, 375.38, -163.41, 8201.66, -36390.96, -27599.15, 28760.41, -110.37, 12368.14, 0.00, 0.00, 0.00, 0.00, 0.00, 0.00, 0.00
211, 13467.86, 37839.69, -333.67, 15696.11, 371.08, -165.83, 8198.91, -36392.19, -27599.15, 28760.41, -110.37, 12368.14, 0.00, 0.00, 0.00, 0.00, 0.00, 0.00, 0.00
212, 13467.86, 37839.69, -333.67, 15696.11, 371.08, -165.83, 8198.91, -36392.19, -27605.25, 28780.91, -112.65, 12378.51, 0.00, 0.00, 0.00, 0.00, 0.00, 0.00, 0.00
213, 13468.07, 37851.25, -327.36, 15701.70, 377.23, -161.80, 8205.37, -36386.07, -27605.25, 28780.91, -112.65, 12378.51, 0.00, 0.00, 0.00, 0.00, 0.00, 0.00, 0.00
214, 13468.07, 37851.25, -327.36, 15701.70, 377.23, -161.80, 8205.37, -36386.07, -27594.99, 28764.06, -98.41, 12368.34, 0.00, 0.00, 0.00, 0.00, 0.00, 0.00, 0.00
215, 13470.46, 37845.39, -327.27, 15698.34, 369.94, -165.54, 8196.43, -36390.67, -27594.99, 28764.06, -98.41, 12368.34, 0.00, 0.00, 0.00, 0.00, 0.00, 0.00, 0.00
216, 13470.46, 37845.39, -327.27, 15698.34, 369.94, -165.54, 8196.43, -36390.67, -27601.68, 28781.04, -109.48, 12382.98, 0.00, 0.00, 0.00, 0.00, 0.00, 0.00, 0.00
217, 13485.54, 37855.02, -324.12, 15706.64, 378.86, -160.60, 8207.63, -36384.48, -27601.68, 28781.04, -109.48, 12382.98, 0.00, 0.00, 0.00, 0.00, -0.03, 0.33, 0.96
218, 13485.54, 37855.02, -324.12, 15706.64, 378.86, -160.60, 8207.63, -36384.48, -27603.24, 28759.94, -105.66, 12364.29, 0.00, 0.00, 0.00, 0.00, 0.00, 0.00, 0.00
219, 13467.82, 37839.58, -334.07, 15692.82, 365.25, -170.74, 8193.03, -36394.74, -27603.24, 28759.94, -105.66, 12364.29, 0.00, 0.00, 0.00, 0.00, 0.00, 0.00, 0.00
220, 13467.82, 37839.58, -334.07, 15692.82, 365.25, -170.74, 8193.03, -36394.74, -27599.51, 28777.83, -106.57, 12378.64, 0.00, 0.00, 0.00, 0.00, 0.00, 0.00, 0.00
221, 13484.34, 37848.54, -322.80, 15708.05, 380.87, -158.61, 8213.17, -36383.12, -27599.51, 28777.83, -106.57, 12378.64, 0.00, 0.00, 0.00, 0.00, 0.00, 0.00, 0.00
222, 13484.34, 37848.54, -322.80, 15708.05, 380.87, -158.61, 8213.17, -36383.12, -27598.21, 28765.84, -98.48, 12372.70, 0.00, 0.00, 0.00, 0.00, 0.00, 0.00, 0.00
223, 13468.78, 37837.59, -329.91, 15696.89, 369.45, -166.92, 8197.08, -36390.20, -27598.21, 28765.84, -98.48, 12372.70, 0.00, 0.00, 0.00, 0.00, 0.00, 0.00, 0.00
224, 13468.78, 37837.59, -329.91, 15696.89, 369.45, -166.92, 8197.08, -36390.20, -27598.50, 28775.61, -109.19, 12381.37, 0.00, 0.00, 0.00, 0.00, 0.00, 0.00, 0.00
225, 13480.78, 37859.47, -319.23, 15710.86, 382.68, -154.67, 8214.38, -36379.21, -27598.50, 28775.61, -109.19, 12381.37, 0.00, 0.00, 0.00, 0.00, 0.00, 0.00, 0.00
226, 13480.78, 37859.47, -319.23, 15710.86, 382.68, -154.67, 8214.38, -36379.21, -27600.49, 28766.52, -104.40, 12371.78, 0.00, 0.00, 0.00, 0.00, -0.03, 0.33, 0.96
227, 13472.54, 37841.03, -332.80, 15690.99, 363.86, -171.28, 8194.40, -36391.48, -27600.49, 28766.52, -104.40, 12371.78, 0.00, 0.00, 0.00, 0.00, 0.00, 0.00, 0.00
228, 13472.54, 37841.03, -332.80, 15690.99, 363.86, -171.28, 8194.40, -36391.48, -27594.99, 28774.36, -111.98, 12382.73, 0.00, 0.00, 0.00, 0.00, 0.00, 0.00, 0.00
