%OpenBCI Raw EEG Data
%
%Sample Rate = 250.0 Hz
%First Column = SampleIndex
%Other Columns = EEG data in microvolts followed by Accel Data (in G) interleaved with Aux Data
0, 0.00, 0.00, 0.00, 0.00, 0.00, 0.00, 0.00, 0.00, -27194.79, 28907.42, 1154.45, 14983.96, 0.00, 0.00, 0.00, 0.00, -0.04, 0.30, 0.96
1, 13346.38, 38778.35, 487.76, 16507.34, -247.30, -463.22, 8681.01, -37569.59, -27194.79, 28907.42, 1154.45, 14983.96, 0.00, 0.00, 0.00, 0.00, 0.00, 0.00, 0.00
2, 13346.38, 38778.35, 487.76, 16507.34, -247.30, -463.22, 8681.01, -37569.59, -27261.88, 28980.31, 1094.65, 15384.46, 0.00, 0.00, 0.00, 0.00, 0.00, 0.00, 0.00
3, 13368.15, 38802.92, 499.40, 16527.17, -233.26, -447.03, 8699.88, -37559.40, -27261.88, 28980.31, 1094.65, 15384.46, 0.00, 0.00, 0.00, 0.00, 0.00, 0.00, 0.00
4, 13368.15, 38802.92, 499.40, 16527.17, -233.26, -447.03, 8699.88, -37559.40, -27271.38, 29000.45, 1110.41, 15390.90, 0.00, 0.00, 0.00, 0.00, 0.00, 0.00, 0.00
5, 13348.95, 38769.75, 491.38, 16512.04, -246.54, -458.64, 8683.65, -37568.07, -27271.38, 29000.45, 1110.41, 15390.90, 0.00, 0.00, 0.00, 0.00, 0.00, 0.00, 0.00
6, 13348.95, 38769.75, 491.38, 16512.04, -246.54, -458.64, 8683.65, -37568.07, -27269.48, 28971.30, 1094.74, 15380.64, 0.00, 0.00, 0.00, 0.00, -0.05, 0.28, 0.97
7, 13343.25, 38770.02, 487.74, 16517.38, -243.81, -456.22, 8689.55, -37572.50, -27269.48, 28971.30, 1094.74, 15380.64, 0.00, 0.00, 0.00, 0.00, 0.00, 0.00, 0.00
8, 13343.25, 38770.02, 487.74, 16517.38, -243.81, -456.22, 8689.55, -37572.50, -27281.87, 28986.41, 1103.26, 15378.83, 0.00, 0.00, 0.00, 0.00, 0.00, 0.00, 0.00
9, 13339.81, 38766.48, 486.55, 16511.26, -248.42, -461.36, 8681.26, -37573.35, -27281.87, 28986.41, 1103.26, 15378.83, 0.00, 0.00, 0.00, 0.00, 0.00, 0.00, 0.00
10, 13339.81, 38766.48, 486.55, 16511.26, -248.42, -461.36, 8681.26, -37573.35, -27263.32, 28974.74, 1096.00, 15379.03, 0.00, 0.00, 0.00, 0.00, 0.00, 0.00, 0.00
11, 13350.00, 38790.09, 496.92, 16525.74, -234.00, -448.60, 8701.00, -37558.33, -27263.32, 28974.74, 1096.00, 15379.03, 0.00, 0.00, 0.00, 0.00, 0.00, 0.00, 0.00
12, 13350.00, 38790.09, 496.92, 16525.74, -234.00, -448.60, 8701.00, -37558.33, -27266.36, 29009.72, 1115.35, 15401.16, 0.00, 0.00, 0.00, 0.00, 0.00, 0.00, 0.00
13, 13346.94, 38772.90, 491.63, 16515.26, -239.50, -455.48, 8693.04, -37559.60, -27266.36, 29009.72, 1115.35, 15401.16, 0.00, 0.00, 0.00, 0.00, 0.00, 0.00, 0.00
14, 13346.94, 38772.90, 491.63, 16515.26, -239.50, -455.48, 8693.04, -37559.60, -27256.25, 28981.05, 1100.22, 15388.19, 0.00, 0.00, 0.00, 0.00, 0.00, 0.00, 0.00
15, 13347.81, 38766.89, 492.50, 16520.31, -236.01, -450.99, 8698.76, -37560.03, -27256.25, 28981.05, 1100.22, 15388.19, 0.00, 0.00, 0.00, 0.00, 0.00, 0.00, 0.00
16, 13347.81, 38766.89, 492.50, 16520.31, -236.01, -450.99, 8698.76, -37560.03, -27263.63, 29011.85, 1115.89, 15405.65, 0.00, 0.00, 0.00, 0.00, -0.05, 0.27, 0.97
17, 13351.39, 38775.63, 495.36, 16522.63, -234.07, -450.30, 8700.17, -37556.11, -27263.63, 29011.85, 1115.89, 15405.65, 0.00, 0.00, 0.00, 0.00, 0.00, 0.00, 0.00
18, 13351.39, 38775.63, 495.36, 16522.63, -234.07, -450.30, 8700.17, -37556.11, -27253.39, 28984.56, 1101.74, 15390.65, 0.00, 0.00, 0.00, 0.00, 0.00, 0.00, 0.00
19, 13339.77, 38773.93, 489.44, 16517.98, -239.97, -455.22, 8696.17, -37561.14, -27253.39, 28984.56, 1101.74, 15390.65, 0.00, 0.00, 0.00, 0.00, 0.00, 0.00, 0.00
20, 13339.77, 38773.93, 489.44, 16517.98, -239.97, -455.22, 8696.17, -37561.14, -27270.78, 28997.12, 1108.83, 15393.02, 0.00, 0.00, 0.00, 0.00, 0.00, 0.00, 0.00
21, 13348.35, 38782.64, 495.87, 16520.73, -235.50, -452.42, 8698.18, -37559.13, -27270.78, 28997.12, 1108.83, 15393.02, 0.00, 0.00, 0.00, 0.00, 0.00, 0.00, 0.00
22, 13348.35, 38782.64, 495.87, 16520.73, -235.50, -452.42, 8698.18, -37559.13, -27257.86, 28985.92, 1104.11, 15387.32, 0.00, 0.00, 0.00, 0.00, 0.00, 0.00, 0.00
23, 13339.70, 38770.48, 487.54, 16515.05, -243.14, -457.67, 8691.97, -37563.18, -27257.86, 28985.92, 1104.11, 15387.32, 0.00, 0.00, 0.00, 0.00, 0.00, 0.00, 0.00
24, 13339.70, 38770.48, 487.54, 16515.05, -243.14, -457.67, 8691.97, -37563.18, -27272.57, 29001.95, 1106.88, 15396.02, 0.00, 0.00, 0.00, 0.00, 0.00, 0.00, 0.00
25, 13344.44, 38767.11, 487.98, 16518.86, -235.41, -451.19, 8700.33, -37558.24, -27272.57, 29001.95, 1106.88, 15396.02, 0.00, 0.00, 0.00, 0.00, 0.00, 0.00, 0.00
26, 13344.44, 38767.11, 487.98, 16518.86, -235.41, -451.19, 8700.33, -37558.24, -27263.81, 28981.38, 1098.72, 15384.97, 0.00, 0.00, 0.00, 0.00, -0.05, 0.27, 0.98
27, 13338.34, 38765.99, 481.86, 16508.26, -248.06, -462.08, 8686.96, -37568.88, -27263.81, 28981.38, 1098.72, 15384.97, 0.00, 0.00, 0.00, 0.00, 0.00, 0.00, 0.00
28, 13338.34, 38765.99, 481.86, 16508.26, -248.06, -462.08, 8686.96, -37568.88, -27272.79, 28995.17, 1097.78, 15390.45, 0.00, 0.00, 0.00, 0.00, 0.00, 0.00, 0.00
29, 13330.04, 38769.32, 485.14, 16520.91, -235.19, -452.22, 8698.99, -37561.48, -27272.79, 28995.17, 1097.78, 15390.45, 0.00, 0.00, 0.00, 0.00, 0.00, 0.00, 0.00
30, 13330.04, 38769.32, 485.14, 16520.91, -235.19, -452.22, 8698.99, -37561.48, -27262.71, 28981.38, 1103.97, 15384.01, 0.00, 0.00, 0.00, 0.00, 0.00, 0.00, 0.00
31, 13323.74, 38746.08, 478.57, 16509.54, -246.81, -461.90, 8685.13, -37567.25, -27262.71, 28981.38, 1103.97, 15384.01, 0.00, 0.00, 0.00, 0.00, 0.00, 0.00, 0.00
32, 13323.74, 38746.08, 478.57, 16509.54, -246.81, -461.90, 8685.13, -37567.25, -27270.80, 28993.94, 1098.48, 15392.66, 0.00, 0.00, 0.00, 0.00, 0.00, 0.00, 0.00
33, 13333.53, 38768.23, 485.28, 16524.00, -234.51, -452.18, 8700.57, -37559.87, -27270.80, 28993.94, 1098.48, 15392.66, 0.00, 0.00, 0.00, 0.00, 0.00, 0.00, 0.00
34, 13333.53, 38768.23, 485.28, 16524.00, -234.51, -452.18, 8700.57, -37559.87, -27265.78, 28987.60, 1099.88, 15387.92, 0.00, 0.00, 0.00, 0.00, 0.00, 0.00, 0.00
35, 13326.51, 38757.86, 477.70, 16507.93, -250.63, -463.08, 8683.25, -37569.82, -27265.78, 28987.60, 1099.88, 15387.92, 0.00, 0.00, 0.00, 0.00, 0.00, 0.00, 0.00
36, 13326.51, 38757.86, 477.70, 16507.93, -250.63, -463.08, 8683.25, -37569.82, -27268.55, 28990.14, 1098.70, 15392.26, 0.00, 0.00, 0.00, 0.00, -0.05, 0.26, 0.97
37, 13344.01, 38773.61, 490.26, 16525.74, -231.23, -449.00, 8704.71, -37558.28, -27268.55, 28990.14, 1098.70, 15392.26, 0.00, 0.00, 0.00, 0.00, 0.00, 0.00, 0.00
38, 13344.01, 38773.61, 490.26, 16525.74, -231.23, -449.00, 8704.71, -37558.28, -27261.71, 28990.32, 1112.27, 15390.63, 0.00, 0.00, 0.00, 0.00, 0.00, 0.00, 0.00
39, 13329.35, 38756.79, 485.14, 16512.57, -243.01, -459.66, 8688.64, -37563.27, -27261.71, 28990.32, 1112.27, 15390.63, 0.00, 0.00, 0.00, 0.00, 0.00, 0.00, 0.00
40, 13329.35, 38756.79, 485.14, 16512.57, -243.01, -459.66, 8688.64, -37563.27, -27263.25, 28989.92, 1106.48, 15394.74, 0.00, 0.00, 0.00, 0.00, 0.00, 0.00, 0.00
41, 13341.42, 38775.45, 493.86, 16531.06, -232.08, -447.44, 8703.90, -37559.02, -27263.25, 28989.92, 1106.48, 15394.74, 0.00, 0.00, 0.00, 0.00, 0.00, 0.00, 0.00
42, 13341.42, 38775.45, 493.86, 16531.06, -232.08, -447.44, 8703.90, -37559.02, -27263.16, 28993.21, 1120.54, 15389.85, 0.00, 0.00, 0.00, 0.00, 0.00, 0.00, 0.00
43, 13347.28, 38788.14, 500.81, 16521.69, -236.10, -454.23, 8694.76, -37558.62, -27263.16, 28993.21, 1120.54, 15389.85, 0.00, 0.00, 0.00, 0.00, 0.00, 0.00, 0.00
44, 13347.28, 38788.14, 500.81, 16521.69, -236.10, -454.23, 8694.76, -37558.62, -27256.77, 28988.24, 1107.42, 15394.83, 0.00, 0.00, 0.00, 0.00, 0.00, 0.00, 0.00
45, 13351.46, 38784.68, 499.00, 16531.84, -231.25, -447.46, 8704.93, -37560.34, -27256.77, 28988.24, 1107.42, 15394.83, 0.00, 0.00, 0.00, 0.00, -0.05, 0.27, 0.97
46, 13351.46, 38784.68, 499.00, 16531.84, -231.25, -447.46, 8704.93, -37560.34, -27270.36, 28996.29, 1112.80, 15393.04, 0.00, 0.00, 0.00, 0.00, 0.00, 0.00, 0.00
47, 13337.58, 38759.40, 490.58, 16519.01, -244.93, -458.88, 8688.37, -37566.11, -27270.36, 28996.29, 1112.80, 15393.04, 0.00, 0.00, 0.00, 0.00, 0.00, 0.00, 0.00
48, 13337.58, 38759.40, 490.58, 16519.01, -244.93, -458.88, 8688.37, -37566.11, -27261.44, 28982.54, 1099.42, 15388.84, 0.00, 0.00, 0.00, 0.00, 0.00, 0.00, 0.00
49, 13344.62, 38775.69, 491.76, 16529.12, -235.90, -448.71, 8703.90, -37562.62, -27261.44, 28982.54, 1099.42, 15388.84, 0.00, 0.00, 0.00, 0.00, 0.00, 0.00, 0.00
50, 13344.62, 38775.69, 491.76, 16529.12, -235.90, -448.71, 8703.90, -37562.62, -27266.15, 29004.34, 1109.67, 15401.38, 0.00, 0.00, 0.00, 0.00, 0.00, 0.00, 0.00
51, 13334.98, 38766.82, 491.34, 16519.50, -239.86, -453.72, 8694.29, -37557.50, -27266.15, 29004.34, 1109.67, 15401.38, 0.00, 0.00, 0.00, 0.00, 0.00, 0.00, 0.00
52, 13334.98, 38766.82, 491.34, 16519.50, -239.86, -453.72, 8694.29, -37557.50, -27253.28, 28984.49, 1104.15, 15394.61, 0.00, 0.00, 0.00, 0.00, 0.00, 0.00, 0.00
53, 13343.45, 38781.48, 493.97, 16531.62, -234.58, -449.02, 8704.95, -37560.25, -27253.28, 28984.49, 1104.15, 15394.61, 0.00, 0.00, 0.00, 0.00, 0.00, 0.00, 0.00
54, 13343.45, 38781.48, 493.97, 16531.62, -234.58, -449.02, 8704.95, -37560.25, -27272.03, 28996.07, 1105.49, 15390.56, 0.00, 0.00, 0.00, 0.00, 0.00, 0.00, 0.00
55, 13338.69, 38765.59, 484.74, 16515.61, -247.75, -462.23, 8686.11, -37570.18, -27272.03, 28996.07, 1105.49, 15390.56, 0.00, 0.00, 0.00, 0.00, -0.05, 0.27, 0.98
56, 13338.69, 38765.59, 484.74, 16515.61, -247.75, -462.23, 8686.11, -37570.18, -27263.05, 28974.52, 1094.32, 15381.42, 0.00, 0.00, 0.00, 0.00, 0.00, 0.00, 0.00
57, 13338.54, 38772.56, 485.86, 16523.06, -239.14, -453.63, 8699.61, -37561.37, -27263.05, 28974.52, 1094.32, 15381.42, 0.00, 0.00, 0.00, 0.00, 0.00, 0.00, 0.00
58, 13338.54, 38772.56, 485.86, 16523.06, -239.14, -453.63, 8699.61, -37561.37, -27269.53, 29000.05, 1110.19, 15397.02, 0.00, 0.00, 0.00, 0.00, 0.00, 0.00, 0.00
59, 13338.76, 38763.20, 489.06, 16522.12, -240.39, -455.33, 8694.11, -37563.02, -27269.53, 29000.05, 1110.19, 15397.02, 0.00, 0.00, 0.00, 0.00, 0.00, 0.00, 0.00
60, 13338.76, 38763.20, 489.06, 16522.12, -240.39, -455.33, 8694.11, -37563.02, -27252.05, 28978.77, 1101.83, 15386.96, 0.00, 0.00, 0.00, 0.00, 0.00, 0.00, 0.00
61, 13341.04, 38773.66, 493.57, 16522.72, -237.08, -454.30, 8700.86, -37561.59, -27252.05, 28978.77, 1101.83, 15386.96, 0.00, 0.00, 0.00, 0.00, 0.00, 0.00, 0.00
62, 13341.04, 38773.66, 493.57, 16522.72, -237.08, -454.30, 8700.86, -37561.59, -27259.14, 29013.03, 1113.54, 15400.93, 0.00, 0.00, 0.00, 0.00, 0.00, 0.00, 0.00
63, 13342.54, 38781.08, 500.39, 16526.28, -231.88, -450.70, 8703.66, -37554.48, -27259.14, 29013.03, 1113.54, 15400.93, 0.00, 0.00, 0.00, 0.00, 0.00, 0.00, 0.00
64, 13342.54, 38781.08, 500.39, 16526.28, -231.88, -450.70, 8703.66, -37554.48, -27247.92, 28984.76, 1118.46, 15398.81, 0.00, 0.00, 0.00, 0.00, 0.00, 0.00, 0.00
65, 13340.66, 38781.26, 502.06, 16525.92, -227.74, -451.24, 8705.45, -37554.53, -27247.92, 28984.76, 1118.46, 15398.81, 0.00, 0.00, 0.00, 0.00, -0.05, 0.28, 0.98
66, 13340.66, 38781.26, 502.06, 16525.92, -227.74, -451.24, 8705.45, -37554.53, -27255.11, 29008.50, 1125.39, 15404.67, 0.00, 0.00, 0.00, 0.00, 0.00, 0.00, 0.00
67, 13343.50, 38790.40, 504.05, 16528.94, -227.16, -450.48, 8705.49, -37555.15, -27255.11, 29008.50, 1125.39, 15404.67, 0.00, 0.00, 0.00, 0.00, 0.00, 0.00, 0.00
68, 13343.50, 38790.40, 504.05, 16528.94, -227.16, -450.48, 8705.49, -37555.15, -27241.01, 28989.45, 1118.70, 15394.54, 0.00, 0.00, 0.00, 0.00, 0.00, 0.00, 0.00
69, 13336.88, 38783.52, 500.59, 16525.78, -229.31, -451.66, 8704.89, -37556.14, -27241.01, 28989.45, 1118.70, 15394.54, 0.00, 0.00, 0.00, 0.00, 0.00, 0.00, 0.00
70, 13336.88, 38783.52, 500.59, 16525.78, -229.31, -451.66, 8704.89, -37556.14, -27253.97, 29012.79, 1120.31, 15406.34, 0.00, 0.00, 0.00, 0.00, 0.00, 0.00, 0.00
71, 13343.19, 38775.16, 501.08, 16531.15, -226.27, -446.95, 8711.08, -37552.52, -27253.97, 29012.79, 1120.31, 15406.34, 0.00, 0.00, 0.00, 0.00, 0.00, 0.00, 0.00
72, 13343.19, 38775.16, 501.08, 16531.15, -226.27, -446.95, 8711.08, -37552.52, -27246.66, 28992.87, 1114.41, 15398.59, 0.00, 0.00, 0.00, 0.00, 0.00, 0.00, 0.00
73, 13329.55, 38758.19, 487.85, 16519.62, -238.92, -456.02, 8698.76, -37562.26, -27246.66, 28992.87, 1114.41, 15398.59, 0.00, 0.00, 0.00, 0.00, 0.00, 0.00, 0.00
74, 13329.55, 38758.19, 487.85, 16519.62, -238.92, -456.02, 8698.76, -37562.26, -27263.52, 29000.49, 1107.13, 15398.65, 0.00, 0.00, 0.00, 0.00, 0.00, 0.00, 0.00
75, 13338.13, 38766.42, 486.08, 16525.05, -237.78, -453.41, 8701.89, -37564.50, -27263.52, 29000.49, 1107.13, 15398.65, 0.00, 0.00, 0.00, 0.00, -0.05, 0.28, 0.97
76, 13338.13, 38766.42, 486.08, 16525.05, -237.78, -453.41, 8701.89, -37564.50, -27258.33, 28984.20, 1099.93, 15393.80, 0.00, 0.00, 0.00, 0.00, 0.00, 0.00, 0.00
77, 13331.52, 38770.17, 486.62, 16518.95, -243.75, -458.59, 8694.18, -37565.46, -27258.33, 28984.20, 1099.93, 15393.80, 0.00, 0.00, 0.00, 0.00, 0.00, 0.00, 0.00
78, 13331.52, 38770.17, 486.62, 16518.95, -243.75, -458.59, 8694.18, -37565.46, -27265.84, 28998.24, 1103.84, 15401.54, 0.00, 0.00, 0.00, 0.00, 0.00, 0.00, 0.00
79, 13334.36, 38772.14, 491.16, 16531.86, -236.17, -449.69, 8703.79, -37565.04, -27265.84, 28998.24, 1103.84, 15401.54, 0.00, 0.00, 0.00, 0.00, 0.00, 0.00, 0.00
80, 13334.36, 38772.14, 491.16, 16531.86, -236.17, -449.69, 8703.79, -37565.04, -27257.06, 28987.62, 1110.32, 15388.39, 0.00, 0.00, 0.00, 0.00, 0.00, 0.00, 0.00
81, 13333.64, 38758.08, 489.68, 16523.68, -241.67, -457.99, 8695.07, -37567.40, -27257.06, 28987.62, 1110.32, 15388.39, 0.00, 0.00, 0.00, 0.00, 0.00, 0.00, 0.00
82, 13333.64, 38758.08, 489.68, 16523.68, -241.67, -457.99, 8695.07, -37567.40, -27260.99, 28997.79, 1105.20, 15400.75, 0.00, 0.00, 0.00, 0.00, 0.00, 0.00, 0.00
83, 13336.26, 38773.10, 496.05, 16536.80, -229.33, -446.68, 8710.99, -37560.25, -27260.99, 28997.79, 1105.20, 15400.75, 0.00, 0.00, 0.00, 0.00, 0.00, 0.00, 0.00
84, 13336.26, 38773.10, 496.05, 16536.80, -229.33, -446.68, 8710.99, -37560.25, -27259.70, 28996.09, 1110.01, 15397.80, 0.00, 0.00, 0.00, 0.00, 0.00, 0.00, 0.00
85, 13325.95, 38759.58, 488.97, 16523.26, -241.56, -456.00, 8696.17, -37563.20, -27259.70, 28996.09, 1110.01, 15397.80, 0.00, 0.00, 0.00, 0.00, -0.05, 0.27, 0.97
86, 13325.95, 38759.58, 488.97, 16523.26, -241.56, -456.00, 8696.17, -37563.20, -27257.37, 28998.35, 1102.59, 15402.54, 0.00, 0.00, 0.00, 0.00, 0.00, 0.00, 0.00
87, 13339.23, 38777.05, 495.34, 16539.57, -229.04, -445.56, 8712.11, -37555.94, -27257.37, 28998.35, 1102.59, 15402.54, 0.00, 0.00, 0.00, 0.00, 0.00, 0.00, 0.00
88, 13339.23, 38777.05, 495.34, 16539.57, -229.04, -445.56, 8712.11, -37555.94, -27259.87, 29001.10, 1106.55, 15398.21, 0.00, 0.00, 0.00, 0.00, 0.00, 0.00, 0.00
89, 13323.85, 38756.67, 484.34, 16516.73, -245.33, -460.83, 8692.12, -37565.57, -27259.87, 29001.10, 1106.55, 15398.21, 0.00, 0.00, 0.00, 0.00, 0.00, 0.00, 0.00
90, 13323.85, 38756.67, 484.34, 16516.73, -245.33, -460.83, 8692.12, -37565.57, -27259.63, 28995.71, 1090.56, 15401.76, 0.00, 0.00, 0.00, 0.00, 0.00, 0.00, 0.00
91, 13332.86, 38764.74, 492.05, 16535.06, -233.75, -447.75, 8709.11, -37559.78, -27259.63, 28995.71, 1090.56, 15401.76, 0.00, 0.00, 0.00, 0.00, 0.00, 0.00, 0.00
92, 13332.86, 38764.74, 492.05, 16535.06, -233.75, -447.75, 8709.11, -37559.78, -27261.13, 29000.67, 1107.39, 15399.68, 0.00, 0.00, 0.00, 0.00, 0.00, 0.00, 0.00
93, 13333.04, 38758.57, 489.55, 16521.36, -239.79, -456.62, 8696.66, -37561.88, -27261.13, 29000.67, 1107.39, 15399.68, 0.00, 0.00, 0.00, 0.00, 0.00, 0.00, 0.00
94, 13333.04, 38758.57, 489.55, 16521.36, -239.79, -456.62, 8696.66, -37561.88, -27254.17, 28992.51, 1099.19, 15398.14, 0.00, 0.00, 0.00, 0.00, -0.05, 0.28, 0.97
95, 13330.63, 38771.80, 494.62, 16535.66, -228.93, -447.57, 8710.99, -37557.93, -27254.17, 28992.51, 1099.19, 15398.14, 0.00, 0.00, 0.00, 0.00, 0.00, 0.00, 0.00
96, 13330.63, 38771.80, 494.62, 16535.66, -228.93, -447.57, 8710.99, -37557.93, -27261.33, 29007.45, 1109.74, 15403.10, 0.00, 0.00, 0.00, 0.00, 0.00, 0.00, 0.00
97, 13324.50, 38763.63, 490.13, 16520.82, -242.09, -457.96, 8693.80, -37567.43, -27261.33, 29007.45, 1109.74, 15403.10, 0.00, 0.00, 0.00, 0.00, 0.00, 0.00, 0.00
98, 13324.50, 38763.63, 490.13, 16520.82, -242.09, -457.96, 8693.80, -37567.43, -27254.04, 28984.33, 1096.84, 15396.28, 0.00, 0.00, 0.00, 0.00, 0.00, 0.00, 0.00
99, 13338.13, 38777.64, 499.14, 16540.51, -229.11, -444.96, 8711.86, -37556.56, -27254.04, 28984.33, 1096.84, 15396.28, 0.00, 0.00, 0.00, 0.00, 0.00, 0.00, 0.00
100, 13338.13, 38777.64, 499.14, 16540.51, -229.11, -444.96, 8711.86, -37556.56, -27260.81, 29012.45, 1112.47, 15406.14, 0.00, 0.00, 0.00, 0.00, 0.00, 0.00, 0.00
101, 13333.82, 38772.47, 496.63, 16528.15, -238.83, -453.56, 8698.54, -37562.46, -27260.81, 29012.45, 1112.47, 15406.14, 0.00, 0.00, 0.00, 0.00, 0.00, 0.00, 0.00
102, 13333.82, 38772.47, 496.63, 16528.15, -238.83, -453.56, 8698.54, -37562.46, -27257.28, 28983.10, 1098.70, 15392.93, 0.00, 0.00, 0.00, 0.00, 0.00, 0.00, 0.00
103, 13340.91, 38774.98, 501.08, 16540.09, -232.30, -448.82, 8708.17, -37562.20, -27257.28, 28983.10, 1098.70, 15392.93, 0.00, 0.00, 0.00, 0.00, 0.00, 0.00, 0.00
104, 13340.91, 38774.98, 501.08, 16540.09, -232.30, -448.82, 8708.17, -37562.20, -27269.53, 29003.62, 1108.07, 15400.84, 0.00, 0.00, 0.00, 0.00, -0.05, 0.27, 0.97
105, 13346.47, 38772.30, 500.84, 16533.36, -234.98, -451.71, 8701.98, -37561.82, -27269.53, 29003.62, 1108.07, 15400.84, 0.00, 0.00, 0.00, 0.00, 0.00, 0.00, 0.00
106, 13346.47, 38772.30, 500.84, 16533.36, -234.98, -451.71, 8701.98, -37561.82, -27254.35, 28985.43, 1100.20, 15397.96, 0.00, 0.00, 0.00, 0.00, 0.00, 0.00, 0.00
107, 13338.85, 38782.42, 496.90, 16541.72, -231.18, -445.96, 8710.45, -37559.36, -27254.35, 28985.43, 1100.20, 15397.96, 0.00, 0.00, 0.00, 0.00, 0.00, 0.00, 0.00
108, 13338.85, 38782.42, 496.90, 16541.72, -231.18, -445.96, 8710.45, -37559.36, -27266.33, 29009.30, 1105.96, 15406.21, 0.00, 0.00, 0.00, 0.00, 0.00, 0.00, 0.00
109, 13328.12, 38772.43, 483.29, 16535.82, -230.47, -448.26, 8707.21, -37557.64, -27266.33, 29009.30, 1105.96, 15406.21, 0.00, 0.00, 0.00, 0.00, 0.00, 0.00, 0.00
110, 13328.12, 38772.43, 483.29, 16535.82, -230.47, -448.26, 8707.21, -37557.64, -27248.21, 28991.80, 1098.61, 15401.11, 0.00, 0.00, 0.00, 0.00, 0.00, 0.00, 0.00
111, 13329.73, 38769.03, 477.48, 16537.09, -230.58, -447.44, 8709.36, -37556.65, -27248.21, 28991.80, 1098.61, 15401.11, 0.00, 0.00, 0.00, 0.00, 0.00, 0.00, 0.00
112, 13329.73, 38769.03, 477.48, 16537.09, -230.58, -447.44, 8709.36, -37556.65, -27257.15, 29019.65, 1109.97, 15414.46, 0.00, 0.00, 0.00, 0.00, 0.00, 0.00, 0.00
113, 13337.53, 38771.85, 478.64, 16537.23, -227.88, -446.70, 8710.43, -37556.65, -27257.15, 29019.65, 1109.97, 15414.46, 0.00, 0.00, 0.00, 0.00, 0.00, 0.00, 0.00
114, 13337.53, 38771.85, 478.64, 16537.23, -227.88, -446.70, 8710.43, -37556.65, -27250.42, 28990.93, 1097.60, 15396.80, 0.00, 0.00, 0.00, 0.00, -0.05, 0.27, 0.96
115, 13325.13, 38762.77, 472.76, 16533.79, -231.97, -449.56, 8707.68, -37559.29, -27250.42, 28990.93, 1097.60, 15396.80, 0.00, 0.00, 0.00, 0.00, 0.00, 0.00, 0.00
116, 13325.13, 38762.77, 472.76, 16533.79, -231.97, -449.56, 8707.68, -37559.29, -27260.81, 29011.98, 1103.57, 15409.76, 0.00, 0.00, 0.00, 0.00, 0.00, 0.00, 0.00
117, 13325.64, 38761.97, 472.67, 16536.00, -229.15, -449.27, 8708.53, -37556.72, -27260.81, 29011.98, 1103.57, 15409.76, 0.00, 0.00, 0.00, 0.00, 0.00, 0.00, 0.00
118, 13325.64, 38761.97, 472.67, 16536.00, -229.15, -449.27, 8708.53, -37556.72, -27255.45, 28986.19, 1094.77, 15395.37, 0.00, 0.00, 0.00, 0.00, 0.00, 0.00, 0.00
119, 13322.33, 38754.46, 465.30, 16530.50, -237.73, -453.85, 8702.12, -37562.29, -27255.45, 28986.19, 1094.77, 15395.37, 0.00, 0.00, 0.00, 0.00, 0.00, 0.00, 0.00
120, 13322.33, 38754.46, 465.30, 16530.50, -237.73, -453.85, 8702.12, -37562.29, -27264.61, 29013.26, 1094.90, 15409.85, 0.00, 0.00, 0.00, 0.00, 0.00, 0.00, 0.00
121, 13328.46, 38759.15, 469.88, 16539.20, -228.66, -444.89, 8713.54, -37553.66, -27264.61, 29013.26, 1094.90, 15409.85, 0.00, 0.00, 0.00, 0.00, 0.00, 0.00, 0.00
122, 13328.46, 38759.15, 469.88, 16539.20, -228.66, -444.89, 8713.54, -37553.66, -27255.04, 28994.37, 1093.29, 15406.70, 0.00, 0.00, 0.00, 0.00, 0.00, 0.00, 0.00
123, 13307.54, 38750.04, 464.49, 16529.14, -237.67, -452.06, 8703.12, -37559.51, -27255.04, 28994.37, 1093.29, 15406.70, 0.00, 0.00, 0.00, 0.00, 0.00, 0.00, 0.00
124, 13307.54, 38750.04, 464.49, 16529.14, -237.67, -452.06, 8703.12, -37559.51, -27259.40, 29016.83, 1088.33, 15417.90, 0.00, 0.00, 0.00, 0.00, -0.05, 0.28, 0.97
125, 13315.11, 38760.27, 460.38, 16533.67, -234.85, -449.78, 8710.59, -37555.46, -27259.40, 29016.83, 1088.33, 15417.90, 0.00, 0.00, 0.00, 0.00, 0.00, 0.00, 0.00
126, 13315.11, 38760.27, 460.38, 16533.67, -234.85, -449.78, 8710.59, -37555.46, -27256.68, 29001.70, 1082.25, 15406.54, 0.00, 0.00, 0.00, 0.00, 0.00, 0.00, 0.00
127, 13301.70, 38746.55, 450.61, 16516.31, -251.93, -463.73, 8690.92, -37571.09, -27256.68, 29001.70, 1082.25, 15406.54, 0.00, 0.00, 0.00, 0.00, 0.00, 0.00, 0.00
128, 13301.70, 38746.55, 450.61, 16516.31, -251.93, -463.73, 8690.92, -37571.09, -27267.50, 28998.26, 1078.05, 15404.29, 0.00, 0.00, 0.00, 0.00, 0.00, 0.00, 0.00
129, 13314.24, 38749.86, 458.68, 16533.67, -240.37, -452.31, 8705.16, -37566.84, -27267.50, 28998.26, 1078.05, 15404.29, 0.00, 0.00, 0.00, 0.00, 0.00, 0.00, 0.00
130, 13314.24, 38749.86, 458.68, 16533.67, -240.37, -452.31, 8705.16, -37566.84, -27259.16, 28993.12, 1085.40, 15400.84, 0.00, 0.00, 0.00, 0.00, 0.00, 0.00, 0.00
131, 13297.88, 38740.69, 452.91, 16518.34, -246.23, -461.18, 8695.83, -37565.84, -27259.16, 28993.12, 1085.40, 15400.84, 0.00, 0.00, 0.00, 0.00, 0.00, 0.00, 0.00
132, 13297.88, 38740.69, 452.91, 16518.34, -246.23, -461.18, 8695.83, -37565.84, -27256.54, 29003.85, 1081.02, 15411.13, 0.00, 0.00, 0.00, 0.00, 0.00, 0.00, 0.00
133, 13320.72, 38760.05, 464.16, 16539.44, -233.24, -448.06, 8711.91, -37560.36, -27256.54, 29003.85, 1081.02, 15411.13, 0.00, 0.00, 0.00, 0.00, -0.05, 0.28, 0.97
134, 13320.72, 38760.05, 464.16, 16539.44, -233.24, -448.06, 8711.91, -37560.36, -27252.12, 29006.39, 1092.13, 15410.83, 0.00, 0.00, 0.00, 0.00, 0.00, 0.00, 0.00
135, 13311.67, 38752.16, 458.81, 16519.53, -243.68, -460.85, 8696.84, -37565.93, -27252.12, 29006.39, 1092.13, 15410.83, 0.00, 0.00, 0.00, 0.00, 0.00, 0.00, 0.00
136, 13311.67, 38752.16, 458.81, 16519.53, -243.68, -460.85, 8696.84, -37565.93, -27257.13, 28996.74, 1087.32, 15407.59, 0.00, 0.00, 0.00, 0.00, 0.00, 0.00, 0.00
137, 13323.20, 38780.05, 471.89, 16539.53, -228.99, -446.72, 8714.50, -37561.48, -27257.13, 28996.74, 1087.32, 15407.59, 0.00, 0.00, 0.00, 0.00, 0.00, 0.00, 0.00
138, 13323.20, 38780.05, 471.89, 16539.53, -228.99, -446.72, 8714.50, -37561.48, -27255.43, 29004.74, 1098.61, 15410.25, 0.00, 0.00, 0.00, 0.00, 0.00, 0.00, 0.00
139, 13316.12, 38759.82, 470.15, 16528.96, -235.34, -454.01, 8703.21, -37560.47, -27255.43, 29004.74, 1098.61, 15410.25, 0.00, 0.00, 0.00, 0.00, 0.00, 0.00, 0.00
140, 13316.12, 38759.82, 470.15, 16528.96, -235.34, -454.01, 8703.21, -37560.47, -27244.03, 29004.88, 1099.73, 15415.35, 0.00, 0.00, 0.00, 0.00, 0.00, 0.00, 0.00
141, 13334.31, 38780.88, 477.25, 16543.58, -226.02, -442.90, 8718.79, -37557.52, -27244.03, 29004.88, 1099.73, 15415.35, 0.00, 0.00, 0.00, 0.00, 0.00, 0.00, 0.00
142, 13334.31, 38780.88, 477.25, 16543.58, -226.02, -442.90, 8718.79, -37557.52, -27253.48, 29006.73, 1107.98, 15409.36, 0.00, 0.00, 0.00, 0.00, 0.00, 0.00, 0.00
143, 13324.79, 38771.04, 475.73, 16529.45, -235.21, -455.44, 8703.23, -37563.51, -27253.48, 29006.73, 1107.98, 15409.36, 0.00, 0.00, 0.00, 0.00, -0.05, 0.27, 0.97
144, 13324.79, 38771.04, 475.73, 16529.45, -235.21, -455.44, 8703.23, -37563.51, -27246.40, 28993.47, 1094.86, 15406.41, 0.00, 0.00, 0.00, 0.00, 0.00, 0.00, 0.00
145, 13330.18, 38783.09, 477.28, 16544.60, -228.79, -446.30, 8714.65, -37561.66, -27246.40, 28993.47, 1094.86, 15406.41, 0.00, 0.00, 0.00, 0.00, 0.00, 0.00, 0.00
146, 13330.18, 38783.09, 477.28, 16544.60, -228.79, -446.30, 8714.65, -37561.66, -27259.31, 29008.23, 1097.47, 15409.61, 0.00, 0.00, 0.00, 0.00, 0.00, 0.00, 0.00
147, 13328.23, 38769.32, 471.96, 16529.25, -237.15, -457.23, 8700.57, -37566.64, -27259.31, 29008.23, 1097.47, 15409.61, 0.00, 0.00, 0.00, 0.00, 0.00, 0.00, 0.00
148, 13328.23, 38769.32, 471.96, 16529.25, -237.15, -457.23, 8700.57, -37566.64, -27249.97, 28991.33, 1091.73, 15408.11, 0.00, 0.00, 0.00, 0.00, 0.00, 0.00, 0.00
149, 13333.31, 38787.99, 480.79, 16549.77, -225.48, -443.91, 8717.16, -37558.04, -27249.97, 28991.33, 1091.73, 15408.11, 0.00, 0.00, 0.00, 0.00, 0.00, 0.00, 0.00
150, 13333.31, 38787.99, 480.79, 16549.77, -225.48, -443.91, 8717.16, -37558.04, -27253.84, 29013.46, 1103.64, 15416.09, 0.00, 0.00, 0.00, 0.00, 0.00, 0.00, 0.00
151, 13335.68, 38767.45, 480.23, 16539.22, -231.56, -450.19, 8708.93, -37561.93, -27253.84, 29013.46, 1103.64, 15416.09, 0.00, 0.00, 0.00, 0.00, 0.00, 0.00, 0.00
152, 13335.68, 38767.45, 480.23, 16539.22, -231.56, -450.19, 8708.93, -37561.93, -27245.70, 28991.44, 1094.70, 15408.44, 0.00, 0.00, 0.00, 0.00, 0.00, 0.00, 0.00
153, 13337.44, 38781.93, 486.24, 16551.80, -222.85, -442.63, 8718.59, -37559.25, -27245.70, 28991.44, 1094.70, 15408.44, 0.00, 0.00, 0.00, 0.00, -0.05, 0.28, 0.98
154, 13337.44, 38781.93, 486.24, 16551.80, -222.85, -442.63, 8718.59, -37559.25, -27253.91, 29017.28, 1099.68, 15417.38, 0.00, 0.00, 0.00, 0.00, 0.00, 0.00, 0.00
155, 13340.42, 38776.83, 482.93, 16544.83, -227.99, -446.59, 8713.36, -37559.20, -27253.91, 29017.28, 1099.68, 15417.38, 0.00, 0.00, 0.00, 0.00, 0.00, 0.00, 0.00
156, 13340.42, 38776.83, 482.93, 16544.83, -227.99, -446.59, 8713.36, -37559.20, -27242.62, 28992.94, 1095.28, 15411.24, 0.00, 0.00, 0.00, 0.00, 0.00, 0.00, 0.00
157, 13337.17, 38784.63, 484.54, 16549.97, -225.28, -443.53, 8718.16, -37558.75, -27242.62, 28992.94, 1095.28, 15411.24, 0.00, 0.00, 0.00, 0.00, 0.00, 0.00, 0.00
158, 13337.17, 38784.63, 484.54, 16549.97, -225.28, -443.53, 8718.16, -37558.75, -27248.61, 29018.42, 1105.85, 15418.21, 0.00, 0.00, 0.00, 0.00, 0.00, 0.00, 0.00
159, 13334.33, 38778.55, 487.31, 16548.38, -223.20, -443.26, 8718.70, -37554.91, -27248.61, 29018.42, 1105.85, 15418.21, 0.00, 0.00, 0.00, 0.00, 0.00, 0.00, 0.00
160, 13334.33, 38778.55, 487.31, 16548.38, -223.20, -443.26, 8718.70, -37554.91, -27242.42, 28995.13, 1096.02, 15413.65, 0.00, 0.00, 0.00, 0.00, 0.00, 0.00, 0.00
161, 13332.30, 38769.86, 482.31, 16544.09, -230.89, -447.26, 8714.41, -37560.38, -27242.42, 28995.13, 1096.02, 15413.65, 0.00, 0.00, 0.00, 0.00, 0.00, 0.00, 0.00
162, 13332.30, 38769.86, 482.31, 16544.09, -230.89, -447.26, 8714.41, -37560.38, -27254.31, 29014.89, 1099.15, 15420.51, 0.00, 0.00, 0.00, 0.00, 0.00, 0.00, 0.00
163, 13327.58, 38778.75, 485.39, 16544.60, -228.08, -446.39, 8715.28, -37559.51, -27254.31, 29014.89, 1099.15, 15420.51, 0.00, 0.00, 0.00, 0.00, -0.04, 0.28, 0.97
164, 13327.58, 38778.75, 485.39, 16544.60, -228.08, -446.39, 8715.28, -37559.51, -27239.91, 28997.21, 1091.59, 15415.89, 0.00, 0.00, 0.00, 0.00, 0.00, 0.00, 0.00
165, 13328.93, 38783.29, 486.73, 16543.06, -225.24, -446.83, 8716.06, -37555.11, -27239.91, 28997.21, 1091.59, 15415.89, 0.00, 0.00, 0.00, 0.00, 0.00, 0.00, 0.00
166, 13328.93, 38783.29, 486.73, 16543.06, -225.24, -446.83, 8716.06, -37555.11, -27242.62, 29017.91, 1104.82, 15424.47, 0.00, 0.00, 0.00, 0.00, 0.00, 0.00, 0.00
167, 13331.54, 38787.79, 487.56, 16545.90, -219.81, -444.51, 8721.09, -37551.69, -27242.62, 29017.91, 1104.82, 15424.47, 0.00, 0.00, 0.00, 0.00, 0.00, 0.00, 0.00
168, 13331.54, 38787.79, 487.56, 16545.90, -219.81, -444.51, 8721.09, -37551.69, -27238.51, 28999.44, 1099.62, 15416.33, 0.00, 0.00, 0.00, 0.00, 0.00, 0.00, 0.00
169, 13328.66, 38778.40, 483.33, 16540.09, -224.84, -448.69, 8715.37, -37552.67, -27238.51, 28999.44, 1099.62, 15416.33, 0.00, 0.00, 0.00, 0.00, 0.00, 0.00, 0.00
170, 13328.66, 38778.40, 483.33, 16540.09, -224.84, -448.69, 8715.37, -37552.67, -27242.01, 29020.83, 1103.19, 15425.50, 0.00, 0.00, 0.00, 0.00, 0.00, 0.00, 0.00
171, 13324.23, 38791.18, 482.66, 16542.86, -223.50, -445.98, 8720.53, -37553.84, -27242.01, 29020.83, 1103.19, 15425.50, 0.00, 0.00, 0.00, 0.00, 0.00, 0.00, 0.00
172, 13324.23, 38791.18, 482.66, 16542.86, -223.50, -445.98, 8720.53, -37553.84, -27239.47, 28999.91, 1100.42, 15414.43, 0.00, 0.00, 0.00, 0.00, -0.04, 0.27, 0.97
173, 13320.41, 38779.89, 481.17, 16535.98, -226.96, -450.81, 8712.75, -37554.44, -27239.47, 28999.91, 1100.42, 15414.43, 0.00, 0.00, 0.00, 0.00, 0.00, 0.00, 0.00
174, 13320.41, 38779.89, 481.17, 16535.98, -226.96, -450.81, 8712.75, -37554.44, -27243.89, 29016.01, 1096.91, 15424.51, 0.00, 0.00, 0.00, 0.00, 0.00, 0.00, 0.00
175, 13327.67, 38783.25, 485.52, 16550.24, -219.61, -442.30, 8722.66, -37551.91, -27243.89, 29016.01, 1096.91, 15424.51, 0.00, 0.00, 0.00, 0.00, 0.00, 0.00, 0.00
176, 13327.67, 38783.25, 485.52, 16550.24, -219.61, -442.30, 8722.66, -37551.91, -27240.49, 29004.34, 1099.48, 15416.38, 0.00, 0.00, 0.00, 0.00, 0.00, 0.00, 0.00
177, 13318.15, 38774.20, 476.05, 16534.19, -232.12, -454.55, 8708.17, -37557.16, -27240.49, 29004.34, 1099.48, 15416.38, 0.00, 0.00, 0.00, 0.00, 0.00, 0.00, 0.00
178, 13318.15, 38774.20, 476.05, 16534.19, -232.12, -454.55, 8708.17, -37557.16, -27243.76, 29012.43, 1094.03, 15424.63, 0.00, 0.00, 0.00, 0.00, 0.00, 0.00, 0.00
179, 13318.96, 38775.65, 474.44, 16548.92, -224.41, -445.00, 8719.86, -37555.02, -27243.76, 29012.43, 1094.03, 15424.63, 0.00, 0.00, 0.00, 0.00, 0.00, 0.00, 0.00
180, 13318.96, 38775.65, 474.44, 16548.92, -224.41, -445.00, 8719.86, -37555.02, -27245.63, 29003.27, 1088.26, 15416.49, 0.00, 0.00, 0.00, 0.00, 0.00, 0.00, 0.00
181, 13319.63, 38767.58, 472.16, 16533.45, -235.19, -454.32, 8705.65, -37560.56, -27245.63, 29003.27, 1088.26, 15416.49, 0.00, 0.00, 0.00, 0.00, 0.00, 0.00, 0.00
182, 13319.63, 38767.58, 472.16, 16533.45, -235.19, -454.32, 8705.65, -37560.56, -27239.49, 29008.67, 1093.87, 15425.32, 0.00, 0.00, 0.00, 0.00, -0.04, 0.27, 0.97
183, 13325.42, 38786.13, 479.38, 16554.57, -220.37, -440.13, 8725.41, -37550.13, -27239.49, 29008.67, 1093.87, 15425.32, 0.00, 0.00, 0.00, 0.00, 0.00, 0.00, 0.00
184, 13325.42, 38786.13, 479.38, 16554.57, -220.37, -440.13, 8725.41, -37550.13, -27241.39, 29013.75, 1099.57, 15423.66, 0.00, 0.00, 0.00, 0.00, 0.00, 0.00, 0.00
185, 13315.94, 38769.61, 475.06, 16537.43, -233.89, -452.82, 8706.61, -37559.40, -27241.39, 29013.75, 1099.57, 15423.66, 0.00, 0.00, 0.00, 0.00, 0.00, 0.00, 0.00
186, 13315.94, 38769.61, 475.06, 16537.43, -233.89, -452.82, 8706.61, -37559.40, -27241.81, 29001.79, 1089.69, 15418.99, 0.00, 0.00, 0.00, 0.00, 0.00, 0.00, 0.00
187, 13331.97, 38778.31, 482.75, 16556.18, -218.38, -439.68, 8726.59, -37553.14, -27241.81, 29001.79, 1089.69, 15418.99, 0.00, 0.00, 0.00, 0.00, 0.00, 0.00, 0.00
188, 13331.97, 38778.31, 482.75, 16556.18, -218.38, -439.68, 8726.59, -37553.14, -27241.93, 29017.26, 1097.87, 15419.51, 0.00, 0.00, 0.00, 0.00, 0.00, 0.00, 0.00
189, 13328.79, 38772.86, 478.73, 16541.45, -233.78, -453.09, 8706.85, -37560.23, -27241.93, 29017.26, 1097.87, 15419.51, 0.00, 0.00, 0.00, 0.00, 0.00, 0.00, 0.00
190, 13328.79, 38772.86, 478.73, 16541.45, -233.78, -453.09, 8706.85, -37560.23, -27245.81, 28990.99, 1087.37, 15409.29, 0.00, 0.00, 0.00, 0.00, 0.00, 0.00, 0.00
191, 13339.43, 38793.30, 487.09, 16558.73, -222.11, -442.18, 8722.01, -37555.82, -27245.81, 28990.99, 1087.37, 15409.29, 0.00, 0.00, 0.00, 0.00, 0.00, 0.00, 0.00
192, 13339.43, 38793.30, 487.09, 16558.73, -222.11, -442.18, 8722.01, -37555.82, -27246.60, 29013.10, 1100.67, 15421.67, 0.00, 0.00, 0.00, 0.00, -0.04, 0.28, 0.97
193, 13334.67, 38786.11, 487.11, 16549.25, -226.11, -446.74, 8713.78, -37556.25, -27246.60, 29013.10, 1100.67, 15421.67, 0.00, 0.00, 0.00, 0.00, 0.00, 0.00, 0.00
194, 13334.67, 38786.11, 487.11, 16549.25, -226.11, -446.74, 8713.78, -37556.25, -27240.20, 28997.14, 1094.52, 15417.92, 0.00, 0.00, 0.00, 0.00, 0.00, 0.00, 0.00
195, 13337.58, 38788.88, 492.10, 16564.99, -215.58, -436.57, 8728.02, -37551.27, -27240.20, 28997.14, 1094.52, 15417.92, 0.00, 0.00, 0.00, 0.00, 0.00, 0.00, 0.00
196, 13337.58, 38788.88, 492.10, 16564.99, -215.58, -436.57, 8728.02, -37551.27, -27243.54, 29017.64, 1100.40, 15421.54, 0.00, 0.00, 0.00, 0.00, 0.00, 0.00, 0.00
197, 13323.90, 38771.56, 480.99, 16547.87, -227.92, -448.15, 8712.24, -37557.99, -27243.54, 29017.64, 1100.40, 15421.54, 0.00, 0.00, 0.00, 0.00, 0.00, 0.00, 0.00
198, 13323.90, 38771.56, 480.99, 16547.87, -227.92, -448.15, 8712.24, -37557.99, -27237.81, 28991.96, 1086.76, 15411.82, 0.00, 0.00, 0.00, 0.00, 0.00, 0.00, 0.00
199, 13325.73, 38780.57, 481.43, 16555.94, -220.43, -443.55, 8721.90, -37553.21, -27237.81, 28991.96, 1086.76, 15411.82, 0.00, 0.00, 0.00, 0.00, 0.00, 0.00, 0.00
200, 13325.73, 38780.57, 481.43, 16555.94, -220.43, -443.55, 8721.90, -37553.21, -27242.53, 29025.66, 1092.69, 15425.54, 0.00, 0.00, 0.00, 0.00, 0.00, 0.00, 0.00
201, 13306.89, 38765.77, 471.62, 16542.21, -228.68, -449.40, 8713.09, -37558.28, -27242.53, 29025.66, 1092.69, 15425.54, 0.00, 0.00, 0.00, 0.00, 0.00, 0.00, 0.00
202, 13306.89, 38765.77, 471.62, 16542.21, -228.68, -449.40, 8713.09, -37558.28, -27238.01, 28993.86, 1082.27, 15413.56, 0.00, 0.00, 0.00, 0.00, -0.05, 0.28, 0.98
203, 13300.23, 38765.88, 472.38, 16547.04, -225.64, -448.80, 8716.89, -37561.43, -27238.01, 28993.86, 1082.27, 15413.56, 0.00, 0.00, 0.00, 0.00, 0.00, 0.00, 0.00
204, 13300.23, 38765.88, 472.38, 16547.04, -225.64, -448.80, 8716.89, -37561.43, -27245.50, 29017.19, 1093.16, 15424.18, 0.00, 0.00, 0.00, 0.00, 0.00, 0.00, 0.00
205, 13312.45, 38761.68, 469.14, 16543.60, -227.16, -450.66, 8714.41, -37559.76, -27245.50, 29017.19, 1093.16, 15424.18, 0.00, 0.00, 0.00, 0.00, 0.00, 0.00, 0.00
206, 13312.45, 38761.68, 469.14, 16543.60, -227.16, -450.66, 8714.41, -37559.76, -27236.92, 28992.51, 1079.19, 15410.75, 0.00, 0.00, 0.00, 0.00, 0.00, 0.00, 0.00
207, 13303.13, 38768.38, 463.58, 16544.38, -232.12, -450.54, 8712.84, -37565.21, -27236.92, 28992.51, 1079.19, 15410.75, 0.00, 0.00, 0.00, 0.00, 0.00, 0.00, 0.00
208, 13303.13, 38768.38, 463.58, 16544.38, -232.12, -450.54, 8712.84, -37565.21, -27251.69, 29013.70, 1076.75, 15420.09, 0.00, 0.00, 0.00, 0.00, 0.00, 0.00, 0.00
209, 13302.06, 38762.64, 465.72, 16545.07, -233.49, -451.71, 8710.88, -37564.03, -27251.69, 29013.70, 1076.75, 15420.09, 0.00, 0.00, 0.00, 0.00, 0.00, 0.00, 0.00
210, 13302.06, 38762.64, 465.72, 16545.07, -233.49, -451.71, 8710.88, -37564.03, -27240.38, 28989.94, 1070.76, 15408.35, 0.00, 0.00, 0.00, 0.00, 0.00, 0.00, 0.00
211, 13309.66, 38749.16, 462.68, 16546.75, -234.16, -450.81, 8711.23, -37562.46, -27240.38, 28989.94, 1070.76, 15408.35, 0.00, 0.00, 0.00, 0.00, -0.05, 0.27, 0.98
212, 13309.66, 38749.16, 462.68, 16546.75, -234.16, -450.81, 8711.23, -37562.46, -27244.32, 29015.22, 1075.21, 15419.33, 0.00, 0.00, 0.00, 0.00, 0.00, 0.00, 0.00
213, 13312.23, 38761.25, 468.51, 16555.20, -230.85, -448.11, 8714.23, -37563.22, -27244.32, 29015.22, 1075.21, 15419.33, 0.00, 0.00, 0.00, 0.00, 0.00, 0.00, 0.00
214, 13312.23, 38761.25, 468.51, 16555.20, -230.85, -448.11, 8714.23, -37563.22, -27243.29, 28988.67, 1072.15, 15409.45, 0.00, 0.00, 0.00, 0.00, 0.00, 0.00, 0.00
215, 13310.13, 38760.45, 470.44, 16551.49, -233.60, -451.28, 8711.26, -37565.77, -27243.29, 28988.67, 1072.15, 15409.45, 0.00, 0.00, 0.00, 0.00, 0.00, 0.00, 0.00
216, 13310.13, 38760.45, 470.44, 16551.49, -233.60, -451.28, 8711.26, -37565.77, -27247.71, 29011.87, 1083.50, 15419.60, 0.00, 0.00, 0.00, 0.00, 0.00, 0.00, 0.00
217, 13320.05, 38782.18, 481.68, 16563.78, -218.49, -440.73, 8726.39, -37554.82, -27247.71, 29011.87, 1083.50, 15419.60, 0.00, 0.00, 0.00, 0.00, 0.00, 0.00, 0.00
218, 13320.05, 38782.18, 481.68, 16563.78, -218.49, -440.73, 8726.39, -37554.82, -27233.23, 29005.57, 1084.75, 15418.32, 0.00, 0.00, 0.00, 0.00, 0.00, 0.00, 0.00
219, 13321.77, 38771.00, 482.84, 16559.29, -220.46, -445.00, 8720.98, -37553.03, -27233.23, 29005.57, 1084.75, 15418.32, 0.00, 0.00, 0.00, 0.00, 0.00, 0.00, 0.00
220, 13321.77, 38771.00, 482.84, 16559.29, -220.46, -445.00, 8720.98, -37553.03, -27237.90, 29017.26, 1086.74, 15426.79, 0.00, 0.00, 0.00, 0.00, 0.00, 0.00, 0.00
221, 13332.64, 38783.41, 490.04, 16567.92, -210.96, -436.53, 8732.07, -37549.95, -27237.90, 29017.26, 1086.74, 15426.79, 0.00, 0.00, 0.00, 0.00, -0.05, 0.28, 0.98
222, 13332.64, 38783.41, 490.04, 16567.92, -210.96, -436.53, 8732.07, -37549.95, -27226.90, 29005.88, 1098.16, 15421.83, 0.00, 0.00, 0.00, 0.00, 0.00, 0.00, 0.00
223, 13310.84, 38771.18, 484.88, 16556.23, -216.03, -444.82, 8724.85, -37549.27, -27226.90, 29005.88, 1098.16, 15421.83, 0.00, 0.00, 0.00, 0.00, 0.00, 0.00, 0.00
224, 13310.84, 38771.18, 484.88, 16556.23, -216.03, -444.82, 8724.85, -37549.27, -27225.47, 29022.42, 1095.79, 15433.03, 0.00, 0.00, 0.00, 0.00, 0.00, 0.00, 0.00
225, 13315.78, 38777.37, 485.17, 16560.41, -208.63, -439.48, 8734.03, -37547.24, -27225.47, 29022.42, 1095.79, 15433.03, 0.00, 0.00, 0.00, 0.00, 0.00, 0.00, 0.00
226, 13315.78, 38777.37, 485.17, 16560.41, -208.63, -439.48, 8734.03, -37547.24, -27228.47, 29007.42, 1093.11, 15422.43, 0.00, 0.00, 0.00, 0.00, 0.00, 0.00, 0.00
227, 13306.98, 38767.45, 478.77, 16548.87, -221.73, -451.59, 8716.80, -37556.27, -27228.47, 29007.42, 1093.11, 15422.43, 0.00, 0.00, 0.00, 0.00, 0.00, 0.00, 0.00
228, 13306.98, 38767.45, 478.77, 16548.87, -221.73, -451.59, 8716.80, -37556.27, -27234.21, 29006.89, 1081.82, 15418.55, 0.00, 0.00, 0.00, 0.00, 0.00, 0.00, 0.00
229, 13306.19, 38775.56, 473.19, 16555.80, -217.71, -443.28, 8727.86, -37554.10, -27234.21, 29006.89, 1081.82, 15418.55, 0.00, 0.00, 0.00, 0.00, 0.00, 0.00, 0.00
230, 13306.19, 38775.56, 473.19, 16555.80, -217.71, -443.28, 8727.86, -37554.10, -27236.65, 29010.55, 1080.33, 15417.83, 0.00, 0.00, 0.00, 0.00, 0.00, 0.00, 0.00
231, 13299.06, 38750.14, 465.01, 16540.13, -232.12, -456.60, 8710.83, -37559.29, -27236.65, 29010.55, 1080.33, 15417.83, 0.00, 0.00, 0.00, 0.00, -0.05, 0.28, 0.98
232, 13299.06, 38750.14, 465.01, 16540.13, -232.12, -456.60, 8710.83, -37559.29, -27238.15, 29000.49, 1079.12, 15415.75, 0.00, 0.00, 0.00, 0.00, 0.00, 0.00, 0.00
233, 13301.66, 38761.93, 469.86, 16556.23, -219.38, -444.58, 8727.01, -37554.42, -27238.15, 29000.49, 1079.12, 15415.75, 0.00, 0.00, 0.00, 0.00, 0.00, 0.00, 0.00
234, 13301.66, 38761.93, 469.86, 16556.23, -219.38, -444.58, 8727.01, -37554.42, -27237.52, 29015.13, 1076.04, 15420.94, 0.00, 0.00, 0.00, 0.00, 0.00, 0.00, 0.00
235, 13294.21, 38751.11, 462.57, 16540.42, -234.49, -455.35, 8710.74, -37561.61, -27237.52, 29015.13, 1076.04, 15420.94, 0.00, 0.00, 0.00, 0.00, 0.00, 0.00, 0.00
236, 13294.21, 38751.11, 462.57, 16540.42, -234.49, -455.35, 8710.74, -37561.61, -27237.32, 29001.28, 1065.89, 15418.57, 0.00, 0.00, 0.00, 0.00, 0.00, 0.00, 0.00
237, 13292.67, 38748.85, 458.46, 16550.06, -228.81, -448.38, 8721.25, -37562.26, -27237.32, 29001.28, 1065.89, 15418.57, 0.00, 0.00, 0.00, 0.00, 0.00, 0.00, 0.00
238, 13292.67, 38748.85, 458.46, 16550.06, -228.81, -448.38, 8721.25, -37562.26, -27247.54, 29005.32, 1065.28, 15413.96, 0.00, 0.00, 0.00, 0.00, 0.00, 0.00, 0.00
239, 13282.21, 38736.67, 455.13, 16536.60, -241.82, -460.69, 8705.13, -37566.69, -27247.54, 29005.32, 1065.28, 15413.96, 0.00, 0.00, 0.00, 0.00, 0.00, 0.00, 0.00
240, 13282.21, 38736.67, 455.13, 16536.60, -241.82, -460.69, 8705.13, -37566.69, -27239.87, 28994.95, 1054.67, 15414.75, 0.00, 0.00, 0.00, 0.00, 0.00, 0.00, 0.00
241, 13294.73, 38755.82, 458.28, 16547.29, -232.73, -451.19, 8718.45, -37564.43, -27239.87, 28994.95, 1054.67, 15414.75, 0.00, 0.00, 0.00, 0.00, -0.04, 0.28, 0.97
242, 13294.73, 38755.82, 458.28, 16547.29, -232.73, -451.19, 8718.45, -37564.43, -27248.77, 29008.76, 1062.65, 15415.46, 0.00, 0.00, 0.00, 0.00, 0.00, 0.00, 0.00
243, 13294.73, 38746.14, 462.08, 16540.36, -237.38, -457.52, 8707.37, -37565.32, -27248.77, 29008.76, 1062.65, 15415.46, 0.00, 0.00, 0.00, 0.00, 0.00, 0.00, 0.00
244, 13294.73, 38746.14, 462.08, 16540.36, -237.38, -457.52, 8707.37, -37565.32, -27236.36, 28994.12, 1060.37, 15411.24, 0.00, 0.00, 0.00, 0.00, 0.00, 0.00, 0.00
245, 13298.71, 38760.27, 467.06, 16554.39, -229.06, -449.61, 8720.04, -37560.05, -27236.36, 28994.12, 1060.37, 15411.24, 0.00, 0.00, 0.00, 0.00, 0.00, 0.00, 0.00
246, 13298.71, 38760.27, 467.06, 16554.39, -229.06, -449.61, 8720.04, -37560.05, -27247.98, 29016.81, 1068.79, 15420.98, 0.00, 0.00, 0.00, 0.00, 0.00, 0.00, 0.00
247, 13300.74, 38758.73, 467.89, 16545.41, -235.45, -455.04, 8708.71, -37566.33, -27247.98, 29016.81, 1068.79, 15420.98, 0.00, 0.00, 0.00, 0.00, 0.00, 0.00, 0.00
248, 13300.74, 38758.73, 467.89, 16545.41, -235.45, -455.04, 8708.71, -37566.33, -27237.50, 28988.69, 1057.08, 15409.07, 0.00, 0.00, 0.00, 0.00, 0.00, 0.00, 0.00
249, 13307.27, 38763.38, 474.17, 16560.18, -225.73, -444.60, 8721.83, -37559.27, -27237.50, 28988.69, 1057.08, 15409.07, 0.00, 0.00, 0.00, 0.00, 0.00, 0.00, 0.00
250, 13307.27, 38763.38, 474.17, 16560.18, -225.73, -444.60, 8721.83, -37559.27, -27243.96, 29019.36, 1067.83, 15422.64, 0.00, 0.00, 0.00, 0.00, -0.05, 0.28, 0.97
251, 13305.28, 38765.77, 475.44, 16553.99, -225.55, -447.62, 8718.97, -37556.09, -27243.96, 29019.36, 1067.83, 15422.64, 0.00, 0.00, 0.00, 0.00, 0.00, 0.00, 0.00
252, 13305.28, 38765.77, 475.44, 16553.99, -225.55, -447.62, 8718.97, -37556.09, -27228.54, 28998.06, 1064.61, 15416.09, 0.00, 0.00, 0.00, 0.00, 0.00, 0.00, 0.00
253, 13302.44, 38760.05, 475.69, 16558.57, -224.66, -445.96, 8721.72, -37558.66, -27228.54, 28998.06, 1064.61, 15416.09, 0.00, 0.00, 0.00, 0.00, 0.00, 0.00, 0.00
254, 13302.44, 38760.05, 475.69, 16558.57, -224.66, -445.96, 8721.72, -37558.66, -27240.99, 29014.64, 1073.26, 15417.56, 0.00, 0.00, 0.00, 0.00, 0.00, 0.00, 0.00
255, 13303.67, 38768.43, 480.70, 16556.12, -220.79, -446.92, 8721.78, -37558.11, -27240.99, 29014.64, 1073.26, 15417.56, 0.00, 0.00, 0.00, 0.00, 0.00, 0.00, 0.00
0, 13303.67, 38768.43, 480.70, 16556.12, -220.79, -446.92, 8721.78, -37558.11, -27230.30, 28991.51, 1070.76, 15408.73, 0.00, 0.00, 0.00, 0.00, 0.00, 0.00, 0.00
1, 13298.44, 38761.75, 475.82, 16555.80, -222.36, -448.11, 8721.87, -37556.56, -27230.30, 28991.51, 1070.76, 15408.73, 0.00, 0.00, 0.00, 0.00, 0.00, 0.00, 0.00
2, 13298.44, 38761.75, 475.82, 16555.80, -222.36, -448.11, 8721.87, -37556.56, -27236.94, 29023.58, 1073.11, 15428.78, 0.00, 0.00, 0.00, 0.00, 0.00, 0.00, 0.00
3, 13297.88, 38759.29, 471.73, 16553.03, -223.05, -448.22, 8721.87, -37553.93, -27236.94, 29023.58, 1073.11, 15428.78, 0.00, 0.00, 0.00, 0.00, 0.00, 0.00, 0.00
4, 13297.88, 38759.29, 471.73, 16553.03, -223.05, -448.22, 8721.87, -37553.93, -27230.50, 28998.37, 1065.08, 15413.76, 0.00, 0.00, 0.00, 0.00, -0.05, 0.28, 0.97
5, 13293.27, 38758.26, 468.85, 16552.79, -228.03, -450.21, 8717.20, -37560.52, -27230.50, 28998.37, 1065.08, 15413.76, 0.00, 0.00, 0.00, 0.00, 0.00, 0.00, 0.00
6, 13293.27, 38758.26, 468.85, 16552.79, -228.03, -450.21, 8717.20, -37560.52, -27239.85, 29014.49, 1063.67, 15423.53, 0.00, 0.00, 0.00, 0.00, 0.00, 0.00, 0.00
7, 13299.69, 38770.04, 471.17, 16556.23, -222.56, -446.63, 8723.10, -37559.91, -27239.85, 29014.49, 1063.67, 15423.53, 0.00, 0.00, 0.00, 0.00, 0.00, 0.00, 0.00
8, 13299.69, 38770.04, 471.17, 16556.23, -222.56, -446.63, 8723.10, -37559.91, -27230.19, 28992.20, 1063.72, 15408.93, 0.00, 0.00, 0.00, 0.00, 0.00, 0.00, 0.00
9, 13293.21, 38748.91, 467.62, 16547.82, -230.16, -454.93, 8713.89, -37564.43, -27230.19, 28992.20, 1063.72, 15408.93, 0.00, 0.00, 0.00, 0.00, 0.00, 0.00, 0.00
10, 13293.21, 38748.91, 467.62, 16547.82, -230.16, -454.93, 8713.89, -37564.43, -27236.65, 29013.39, 1067.39, 15422.17, 0.00, 0.00, 0.00, 0.00, 0.00, 0.00, 0.00
11, 13301.88, 38764.65, 478.13, 16563.09, -215.67, -442.70, 8728.85, -37552.81, -27236.65, 29013.39, 1067.39, 15422.17, 0.00, 0.00, 0.00, 0.00, 0.00, 0.00, 0.00
12, 13301.88, 38764.65, 478.13, 16563.09, -215.67, -442.70, 8728.85, -37552.81, -27227.49, 29003.67, 1068.64, 15420.07, 0.00, 0.00, 0.00, 0.00, 0.00, 0.00, 0.00
13, 13300.05, 38754.46, 474.30, 16553.90, -225.82, -451.57, 8717.25, -37560.50, -27227.49, 29003.67, 1068.64, 15420.07, 0.00, 0.00, 0.00, 0.00, 0.00, 0.00, 0.00
14, 13300.05, 38754.46, 474.30, 16553.90, -225.82, -451.57, 8717.25, -37560.50, -27235.40, 29009.81, 1064.21, 15418.25, 0.00, 0.00, 0.00, 0.00, -0.05, 0.27, 0.97
15, 13303.69, 38769.12, 481.99, 16566.69, -215.36, -441.85, 8731.28, -37554.53, -27235.40, 29009.81, 1064.21, 15418.25, 0.00, 0.00, 0.00, 0.00, 0.00, 0.00, 0.00
16, 13303.69, 38769.12, 481.99, 16566.69, -215.36, -441.85, 8731.28, -37554.53, -27230.30, 29004.07, 1066.69, 15419.95, 0.00, 0.00, 0.00, 0.00, 0.00, 0.00, 0.00
17, 13302.57, 38759.93, 477.46, 16553.21, -224.88, -449.40, 8718.77, -37557.03, -27230.30, 29004.07, 1066.69, 15419.95, 0.00, 0.00, 0.00, 0.00, 0.00, 0.00, 0.00
18, 13302.57, 38759.93, 477.46, 16553.21, -224.88, -449.40, 8718.77, -37557.03, -27228.56, 29008.58, 1066.42, 15420.94, 0.00, 0.00, 0.00, 0.00, 0.00, 0.00, 0.00
19, 13304.41, 38773.93, 483.04, 16569.35, -213.59, -439.99, 8731.98, -37553.25, -27228.56, 29008.58, 1066.42, 15420.94, 0.00, 0.00, 0.00, 0.00, 0.00, 0.00, 0.00
20, 13304.41, 38773.93, 483.04, 16569.35, -213.59, -439.99, 8731.98, -37553.25, -27231.04, 29003.02, 1073.55, 15412.73, 0.00, 0.00, 0.00, 0.00, 0.00, 0.00, 0.00
21, 13300.03, 38760.63, 475.31, 16552.67, -226.42, -452.38, 8715.21, -37559.54, -27231.04, 29003.02, 1073.55, 15412.73, 0.00, 0.00, 0.00, 0.00, 0.00, 0.00, 0.00
22, 13300.03, 38760.63, 475.31, 16552.67, -226.42, -452.38, 8715.21, -37559.54, -27232.34, 29002.15, 1063.00, 15416.85, 0.00, 0.00, 0.00, 0.00, 0.00, 0.00, 0.00
23, 13307.47, 38771.51, 481.37, 16567.34, -217.88, -441.54, 8729.96, -37557.10, -27232.34, 29002.15, 1063.00, 15416.85, 0.00, 0.00, 0.00, 0.00, 0.00, 0.00, 0.00
24, 13307.47, 38771.51, 481.37, 16567.34, -217.88, -441.54, 8729.96, -37557.10, -27237.50, 29007.02, 1066.04, 15421.03, 0.00, 0.00, 0.00, 0.00, -0.05, 0.27, 0.97
25, 13289.99, 38753.95, 471.73, 16552.70, -230.38, -453.43, 8714.07, -37561.95, -27237.50, 29007.02, 1066.04, 15421.03, 0.00, 0.00, 0.00, 0.00, 0.00, 0.00, 0.00
26, 13289.99, 38753.95, 471.73, 16552.70, -230.38, -453.43, 8714.07, -37561.95, -27231.00, 29006.73, 1054.98, 15424.29, 0.00, 0.00, 0.00, 0.00, 0.00, 0.00, 0.00
27, 13301.99, 38761.28, 472.87, 16567.47, -220.37, -441.78, 8729.92, -37556.07, -27231.00, 29006.73, 1054.98, 15424.29, 0.00, 0.00, 0.00, 0.00, 0.00, 0.00, 0.00
28, 13301.99, 38761.28, 472.87, 16567.47, -220.37, -441.78, 8729.92, -37556.07, -27237.66, 29009.26, 1059.49, 15421.47, 0.00, 0.00, 0.00, 0.00, 0.00, 0.00, 0.00
29, 13297.05, 38755.00, 472.27, 16553.21, -230.56, -453.43, 8714.95, -37561.10, -27237.66, 29009.26, 1059.49, 15421.47, 0.00, 0.00, 0.00, 0.00, 0.00, 0.00, 0.00
30, 13297.05, 38755.00, 472.27, 16553.21, -230.56, -453.43, 8714.95, -37561.10, -27230.66, 29000.90, 1055.63, 15421.76, 0.00, 0.00, 0.00, 0.00, 0.00, 0.00, 0.00
31, 13309.39, 38770.46, 478.13, 16569.24, -219.36, -441.80, 8730.05, -37554.64, -27230.66, 29000.90, 1055.63, 15421.76, 0.00, 0.00, 0.00, 0.00, 0.00, 0.00, 0.00
32, 13309.39, 38770.46, 478.13, 16569.24, -219.36, -441.80, 8730.05, -37554.64, -27240.90, 29013.32, 1061.42, 15420.67, 0.00, 0.00, 0.00, 0.00, 0.00, 0.00, 0.00
33, 13297.95, 38770.30, 476.63, 16555.62, -229.78, -452.29, 8715.55, -37561.41, -27240.90, 29013.32, 1061.42, 15420.67, 0.00, 0.00, 0.00, 0.00, -0.05, 0.27, 0.97
34, 13297.95, 38770.30, 476.63, 16555.62, -229.78, -452.29, 8715.55, -37561.41, -27230.44, 28999.02, 1057.95, 15421.03, 0.00, 0.00, 0.00, 0.00, 0.00, 0.00, 0.00
35, 13309.48, 38767.51, 480.63, 16569.50, -217.93, -442.81, 8729.27, -37557.88, -27230.44, 28999.02, 1057.95, 15421.03, 0.00, 0.00, 0.00, 0.00, 0.00, 0.00, 0.00
36, 13309.48, 38767.51, 480.63, 16569.50, -217.93, -442.81, 8729.27, -37557.88, -27237.59, 29012.90, 1068.46, 15422.93, 0.00, 0.00, 0.00, 0.00, 0.00, 0.00, 0.00
37, 13299.51, 38757.66, 480.88, 16560.00, -223.94, -448.96, 8719.75, -37561.01, -27237.59, 29012.90, 1068.46, 15422.93, 0.00, 0.00, 0.00, 0.00, 0.00, 0.00, 0.00
38, 13299.51, 38757.66, 480.88, 16560.00, -223.94, -448.96, 8719.75, -37561.01, -27222.88, 28999.76, 1062.87, 15420.36, 0.00, 0.00, 0.00, 0.00, 0.00, 0.00, 0.00
39, 13308.72, 38774.93, 488.27, 16571.40, -211.89, -438.99, 8732.83, -37554.50, -27222.88, 28999.76, 1062.87, 15420.36, 0.00, 0.00, 0.00, 0.00, 0.00, 0.00, 0.00
40, 13308.72, 38774.93, 488.27, 16571.40, -211.89, -438.99, 8732.83, -37554.50, -27230.82, 29022.78, 1076.10, 15427.53, 0.00, 0.00, 0.00, 0.00, 0.00, 0.00, 0.00
41, 13316.92, 38780.86, 492.30, 16568.41, -213.68, -442.16, 8728.00, -37553.32, -27230.82, 29022.78, 1076.10, 15427.53, 0.00, 0.00, 0.00, 0.00, 0.00, 0.00, 0.00
42, 13316.92, 38780.86, 492.30, 16568.41, -213.68, -442.16, 8728.00, -37553.32, -27223.22, 28994.03, 1067.99, 15417.03, 0.00, 0.00, 0.00, 0.00, 0.00, 0.00, 0.00
43, 13319.45, 38793.69, 492.21, 16573.35, -209.35, -438.79, 8733.09, -37554.66, -27223.22, 28994.03, 1067.99, 15417.03, 0.00, 0.00, 0.00, 0.00, -0.05, 0.27, 0.97
44, 13319.45, 38793.69, 492.21, 16573.35, -209.35, -438.79, 8733.09, -37554.66, -27231.60, 29019.56, 1077.60, 15424.80, 0.00, 0.00, 0.00, 0.00, 0.00, 0.00, 0.00
45, 13309.68, 38771.76, 489.84, 16567.49, -214.40, -442.61, 8728.09, -37555.67, -27231.60, 29019.56, 1077.60, 15424.80, 0.00, 0.00, 0.00, 0.00, 0.00, 0.00, 0.00
46, 13309.68, 38771.76, 489.84, 16567.49, -214.40, -442.61, 8728.09, -37555.67, -27224.36, 28994.08, 1063.67, 15415.35, 0.00, 0.00, 0.00, 0.00, 0.00, 0.00, 0.00
47, 13301.88, 38766.93, 486.62, 16571.67, -215.29, -440.22, 8731.04, -37556.16, -27224.36, 28994.08, 1063.67, 15415.35, 0.00, 0.00, 0.00, 0.00, 0.00, 0.00, 0.00
48, 13301.88, 38766.93, 486.62, 16571.67, -215.29, -440.22, 8731.04, -37556.16, -27233.63, 29013.41, 1073.73, 15421.38, 0.00, 0.00, 0.00, 0.00, 0.00, 0.00, 0.00
49, 13309.48, 38774.04, 488.61, 16568.41, -212.70, -440.89, 8729.67, -37552.45, -27233.63, 29013.41, 1073.73, 15421.38, 0.00, 0.00, 0.00, 0.00, 0.00, 0.00, 0.00
50, 13309.48, 38774.04, 488.61, 16568.41, -212.70, -440.89, 8729.67, -37552.45, -27229.21, 28992.94, 1059.74, 15414.01, 0.00, 0.00, 0.00, 0.00, 0.00, 0.00, 0.00
51, 13302.04, 38765.03, 480.09, 16564.99, -219.40, -442.90, 8724.38, -37557.84, -27229.21, 28992.94, 1059.74, 15414.01, 0.00, 0.00, 0.00, 0.00, 0.00, 0.00, 0.00
52, 13302.04, 38765.03, 480.09, 16564.99, -219.40, -442.90, 8724.38, -37557.84, -27237.63, 29018.87, 1061.44, 15425.43, 0.00, 0.00, 0.00, 0.00, 0.00, 0.00, 0.00
53, 13300.07, 38761.99, 480.23, 16570.24, -216.30, -440.35, 8728.15, -37555.63, -27237.63, 29018.87, 1061.44, 15425.43, 0.00, 0.00, 0.00, 0.00, -0.05, 0.27, 0.97
54, 13300.07, 38761.99, 480.23, 16570.24, -216.30, -440.35, 8728.15, -37555.63, -27229.36, 28996.54, 1054.64, 15417.79, 0.00, 0.00, 0.00, 0.00, 0.00, 0.00, 0.00
55, 13298.39, 38770.15, 481.37, 16567.65, -217.42, -442.74, 8726.46, -37554.57, -27229.36, 28996.54, 1054.64, 15417.79, 0.00, 0.00, 0.00, 0.00, 0.00, 0.00, 0.00
56, 13298.39, 38770.15, 481.37, 16567.65, -217.42, -442.74, 8726.46, -37554.57, -27231.96, 29019.34, 1063.72, 15427.89, 0.00, 0.00, 0.00, 0.00, 0.00, 0.00, 0.00
57, 13305.39, 38774.40, 480.70, 16570.80, -213.62, -439.66, 8731.17, -37551.22, -27231.96, 29019.34, 1063.72, 15427.89, 0.00, 0.00, 0.00, 0.00, 0.00, 0.00, 0.00
58, 13305.39, 38774.40, 480.70, 16570.80, -213.62, -439.66, 8731.17, -37551.22, -27231.60, 28996.31, 1057.01, 15413.38, 0.00, 0.00, 0.00, 0.00, 0.00, 0.00, 0.00
59, 13299.06, 38752.05, 470.15, 16555.78, -227.63, -452.20, 8714.52, -37563.89, -27231.60, 28996.31, 1057.01, 15413.38, 0.00, 0.00, 0.00, 0.00, 0.00, 0.00, 0.00
60, 13299.06, 38752.05, 470.15, 16555.78, -227.63, -452.20, 8714.52, -37563.89, -27243.18, 29002.17, 1051.98, 15414.81, 0.00, 0.00, 0.00, 0.00, 0.00, 0.00, 0.00
61, 13299.56, 38760.49, 476.20, 16569.79, -215.90, -440.42, 8728.65, -37556.23, -27243.18, 29002.17, 1051.98, 15414.81, 0.00, 0.00, 0.00, 0.00, 0.00, 0.00, 0.00
62, 13299.56, 38760.49, 476.20, 16569.79, -215.90, -440.42, 8728.65, -37556.23, -27226.88, 29001.79, 1060.05, 15415.13, 0.00, 0.00, 0.00, 0.00, 0.00, 0.00, 0.00
63, 13283.44, 38759.60, 470.79, 16556.56, -225.62, -448.96, 8716.84, -37556.56, -27226.88, 29001.79, 1060.05, 15415.13, 0.00, 0.00, 0.00, 0.00, -0.05, 0.27, 0.97
64, 13283.44, 38759.60, 470.79, 16556.56, -225.62, -448.96, 8716.84, -37556.56, -27233.54, 29011.33, 1050.62, 15425.41, 0.00, 0.00, 0.00, 0.00, 0.00, 0.00, 0.00
65, 13295.93, 38761.75, 475.38, 16568.23, -214.73, -439.64, 8730.81, -37552.41, -27233.54, 29011.33, 1050.62, 15425.41, 0.00, 0.00, 0.00, 0.00, 0.00, 0.00, 0.00
66, 13295.93, 38761.75, 475.38, 16568.23, -214.73, -439.64, 8730.81, -37552.41, -27226.77, 29002.86, 1058.62, 15416.51, 0.00, 0.00, 0.00, 0.00, 0.00, 0.00, 0.00
67, 13298.75, 38754.86, 478.30, 16561.19, -219.11, -445.58, 8721.47, -37553.37, -27226.77, 29002.86, 1058.62, 15416.51, 0.00, 0.00, 0.00, 0.00, 0.00, 0.00, 0.00
68, 13298.75, 38754.86, 478.30, 16561.19, -219.11, -445.58, 8721.47, -37553.37, -27224.27, 29012.16, 1053.35, 15426.12, 0.00, 0.00, 0.00, 0.00, 0.00, 0.00, 0.00
69, 13308.90, 38774.38, 487.54, 16577.84, -208.01, -432.51, 8737.99, -37546.91, -27224.27, 29012.16, 1053.35, 15426.12, 0.00, 0.00, 0.00, 0.00, 0.00, 0.00, 0.00
70, 13308.90, 38774.38, 487.54, 16577.84, -208.01, -432.51, 8737.99, -37546.91, -27225.54, 29011.09, 1063.18, 15424.98, 0.00, 0.00, 0.00, 0.00, 0.00, 0.00, 0.00
71, 13297.41, 38758.32, 480.99, 16558.39, -218.91, -445.96, 8721.07, -37552.41, -27225.54, 29011.09, 1063.18, 15424.98, 0.00, 0.00, 0.00, 0.00, 0.00, 0.00, 0.00
72, 13297.41, 38758.32, 480.99, 16558.39, -218.91, -445.96, 8721.07, -37552.41, -27227.31, 29006.62, 1048.52, 15426.17, 0.00, 0.00, 0.00, 0.00, -0.05, 0.27, 0.97
73, 13299.35, 38766.28, 482.91, 16576.14, -209.66, -434.90, 8734.68, -37549.34, -27227.31, 29006.62, 1048.52, 15426.17, 0.00, 0.00, 0.00, 0.00, 0.00, 0.00, 0.00
74, 13299.35, 38766.28, 482.91, 16576.14, -209.66, -434.90, 8734.68, -37549.34, -27227.80, 29017.14, 1058.20, 15426.55, 0.00, 0.00, 0.00, 0.00, 0.00, 0.00, 0.00
75, 13306.19, 38760.05, 483.51, 16559.85, -217.28, -445.60, 8722.28, -37551.80, -27227.80, 29017.14, 1058.20, 15426.55, 0.00, 0.00, 0.00, 0.00, 0.00, 0.00, 0.00
76, 13306.19, 38760.05, 483.51, 16559.85, -217.28, -445.60, 8722.28, -37551.80, -27222.50, 29004.32, 1050.98, 15426.12, 0.00, 0.00, 0.00, 0.00, 0.00, 0.00, 0.00
77, 13296.16, 38768.90, 485.35, 16572.39, -212.32, -437.94, 8732.87, -37550.35, -27222.50, 29004.32, 1050.98, 15426.12, 0.00, 0.00, 0.00, 0.00, 0.00, 0.00, 0.00
78, 13296.16, 38768.90, 485.35, 16572.39, -212.32, -437.94, 8732.87, -37550.35, -27234.33, 29013.37, 1058.42, 15423.15, 0.00, 0.00, 0.00, 0.00, 0.00, 0.00, 0.00
79, 13298.93, 38765.25, 482.19, 16558.22, -222.02, -447.39, 8718.41, -37555.55, -27234.33, 29013.37, 1058.42, 15423.15, 0.00, 0.00, 0.00, 0.00, 0.00, 0.00, 0.00
80, 13298.93, 38765.25, 482.19, 16558.22, -222.02, -447.39, 8718.41, -37555.55, -27226.01, 29003.04, 1051.81, 15425.45, 0.00, 0.00, 0.00, 0.00, 0.00, 0.00, 0.00
81, 13308.21, 38771.18, 488.61, 16573.51, -209.10, -434.20, 8735.96, -37545.72, -27226.01, 29003.04, 1051.81, 15425.45, 0.00, 0.00, 0.00, 0.00, 0.00, 0.00, 0.00
82, 13308.21, 38771.18, 488.61, 16573.51, -209.10, -434.20, 8735.96, -37545.72, -27230.62, 29015.36, 1060.79, 15425.50, 0.00, 0.00, 0.00, 0.00, -0.05, 0.27, 0.97
83, 13301.48, 38767.69, 487.60, 16561.21, -219.23, -446.39, 8720.11, -37554.57, -27230.62, 29015.36, 1060.79, 15425.50, 0.00, 0.00, 0.00, 0.00, 0.00, 0.00, 0.00
84, 13301.48, 38767.69, 487.60, 16561.21, -219.23, -446.39, 8720.11, -37554.57, -27224.69, 28995.51, 1048.99, 15418.21, 0.00, 0.00, 0.00, 0.00, 0.00, 0.00, 0.00
85, 13301.21, 38766.21, 483.65, 16570.35, -213.79, -438.27, 8732.02, -37552.58, -27224.69, 28995.51, 1048.99, 15418.21, 0.00, 0.00, 0.00, 0.00, 0.00, 0.00, 0.00
86, 13301.21, 38766.21, 483.65, 16570.35, -213.79, -438.27, 8732.02, -37552.58, -27231.35, 29021.04, 1055.49, 15433.43, 0.00, 0.00, 0.00, 0.00, 0.00, 0.00, 0.00
87, 13296.43, 38759.93, 483.51, 16559.13, -216.45, -444.49, 8724.27, -37551.11, -27231.35, 29021.04, 1055.49, 15433.43, 0.00, 0.00, 0.00, 0.00, 0.00, 0.00, 0.00
88, 13296.43, 38759.93, 483.51, 16559.13, -216.45, -444.49, 8724.27, -37551.11, -27222.70, 28998.48, 1046.29, 15426.70, 0.00, 0.00, 0.00, 0.00, 0.00, 0.00, 0.00
89, 13304.63, 38768.77, 485.41, 16571.36, -211.60, -436.78, 8732.85, -37551.00, -27222.70, 28998.48, 1046.29, 15426.70, 0.00, 0.00, 0.00, 0.00, 0.00, 0.00, 0.00
90, 13304.63, 38768.77, 485.41, 16571.36, -211.60, -436.78, 8732.85, -37551.00, -27228.60, 29024.12, 1063.09, 15436.20, 0.00, 0.00, 0.00, 0.00, 0.00, 0.00, 0.00
91, 13301.97, 38770.29, 487.49, 16565.68, -211.45, -441.42, 8727.57, -37552.96, -27228.60, 29024.12, 1063.09, 15436.20, 0.00, 0.00, 0.00, 0.00, 0.00, 0.00, 0.00
92, 13301.97, 38770.29, 487.49, 16565.68, -211.45, -441.42, 8727.57, -37552.96, -27225.29, 28993.43, 1048.50, 15416.56, 0.00, 0.00, 0.00, 0.00, -0.05, 0.27, 0.97
93, 13293.50, 38765.95, 480.99, 16563.71, -212.50, -440.53, 8729.21, -37553.16, -27225.29, 28993.43, 1048.50, 15416.56, 0.00, 0.00, 0.00, 0.00, 0.00, 0.00, 0.00
94, 13293.50, 38765.95, 480.99, 16563.71, -212.50, -440.53, 8729.21, -37553.16, -27228.56, 29023.00, 1057.82, 15432.69, 0.00, 0.00, 0.00, 0.00, 0.00, 0.00, 0.00
95, 13283.13, 38752.31, 479.31, 16564.07, -212.54, -440.66, 8727.86, -37551.51, -27228.56, 29023.00, 1057.82, 15432.69, 0.00, 0.00, 0.00, 0.00, 0.00, 0.00, 0.00
96, 13283.13, 38752.31, 479.31, 16564.07, -212.54, -440.66, 8727.86, -37551.51, -27222.03, 28998.68, 1045.77, 15422.43, 0.00, 0.00, 0.00, 0.00, 0.00, 0.00, 0.00
97, 13276.09, 38750.04, 473.28, 16560.36, -217.80, -444.26, 8725.85, -37553.28, -27222.03, 28998.68, 1045.77, 15422.43, 0.00, 0.00, 0.00, 0.00, 0.00, 0.00, 0.00
98, 13276.09, 38750.04, 473.28, 16560.36, -217.80, -444.26, 8725.85, -37553.28, -27231.33, 29026.62, 1048.48, 15438.39, 0.00, 0.00, 0.00, 0.00, 0.00, 0.00, 0.00
99, 13281.38, 38754.19, 472.45, 16556.25, -221.55, -445.67, 8721.78, -37556.65, -27231.33, 29026.62, 1048.48, 15438.39, 0.00, 0.00, 0.00, 0.00, 0.00, 0.00, 0.00
100, 13281.38, 38754.19, 472.45, 16556.25, -221.55, -445.67, 8721.78, -37556.65, -27226.48, 28991.11, 1040.97, 15415.33, 0.00, 0.00, 0.00, 0.00, 0.00, 0.00, 0.00
101, 13273.27, 38743.28, 463.53, 16549.92, -225.37, -451.26, 8715.64, -37562.22, -27226.48, 28991.11, 1040.97, 15415.33, 0.00, 0.00, 0.00, 0.00, 0.00, 0.00, 0.00
102, 13273.27, 38743.28, 463.53, 16549.92, -225.37, -451.26, 8715.64, -37562.22, -27229.50, 29015.16, 1047.18, 15427.24, 0.00, 0.00, 0.00, 0.00, -0.05, 0.28, 0.98
103, 13289.27, 38756.29, 474.75, 16563.67, -217.42, -441.09, 8726.10, -37552.02, -27229.50, 29015.16, 1047.18, 15427.24, 0.00, 0.00, 0.00, 0.00, 0.00, 0.00, 0.00
104, 13289.27, 38756.29, 474.75, 16563.67, -217.42, -441.09, 8726.10, -37552.02, -27220.60, 28998.82, 1044.61, 15423.64, 0.00, 0.00, 0.00, 0.00, 0.00, 0.00, 0.00
105, 13284.89, 38757.77, 474.91, 16552.36, -221.55, -448.31, 8719.17, -37554.62, -27220.60, 28998.82, 1044.61, 15423.64, 0.00, 0.00, 0.00, 0.00, 0.00, 0.00, 0.00
106, 13284.89, 38757.77, 474.91, 16552.36, -221.55, -448.31, 8719.17, -37554.62, -27227.84, 29016.41, 1048.59, 15428.78, 0.00, 0.00, 0.00, 0.00, 0.00, 0.00, 0.00
107, 13281.74, 38755.02, 477.99, 16566.33, -216.41, -441.69, 8726.63, -37553.66, -27227.84, 29016.41, 1048.59, 15428.78, 0.00, 0.00, 0.00, 0.00, 0.00, 0.00, 0.00
108, 13281.74, 38755.02, 477.99, 16566.33, -216.41, -441.69, 8726.63, -37553.66, -27231.49, 28995.04, 1036.12, 15417.16, 0.00, 0.00, 0.00, 0.00, 0.00, 0.00, 0.00
109, 13273.83, 38737.89, 468.27, 16548.31, -229.53, -455.08, 8709.27, -37563.87, -27231.49, 28995.04, 1036.12, 15417.16, 0.00, 0.00, 0.00, 0.00, 0.00, 0.00, 0.00
110, 13273.83, 38737.89, 468.27, 16548.31, -229.53, -455.08, 8709.27, -37563.87, -27229.43, 29009.99, 1044.12, 15425.05, 0.00, 0.00, 0.00, 0.00, 0.00, 0.00, 0.00
111, 13278.32, 38755.44, 478.17, 16567.34, -212.25, -439.30, 8729.56, -37551.04, -27229.43, 29009.99, 1044.12, 15425.05, 0.00, 0.00, 0.00, 0.00, -0.05, 0.28, 0.97
112, 13278.32, 38755.44, 478.17, 16567.34, -212.25, -439.30, 8729.56, -37551.04, -27224.69, 29005.66, 1043.67, 15423.08, 0.00, 0.00, 0.00, 0.00, 0.00, 0.00, 0.00
113, 13278.79, 38744.87, 471.82, 16555.18, -223.07, -447.88, 8717.02, -37557.21, -27224.69, 29005.66, 1043.67, 15423.08, 0.00, 0.00, 0.00, 0.00, 0.00, 0.00, 0.00
114, 13278.79, 38744.87, 471.82, 16555.18, -223.07, -447.88, 8717.02, -37557.21, -27227.89, 29010.60, 1036.63, 15428.56, 0.00, 0.00, 0.00, 0.00, 0.00, 0.00, 0.00
115, 13289.18, 38759.38, 477.32, 16570.53, -209.30, -435.48, 8733.07, -37546.66, -27227.89, 29010.60, 1036.63, 15428.56, 0.00, 0.00, 0.00, 0.00, 0.00, 0.00, 0.00
116, 13289.18, 38759.38, 477.32, 16570.53, -209.30, -435.48, 8733.07, -37546.66, -27221.03, 29012.85, 1048.12, 15430.57, 0.00, 0.00, 0.00, 0.00, 0.00, 0.00, 0.00
117, 13282.05, 38753.05, 472.43, 16554.80, -221.82, -447.08, 8716.84, -37552.76, -27221.03, 29012.85, 1048.12, 15430.57, 0.00, 0.00, 0.00, 0.00, 0.00, 0.00, 0.00
118, 13282.05, 38753.05, 472.43, 16554.80, -221.82, -447.08, 8716.84, -37552.76, -27225.70, 29007.31, 1038.39, 15426.95, 0.00, 0.00, 0.00, 0.00, 0.00, 0.00, 0.00
119, 13283.37, 38761.68, 477.25, 16570.55, -210.73, -435.64, 8733.09, -37548.87, -27225.70, 29007.31, 1038.39, 15426.95, 0.00, 0.00, 0.00, 0.00, 0.00, 0.00, 0.00
120, 13283.37, 38761.68, 477.25, 16570.55, -210.73, -435.64, 8733.09, -37548.87, -27224.40, 29011.40, 1048.99, 15428.04, 0.00, 0.00, 0.00, 0.00, 0.00, 0.00, 0.00
121, 13280.98, 38741.07, 473.01, 16552.96, -219.07, -447.79, 8718.32, -37551.42, -27224.40, 29011.40, 1048.99, 15428.04, 0.00, 0.00, 0.00, 0.00, -0.05, 0.28, 0.98
122, 13280.98, 38741.07, 473.01, 16552.96, -219.07, -447.79, 8718.32, -37551.42, -27216.40, 29009.48, 1041.39, 15430.66, 0.00, 0.00, 0.00, 0.00, 0.00, 0.00, 0.00
123, 13280.18, 38754.75, 473.23, 16565.57, -211.58, -439.64, 8731.95, -37548.05, -27216.40, 29009.48, 1041.39, 15430.66, 0.00, 0.00, 0.00, 0.00, 0.00, 0.00, 0.00
124, 13280.18, 38754.75, 473.23, 16565.57, -211.58, -439.64, 8731.95, -37548.05, -27224.42, 29015.63, 1046.55, 15427.96, 0.00, 0.00, 0.00, 0.00, 0.00, 0.00, 0.00
125, 13273.58, 38748.31, 471.64, 16550.93, -222.67, -449.96, 8715.66, -37554.17, -27224.42, 29015.63, 1046.55, 15427.96, 0.00, 0.00, 0.00, 0.00, 0.00, 0.00, 0.00
126, 13273.58, 38748.31, 471.64, 16550.93, -222.67, -449.96, 8715.66, -37554.17, -27217.29, 29003.40, 1038.08, 15425.00, 0.00, 0.00, 0.00, 0.00, 0.00, 0.00, 0.00
127, 13277.79, 38756.94, 475.71, 16566.69, -212.10, -439.61, 8730.39, -37549.43, -27217.29, 29003.40, 1038.08, 15425.00, 0.00, 0.00, 0.00, 0.00, 0.00, 0.00, 0.00
128, 13277.79, 38756.94, 475.71, 16566.69, -212.10, -439.61, 8730.39, -37549.43, -27217.36, 29024.03, 1054.62, 15435.76, 0.00, 0.00, 0.00, 0.00, 0.00, 0.00, 0.00
129, 13282.46, 38754.01, 477.19, 16555.00, -218.06, -445.40, 8721.02, -37549.10, -27217.36, 29024.03, 1054.62, 15435.76, 0.00, 0.00, 0.00, 0.00, 0.00, 0.00, 0.00
130, 13282.46, 38754.01, 477.19, 16555.00, -218.06, -445.40, 8721.02, -37549.10, -27214.34, 29004.47, 1042.04, 15429.95, 0.00, 0.00, 0.00, 0.00, 0.00, 0.00, 0.00
131, 13287.44, 38759.55, 479.24, 16568.21, -207.63, -438.38, 8732.67, -37547.75, -27214.34, 29004.47, 1042.04, 15429.95, 0.00, 0.00, 0.00, 0.00, -0.04, 0.27, 0.98
132, 13287.44, 38759.55, 479.24, 16568.21, -207.63, -438.38, 8732.67, -37547.75, -27221.56, 29024.30, 1053.64, 15432.09, 0.00, 0.00, 0.00, 0.00, 0.00, 0.00, 0.00
133, 13279.82, 38754.48, 479.87, 16561.53, -213.37, -443.17, 8723.91, -37546.35, -27221.56, 29024.30, 1053.64, 15432.09, 0.00, 0.00, 0.00, 0.00, 0.00, 0.00, 0.00
134, 13279.82, 38754.48, 479.87, 16561.53, -213.37, -443.17, 8723.91, -37546.35, -27209.45, 29008.70, 1040.67, 15435.51, 0.00, 0.00, 0.00, 0.00, 0.00, 0.00, 0.00
135, 13273.02, 38744.89, 473.75, 16565.53, -213.75, -438.65, 8729.23, -37550.59, -27209.45, 29008.70, 1040.67, 15435.51, 0.00, 0.00, 0.00, 0.00, 0.00, 0.00, 0.00
136, 13273.02, 38744.89, 473.75, 16565.53, -213.75, -438.65, 8729.23, -37550.59, -27224.96, 29023.63, 1045.99, 15434.82, 0.00, 0.00, 0.00, 0.00, 0.00, 0.00, 0.00
137, 13275.59, 38749.79, 477.79, 16567.96, -215.09, -438.76, 8724.31, -37550.17, -27224.96, 29023.63, 1045.99, 15434.82, 0.00, 0.00, 0.00, 0.00, 0.00, 0.00, 0.00
138, 13275.59, 38749.79, 477.79, 16567.96, -215.09, -438.76, 8724.31, -37550.17, -27211.93, 29004.20, 1038.55, 15429.48, 0.00, 0.00, 0.00, 0.00, 0.00, 0.00, 0.00
139, 13291.75, 38770.22, 485.37, 16575.94, -206.98, -433.22, 8733.63, -37546.75, -27211.93, 29004.20, 1038.55, 15429.48, 0.00, 0.00, 0.00, 0.00, 0.00, 0.00, 0.00
140, 13291.75, 38770.22, 485.37, 16575.94, -206.98, -433.22, 8733.63, -37546.75, -27219.80, 29029.01, 1055.47, 15440.43, 0.00, 0.00, 0.00, 0.00, 0.00, 0.00, 0.00
141, 13293.41, 38762.89, 488.41, 16573.42, -206.37, -433.85, 8730.84, -37546.73, -27219.80, 29029.01, 1055.47, 15440.43, 0.00, 0.00, 0.00, 0.00, -0.04, 0.27, 0.98
142, 13293.41, 38762.89, 488.41, 16573.42, -206.37, -433.85, 8730.84, -37546.73, -27209.54, 29004.67, 1052.25, 15429.72, 0.00, 0.00, 0.00, 0.00, 0.00, 0.00, 0.00
143, 13291.80, 38760.41, 490.33, 16576.50, -206.02, -434.23, 8731.71, -37548.11, -27209.54, 29004.67, 1052.25, 15429.72, 0.00, 0.00, 0.00, 0.00, 0.00, 0.00, 0.00
144, 13291.80, 38760.41, 490.33, 16576.50, -206.02, -434.23, 8731.71, -37548.11, -27217.05, 29032.23, 1057.55, 15440.85, 0.00, 0.00, 0.00, 0.00, 0.00, 0.00, 0.00
145, 13288.22, 38762.82, 487.40, 16573.39, -206.60, -435.81, 8730.61, -37546.37, -27217.05, 29032.23, 1057.55, 15440.85, 0.00, 0.00, 0.00, 0.00, 0.00, 0.00, 0.00
146, 13288.22, 38762.82, 487.40, 16573.39, -206.60, -435.81, 8730.61, -37546.37, -27205.76, 29002.21, 1060.88, 15430.95, 0.00, 0.00, 0.00, 0.00, 0.00, 0.00, 0.00
147, 13297.54, 38773.75, 499.00, 16582.15, -193.81, -429.71, 8739.11, -37539.57, -27205.76, 29002.21, 1060.88, 15430.95, 0.00, 0.00, 0.00, 0.00, 0.00, 0.00, 0.00
148, 13297.54, 38773.75, 499.00, 16582.15, -193.81, -429.71, 8739.11, -37539.57, -27206.19, 29036.75, 1078.90, 15447.47, 0.00, 0.00, 0.00, 0.00, 0.00, 0.00, 0.00
149, 13292.40, 38771.25, 493.26, 16590.40, -198.86, -426.00, 8739.49, -37538.10, -27206.19, 29036.75, 1078.90, 15447.47, 0.00, 0.00, 0.00, 0.00, 0.00, 0.00, 0.00
150, 13292.40, 38771.25, 493.26, 16590.40, -198.86, -426.00, 8739.49, -37538.10, -27204.89, 29006.86, 1045.53, 15435.47, 0.00, 0.00, 0.00, 0.00, 0.00, 0.00, 0.00
151, 13283.26, 38754.88, 480.47, 16571.85, -212.70, -440.24, 8725.65, -37546.50, -27204.89, 29006.86, 1045.53, 15435.47, 0.00, 0.00, 0.00, 0.00, -0.04, 0.27, 0.97
152, 13283.26, 38754.88, 480.47, 16571.85, -212.70, -440.24, 8725.65, -37546.50, -27212.87, 29027.49, 1055.67, 15444.36, 0.00, 0.00, 0.00, 0.00, 0.00, 0.00, 0.00
153, 13285.27, 38763.38, 480.32, 16561.44, -210.40, -441.29, 8728.11, -37548.65, -27212.87, 29027.49, 1055.67, 15444.36, 0.00, 0.00, 0.00, 0.00, 0.00, 0.00, 0.00
154, 13285.27, 38763.38, 480.32, 16561.44, -210.40, -441.29, 8728.11, -37548.65, -27213.27, 29003.55, 1043.98, 15428.02, 0.00, 0.00, 0.00, 0.00, 0.00, 0.00, 0.00
155, 13279.33, 38747.66, 470.17, 16547.29, -223.94, -450.68, 8716.13, -37552.70, -27213.27, 29003.55, 1043.98, 15428.02, 0.00, 0.00, 0.00, 0.00, 0.00, 0.00, 0.00
156, 13279.33, 38747.66, 470.17, 16547.29, -223.94, -450.68, 8716.13, -37552.70, -27219.60, 29019.49, 1045.77, 15438.24, 0.00, 0.00, 0.00, 0.00, 0.00, 0.00, 0.00
157, 13292.25, 38769.14, 482.42, 16565.32, -213.95, -437.60, 8728.45, -37554.24, -27219.60, 29019.49, 1045.77, 15438.24, 0.00, 0.00, 0.00, 0.00, 0.00, 0.00, 0.00
158, 13292.25, 38769.14, 482.42, 16565.32, -213.95, -437.60, 8728.45, -37554.24, -27213.14, 29004.12, 1057.24, 15426.64, 0.00, 0.00, 0.00, 0.00, 0.00, 0.00, 0.00
159, 13288.29, 38762.91, 482.22, 16556.43, -218.06, -446.25, 8718.81, -37554.21, -27213.14, 29004.12, 1057.24, 15426.64, 0.00, 0.00, 0.00, 0.00, 0.00, 0.00, 0.00
160, 13288.29, 38762.91, 482.22, 16556.43, -218.06, -446.25, 8718.81, -37554.21, -27217.85, 29013.95, 1056.75, 15435.53, 0.00, 0.00, 0.00, 0.00, -0.04, 0.27, 0.97
161, 13288.27, 38761.81, 480.14, 16572.97, -212.30, -437.96, 8727.51, -37555.36, -27217.85, 29013.95, 1056.75, 15435.53, 0.00, 0.00, 0.00, 0.00, 0.00, 0.00, 0.00
162, 13288.27, 38761.81, 480.14, 16572.97, -212.30, -437.96, 8727.51, -37555.36, -27217.27, 29004.38, 1055.70, 15431.44, 0.00, 0.00, 0.00, 0.00, 0.00, 0.00, 0.00
163, 13284.80, 38757.52, 482.91, 16558.51, -217.48, -447.10, 8717.00, -37558.73, -27217.27, 29004.38, 1055.70, 15431.44, 0.00, 0.00, 0.00, 0.00, 0.00, 0.00, 0.00
164, 13284.80, 38757.52, 482.91, 16558.51, -217.48, -447.10, 8717.00, -37558.73, -27214.28, 29011.56, 1053.48, 15434.39, 0.00, 0.00, 0.00, 0.00, 0.00, 0.00, 0.00
165, 13300.20, 38776.30, 492.39, 16581.60, -202.95, -430.32, 8737.59, -37549.34, -27214.28, 29011.56, 1053.48, 15434.39, 0.00, 0.00, 0.00, 0.00, 0.00, 0.00, 0.00
166, 13300.20, 38776.30, 492.39, 16581.60, -202.95, -430.32, 8737.59, -37549.34, -27208.62, 29021.08, 1067.54, 15439.56, 0.00, 0.00, 0.00, 0.00, 0.00, 0.00, 0.00
167, 13296.25, 38777.77, 488.30, 16563.07, -211.56, -444.53, 8722.72, -37552.85, -27208.62, 29021.08, 1067.54, 15439.56, 0.00, 0.00, 0.00, 0.00, 0.00, 0.00, 0.00
168, 13296.25, 38777.77, 488.30, 16563.07, -211.56, -444.53, 8722.72, -37552.85, -27211.66, 29010.28, 1056.70, 15432.22, 0.00, 0.00, 0.00, 0.00, 0.00, 0.00, 0.00
169, 13298.53, 38772.56, 494.47, 16584.12, -200.29, -430.05, 8740.29, -37551.27, -27211.66, 29010.28, 1056.70, 15432.22, 0.00, 0.00, 0.00, 0.00, 0.00, 0.00, 0.00
170, 13298.53, 38772.56, 494.47, 16584.12, -200.29, -430.05, 8740.29, -37551.27, -27215.48, 29013.88, 1065.95, 15435.69, 0.00, 0.00, 0.00, 0.00, -0.05, 0.27, 0.98
171, 13288.98, 38761.99, 492.25, 16566.33, -205.41, -441.65, 8736.27, -37552.43, -27215.48, 29013.88, 1065.95, 15435.69, 0.00, 0.00, 0.00, 0.00, 0.00, 0.00, 0.00
172, 13288.98, 38761.99, 492.25, 16566.33, -205.41, -441.65, 8736.27, -37552.43, -27200.15, 29017.01, 1064.88, 15441.77, 0.00, 0.00, 0.00, 0.00, 0.00, 0.00, 0.00
173, 13294.04, 38779.38, 497.95, 16583.43, -192.38, -425.96, 8739.33, -37538.34, -27200.15, 29017.01, 1064.88, 15441.77, 0.00, 0.00, 0.00, 0.00, 0.00, 0.00, 0.00
174, 13294.04, 38779.38, 497.95, 16583.43, -192.38, -425.96, 8739.33, -37538.34, -27207.12, 29032.52, 1069.60, 15448.07, 0.00, 0.00, 0.00, 0.00, 0.00, 0.00, 0.00
175, 13286.35, 38765.97, 493.46, 16569.28, -202.10, -439.06, 8730.75, -37547.82, -27207.12, 29032.52, 1069.60, 15448.07, 0.00, 0.00, 0.00, 0.00, 0.00, 0.00, 0.00
176, 13286.35, 38765.97, 493.46, 16569.28, -202.10, -439.06, 8730.75, -37547.82, -27202.83, 29000.87, 1064.10, 15432.09, 0.00, 0.00, 0.00, 0.00, 0.00, 0.00, 0.00
177, 13297.72, 38783.00, 499.70, 16585.20, -192.00, -427.25, 8746.89, -37542.23, -27202.83, 29000.87, 1064.10, 15432.09, 0.00, 0.00, 0.00, 0.00, 0.00, 0.00, 0.00
178, 13297.72, 38783.00, 499.70, 16585.20, -192.00, -427.25, 8746.89, -37542.23, -27199.57, 29034.11, 1074.31, 15452.57, 0.00, 0.00, 0.00, 0.00, 0.00, 0.00, 0.00
179, 13293.25, 38778.55, 491.29, 16572.61, -204.12, -437.51, 8723.86, -37547.66, -27199.57, 29034.11, 1074.31, 15452.57, 0.00, 0.00, 0.00, 0.00, 0.00, 0.00, 0.00
180, 13293.25, 38778.55, 491.29, 16572.61, -204.12, -437.51, 8723.86, -37547.66, -27202.59, 29002.30, 1053.59, 15429.99, 0.00, 0.00, 0.00, 0.00, -0.05, 0.27, 0.98
181, 13286.52, 38765.97, 488.34, 16578.18, -203.58, -435.39, 8723.24, -37551.42, -27202.59, 29002.30, 1053.59, 15429.99, 0.00, 0.00, 0.00, 0.00, 0.00, 0.00, 0.00
182, 13286.52, 38765.97, 488.34, 16578.18, -203.58, -435.39, 8723.24, -37551.42, -27213.14, 29024.41, 1062.67, 15435.85, 0.00, 0.00, 0.00, 0.00, 0.00, 0.00, 0.00
183, 13280.11, 38753.32, 483.92, 16567.13, -209.95, -441.87, 8725.90, -37552.88, -27213.14, 29024.41, 1062.67, 15435.85, 0.00, 0.00, 0.00, 0.00, 0.00, 0.00, 0.00
184, 13280.11, 38753.32, 483.92, 16567.13, -209.95, -441.87, 8725.90, -37552.88, -27203.10, 29003.02, 1050.24, 15436.63, 0.00, 0.00, 0.00, 0.00, 0.00, 0.00, 0.00
185, 13282.70, 38764.07, 488.43, 16580.21, -204.25, -433.15, 8740.18, -37552.67, -27203.10, 29003.02, 1050.24, 15436.63, 0.00, 0.00, 0.00, 0.00, 0.00, 0.00, 0.00
186, 13282.70, 38764.07, 488.43, 16580.21, -204.25, -433.15, 8740.18, -37552.67, -27208.93, 29028.28, 1061.57, 15451.51, 0.00, 0.00, 0.00, 0.00, 0.00, 0.00, 0.00
187, 13291.93, 38773.23, 492.07, 16572.95, -207.74, -436.17, 8714.56, -37546.73, -27208.93, 29028.28, 1061.57, 15451.51, 0.00, 0.00, 0.00, 0.00, 0.00, 0.00, 0.00
188, 13291.93, 38773.23, 492.07, 16572.95, -207.74, -436.17, 8714.56, -37546.73, -27198.32, 29004.65, 1045.10, 15436.47, 0.00, 0.00, 0.00, 0.00, 0.00, 0.00, 0.00
189, 13302.39, 38790.11, 495.83, 16575.90, -201.55, -430.38, 8735.26, -37543.17, -27198.32, 29004.65, 1045.10, 15436.47, 0.00, 0.00, 0.00, 0.00, 0.00, 0.00, 0.00
190, 13302.39, 38790.11, 495.83, 16575.90, -201.55, -430.38, 8735.26, -37543.17, -27205.25, 29038.63, 1067.14, 15448.63, 0.00, 0.00, 0.00, 0.00, -0.04, 0.27, 0.97
191, 13295.96, 38763.18, 492.27, 16571.58, -204.63, -435.52, 8738.15, -37550.17, -27205.25, 29038.63, 1067.14, 15448.63, 0.00, 0.00, 0.00, 0.00, 0.00, 0.00, 0.00
192, 13295.96, 38763.18, 492.27, 16571.58, -204.63, -435.52, 8738.15, -37550.17, -27202.94, 29002.57, 1056.79, 15441.77, 0.00, 0.00, 0.00, 0.00, 0.00, 0.00, 0.00
193, 13277.63, 38762.66, 495.29, 16571.29, -203.56, -434.79, 8725.99, -37546.46, -27202.94, 29002.57, 1056.79, 15441.77, 0.00, 0.00, 0.00, 0.00, 0.00, 0.00, 0.00
194, 13277.63, 38762.66, 495.29, 16571.29, -203.56, -434.79, 8725.99, -37546.46, -27197.04, 29047.61, 1068.84, 15466.11, 0.00, 0.00, 0.00, 0.00, 0.00, 0.00, 0.00
195, 13301.68, 38796.93, 508.66, 16587.16, -192.43, -424.66, 8734.79, -37537.45, -27197.04, 29047.61, 1068.84, 15466.11, 0.00, 0.00, 0.00, 0.00, 0.00, 0.00, 0.00
196, 13301.68, 38796.93, 508.66, 16587.16, -192.43, -424.66, 8734.79, -37537.45, -27198.23, 29010.60, 1060.08, 15414.79, 0.00, 0.00, 0.00, 0.00, 0.00, 0.00, 0.00
197, 13307.96, 38784.77, 496.10, 16569.21, -204.23, -440.31, 8723.62, -37555.63, -27198.23, 29010.60, 1060.08, 15414.79, 0.00, 0.00, 0.00, 0.00, 0.00, 0.00, 0.00
198, 13307.96, 38784.77, 496.10, 16569.21, -204.23, -440.31, 8723.62, -37555.63, -27205.00, 29034.51, 1075.74, 15462.33, 0.00, 0.00, 0.00, 0.00, 0.00, 0.00, 0.00
199, 13281.05, 38756.83, 496.10, 16577.08, -195.04, -426.18, 8741.30, -37542.77, -27205.00, 29034.51, 1075.74, 15462.33, 0.00, 0.00, 0.00, 0.00, -0.05, 0.27, 0.97
200, 13281.05, 38756.83, 496.10, 16577.08, -195.04, -426.18, 8741.30, -37542.77, -27192.80, 29011.31, 1077.31, 15453.15, 0.00, 0.00, 0.00, 0.00, 0.00, 0.00, 0.00
201, 13288.02, 38765.21, 500.86, 16571.00, -201.41, -434.34, 8726.97, -37549.45, -27192.80, 29011.31, 1077.31, 15453.15, 0.00, 0.00, 0.00, 0.00, 0.00, 0.00, 0.00
202, 13288.02, 38765.21, 500.86, 16571.00, -201.41, -434.34, 8726.97, -37549.45, -27201.63, 29024.95, 1079.03, 15448.07, 0.00, 0.00, 0.00, 0.00, 0.00, 0.00, 0.00
203, 13305.93, 38792.64, 505.31, 16572.99, -199.76, -438.43, 8731.46, -37563.27, -27201.63, 29024.95, 1079.03, 15448.07, 0.00, 0.00, 0.00, 0.00, 0.00, 0.00, 0.00
204, 13305.93, 38792.64, 505.31, 16572.99, -199.76, -438.43, 8731.46, -37563.27, -27214.28, 28991.60, 1078.72, 15360.50, 0.00, 0.00, 0.00, 0.00, 0.00, 0.00, 0.00
205, 13302.37, 38776.48, 503.38, 16563.63, -203.87, -441.40, 8722.81, -37572.70, -27214.28, 28991.60, 1078.72, 15360.50, 0.00, 0.00, 0.00, 0.00, 0.00, 0.00, 0.00
206, 13302.37, 38776.48, 503.38, 16563.63, -203.87, -441.40, 8722.81, -37572.70, -27216.15, 28999.53, 1088.51, 15409.76, 0.00, 0.00, 0.00, 0.00, 0.00, 0.00, 0.00
207, 13306.33, 38782.93, 510.92, 16577.53, -191.00, -428.84, 8743.55, -37562.98, -27216.15, 28999.53, 1088.51, 15409.76, 0.00, 0.00, 0.00, 0.00, 0.00, 0.00, 0.00
208, 13306.33, 38782.93, 510.92, 16577.53, -191.00, -428.84, 8743.55, -37562.98, -27207.66, 29005.39, 1090.01, 15355.78, 0.00, 0.00, 0.00, 0.00, 0.00, 0.00, 0.00
209, 13310.66, 38797.66, 517.49, 16564.77, -191.24, -439.48, 8735.62, -37575.14, -27207.66, 29005.39, 1090.01, 15355.78, 0.00, 0.00, 0.00, 0.00, -0.05, 0.27, 0.97
210, 13310.66, 38797.66, 517.49, 16564.77, -191.24, -439.48, 8735.62, -37575.14, -27205.42, 28987.51, 1109.79, 15405.81, 0.00, 0.00, 0.00, 0.00, 0.00, 0.00, 0.00
211, 13329.93, 38815.28, 530.90, 16580.99, -171.30, -424.66, 8762.24, -37578.04, -27205.42, 28987.51, 1109.79, 15405.81, 0.00, 0.00, 0.00, 0.00, 0.00, 0.00, 0.00
212, 13329.93, 38815.28, 530.90, 16580.99, -171.30, -424.66, 8762.24, -37578.04, -27221.88, 28976.80, 1114.41, 15306.81, 0.00, 0.00, 0.00, 0.00, 0.00, 0.00, 0.00
213, 13322.31, 38785.13, 526.63, 16560.38, -183.93, -437.92, 8746.86, -37591.07, -27221.88, 28976.80, 1114.41, 15306.81, 0.00, 0.00, 0.00, 0.00, 0.00, 0.00, 0.00
214, 13322.31, 38785.13, 526.63, 16560.38, -183.93, -437.92, 8746.86, -37591.07, -27221.50, 28939.94, 1120.43, 15407.08, 0.00, 0.00, 0.00, 0.00, 0.00, 0.00, 0.00
215, 13327.23, 38807.93, 542.75, 16583.09, -160.75, -412.81, 8773.75, -37582.07, -27221.50, 28939.94, 1120.43, 15407.08, 0.00, 0.00, 0.00, 0.00, 0.00, 0.00, 0.00
216, 13327.23, 38807.93, 542.75, 16583.09, -160.75, -412.81, 8773.75, -37582.07, -27213.16, 28999.89, 1124.16, 15445.32, 0.00, 0.00, 0.00, 0.00, 0.00, 0.00, 0.00
217, 13379.31, 38875.63, 557.45, 16566.06, -161.89, -428.59, 8768.72, -37567.96, -27213.16, 28999.89, 1124.16, 15445.32, 0.00, 0.00, 0.00, 0.00, 0.00, 0.00, 0.00
218, 13379.31, 38875.63, 557.45, 16566.06, -161.89, -428.59, 8768.72, -37567.96, -27202.72, 29014.33, 1148.39, 15274.33, 0.00, 0.00, 0.00, 0.00, 0.00, 0.00, 0.00
219, 13425.80, 38887.52, 573.50, 16594.07, -134.45, -397.59, 8827.13, -37547.71, -27202.72, 29014.33, 1148.39, 15274.33, 0.00, 0.00, 0.00, 0.00, -0.05, 0.28, 0.98
220, 13425.80, 38887.52, 573.50, 16594.07, -134.45, -397.59, 8827.13, -37547.71, -27212.13, 29021.04, 1162.49, 15395.99, 0.00, 0.00, 0.00, 0.00, 0.00, 0.00, 0.00
221, 13302.35, 38784.70, 562.84, 16581.82, -138.69, -398.46, 8821.88, -37525.67, -27212.13, 29021.04, 1162.49, 15395.99, 0.00, 0.00, 0.00, 0.00, 0.00, 0.00, 0.00
222, 13302.35, 38784.70, 562.84, 16581.82, -138.69, -398.46, 8821.88, -37525.67, -27199.26, 29025.13, 1154.67, 15457.48, 0.00, 0.00, 0.00, 0.00, 0.00, 0.00, 0.00
223, 13334.58, 38870.24, 571.65, 16591.90, -133.19, -391.60, 8814.16, -37513.73, -27199.26, 29025.13, 1154.67, 15457.48, 0.00, 0.00, 0.00, 0.00, 0.00, 0.00, 0.00
224, 13334.58, 38870.24, 571.65, 16591.90, -133.19, -391.60, 8814.16, -37513.73, -27218.75, 28964.75, 1177.85, 15466.78, 0.00, 0.00, 0.00, 0.00, 0.00, 0.00, 0.00
225, 13434.76, 38936.29, 611.68, 16589.33, -122.98, -382.08, 8830.41, -37493.60, -27218.75, 28964.75, 1177.85, 15466.78, 0.00, 0.00, 0.00, 0.00, 0.00, 0.00, 0.00
226, 13434.76, 38936.29, 611.68, 16589.33, -122.98, -382.08, 8830.41, -37493.60, -27191.23, 29043.54, 1192.76, 15534.01, 0.00, 0.00, 0.00, 0.00, 0.00, 0.00, 0.00
227, 13364.04, 38809.60, 592.19, 16596.71, -113.48, -372.22, 8847.74, -37465.05, -27191.23, 29043.54, 1192.76, 15534.01, 0.00, 0.00, 0.00, 0.00, 0.00, 0.00, 0.00
228, 13364.04, 38809.60, 592.19, 16596.71, -113.48, -372.22, 8847.74, -37465.05, -27194.29, 29093.28, 1210.79, 15467.45, 0.00, 0.00, 0.00, 0.00, 0.00, 0.00, 0.00
229, 13357.89, 38811.43, 598.91, 16582.38, -116.41, -384.70, 8843.78, -37440.18, -27194.29, 29093.28, 1210.79, 15467.45, 0.00, 0.00, 0.00, 0.00, -0.05, 0.27, 0.99
230, 13357.89, 38811.43, 598.91, 16582.38, -116.41, -384.70, 8843.78, -37440.18, -27170.87, 29115.36, 1211.78, 15584.64, 0.00, 0.00, 0.00, 0.00, 0.00, 0.00, 0.00
231, 13395.98, 38863.76, 617.00, 16600.37, -99.40, -370.66, 8869.40, -37428.26, -27170.87, 29115.36, 1211.78, 15584.64, 0.00, 0.00, 0.00, 0.00, 0.00, 0.00, 0.00
232, 13395.98, 38863.76, 617.00, 16600.37, -99.40, -370.66, 8869.40, -37428.26, -27178.29, 29120.39, 1226.15, 15458.15, 0.00, 0.00, 0.00, 0.00, 0.00, 0.00, 0.00
233, 13407.92, 38877.73, 619.03, 16588.75, -112.36, -378.35, 8849.77, -37446.88, -27178.29, 29120.39, 1226.15, 15458.15, 0.00, 0.00, 0.00, 0.00, 0.00, 0.00, 0.00
234, 13407.92, 38877.73, 619.03, 16588.75, -112.36, -378.35, 8849.77, -37446.88, -27162.33, 29109.77, 1233.19, 15390.34, 0.00, 0.00, 0.00, 0.00, 0.00, 0.00, 0.00
235, 13429.13, 38892.04, 631.55, 16595.99, -102.53, -374.41, 8864.30, -37443.06, -27162.33, 29109.77, 1233.19, 15390.34, 0.00, 0.00, 0.00, 0.00, 0.00, 0.00, 0.00
236, 13429.13, 38892.04, 631.55, 16595.99, -102.53, -374.41, 8864.30, -37443.06, -27174.15, 29101.75, 1253.98, 15400.31, 0.00, 0.00, 0.00, 0.00, 0.00, 0.00, 0.00
237, 13420.86, 38886.65, 629.74, 16592.32, -111.20, -372.72, 8868.99, -37468.65, -27174.15, 29101.75, 1253.98, 15400.31, 0.00, 0.00, 0.00, 0.00, 0.00, 0.00, 0.00
238, 13420.86, 38886.65, 629.74, 16592.32, -111.20, -372.72, 8868.99, -37468.65, -27157.59, 29109.75, 1246.36, 15303.99, 0.00, 0.00, 0.00, 0.00, -0.05, 0.27, 0.98
239, 13426.85, 38909.71, 638.12, 16594.38, -99.33, -371.84, 8895.46, -37487.14, -27157.59, 29109.75, 1246.36, 15303.99, 0.00, 0.00, 0.00, 0.00, 0.00, 0.00, 0.00
240, 13426.85, 38909.71, 638.12, 16594.38, -99.33, -371.84, 8895.46, -37487.14, -27164.99, 29150.34, 1265.33, 15222.25, 0.00, 0.00, 0.00, 0.00, 0.00, 0.00, 0.00
241, 13431.95, 38893.58, 638.57, 16596.86, -92.31, -364.51, 8911.64, -37524.24, -27164.99, 29150.34, 1265.33, 15222.25, 0.00, 0.00, 0.00, 0.00, 0.00, 0.00, 0.00
242, 13431.95, 38893.58, 638.57, 16596.86, -92.31, -364.51, 8911.64, -37524.24, -27155.67, 29130.85, 1258.69, 15232.22, 0.00, 0.00, 0.00, 0.00, 0.00, 0.00, 0.00
243, 13427.47, 38889.44, 635.55, 16591.10, -103.00, -365.23, 8895.77, -37579.00, -27155.67, 29130.85, 1258.69, 15232.22, 0.00, 0.00, 0.00, 0.00, 0.00, 0.00, 0.00
244, 13427.47, 38889.44, 635.55, 16591.10, -103.00, -365.23, 8895.77, -37579.00, -27160.21, 29160.24, 1266.76, 15145.92, 0.00, 0.00, 0.00, 0.00, 0.00, 0.00, 0.00
245, 13434.05, 38900.48, 642.19, 16598.16, -94.61, -361.54, 8913.76, -37611.55, -27160.21, 29160.24, 1266.76, 15145.92, 0.00, 0.00, 0.00, 0.00, 0.00, 0.00, 0.00
246, 13434.05, 38900.48, 642.19, 16598.16, -94.61, -361.54, 8913.76, -37611.55, -27152.96, 29141.60, 1259.48, 15092.86, 0.00, 0.00, 0.00, 0.00, 0.00, 0.00, 0.00
247, 13425.31, 38896.53, 634.92, 16589.96, -104.70, -371.35, 8898.27, -37644.32, -27152.96, 29141.60, 1259.48, 15092.86, 0.00, 0.00, 0.00, 0.00, 0.00, 0.00, 0.00
248, 13425.31, 38896.53, 634.92, 16589.96, -104.70, -371.35, 8898.27, -37644.32, -27156.99, 29158.01, 1259.32, 15068.43, 0.00, 0.00, 0.00, 0.00, -0.05, 0.27, 0.98
249, 13427.83, 38894.25, 636.18, 16596.10, -96.18, -365.03, 8912.11, -37654.71, -27156.99, 29158.01, 1259.32, 15068.43, 0.00, 0.00, 0.00, 0.00, 0.00, 0.00, 0.00
250, 13427.83, 38894.25, 636.18, 16596.10, -96.18, -365.03, 8912.11, -37654.71, -27157.21, 29139.12, 1251.34, 15048.71, 0.00, 0.00, 0.00, 0.00, 0.00, 0.00, 0.00
251, 13438.96, 38908.73, 639.62, 16590.52, -106.13, -374.46, 8900.78, -37675.27, -27157.21, 29139.12, 1251.34, 15048.71, 0.00, 0.00, 0.00, 0.00, 0.00, 0.00, 0.00
252, 13438.96, 38908.73, 639.62, 16590.52, -106.13, -374.46, 8900.78, -37675.27, -27158.96, 29160.04, 1263.92, 15064.27, 0.00, 0.00, 0.00, 0.00, 0.00, 0.00, 0.00
253, 13457.90, 38923.71, 649.79, 16603.97, -90.19, -363.13, 8917.34, -37672.05, -27158.96, 29160.04, 1263.92, 15064.27, 0.00, 0.00, 0.00, 0.00, 0.00, 0.00, 0.00
254, 13457.90, 38923.71, 649.79, 16603.97, -90.19, -363.13, 8917.34, -37672.05, -27159.43, 29142.25, 1268.13, 15044.85, 0.00, 0.00, 0.00, 0.00, 0.00, 0.00, 0.00
255, 13407.40, 38861.23, 634.12, 16584.37, -107.33, -375.35, 8899.39, -37683.05, -27159.43, 29142.25, 1268.13, 15044.85, 0.00, 0.00, 0.00, 0.00, 0.00, 0.00, 0.00
0, 13407.40, 38861.23, 634.12, 16584.37, -107.33, -375.35, 8899.39, -37683.05, -27159.92, 29150.23, 1261.24, 15134.97, 0.00, 0.00, 0.00, 0.00, 0.00, 0.00, 0.00
1, 13420.57, 38898.45, 644.00, 16597.22, -97.57, -366.95, 8912.45, -37677.15, -27159.92, 29150.23, 1261.24, 15134.97, 0.00, 0.00, 0.00, 0.00, 0.00, 0.00, 0.00
2, 13420.57, 38898.45, 644.00, 16597.22, -97.57, -366.95, 8912.45, -37677.15, -27158.71, 29146.96, 1269.11, 15082.49, 0.00, 0.00, 0.00, 0.00, -0.05, 0.27, 0.98
3, 13426.89, 38936.85, 651.93, 16589.51, -100.74, -369.83, 8905.96, -37673.46, -27158.71, 29146.96, 1269.11, 15082.49, 0.00, 0.00, 0.00, 0.00, 0.00, 0.00, 0.00
4, 13426.89, 38936.85, 651.93, 16589.51, -100.74, -369.83, 8905.96, -37673.46, -27156.16, 29145.45, 1268.42, 15209.00, 0.00, 0.00, 0.00, 0.00, 0.00, 0.00, 0.00
5, 13426.07, 38867.71, 645.81, 16596.04, -98.73, -365.29, 8913.54, -37672.07, -27156.16, 29145.45, 1268.42, 15209.00, 0.00, 0.00, 0.00, 0.00, 0.00, 0.00, 0.00
6, 13426.07, 38867.71, 645.81, 16596.04, -98.73, -365.29, 8913.54, -37672.07, -27155.56, 29148.48, 1272.26, 15198.96, 0.00, 0.00, 0.00, 0.00, 0.00, 0.00, 0.00
7, 13421.28, 38875.88, 642.46, 16582.51, -107.62, -375.44, 8900.69, -37668.57, -27155.56, 29148.48, 1272.26, 15198.96, 0.00, 0.00, 0.00, 0.00, 0.00, 0.00, 0.00
8, 13421.28, 38875.88, 642.46, 16582.51, -107.62, -375.44, 8900.69, -37668.57, -27151.71, 29151.03, 1263.16, 15191.41, 0.00, 0.00, 0.00, 0.00, 0.00, 0.00, 0.00
9, 13468.98, 38928.04, 655.20, 16599.41, -95.08, -360.38, 8919.55, -37662.33, -27151.71, 29151.03, 1263.16, 15191.41, 0.00, 0.00, 0.00, 0.00, 0.00, 0.00, 0.00
10, 13468.98, 38928.04, 655.20, 16599.41, -95.08, -360.38, 8919.55, -37662.33, -27156.72, 29147.81, 1271.86, 15270.44, 0.00, 0.00, 0.00, 0.00, 0.00, 0.00, 0.00
11, 13438.43, 38889.66, 631.33, 16572.19, -118.62, -384.76, 8891.77, -37674.67, -27156.72, 29147.81, 1271.86, 15270.44, 0.00, 0.00, 0.00, 0.00, 0.00, 0.00, 0.00
12, 13438.43, 38889.66, 631.33, 16572.19, -118.62, -384.76, 8891.77, -37674.67, -27161.21, 29134.29, 1261.20, 15292.12, 0.00, 0.00, 0.00, 0.00, -0.04, 0.27, 0.97
13, 13402.08, 38884.46, 641.85, 16588.26, -106.91, -373.23, 8907.93, -37664.36, -27161.21, 29134.29, 1261.20, 15292.12, 0.00, 0.00, 0.00, 0.00, 0.00, 0.00, 0.00
14, 13402.08, 38884.46, 641.85, 16588.26, -106.91, -373.23, 8907.93, -37664.36, -27167.70, 29140.08, 1268.95, 15266.11, 0.00, 0.00, 0.00, 0.00, 0.00, 0.00, 0.00
15, 13408.34, 38885.17, 636.24, 16568.74, -122.62, -385.75, 8888.46, -37675.83, -27167.70, 29140.08, 1268.95, 15266.11, 0.00, 0.00, 0.00, 0.00, 0.00, 0.00, 0.00
16, 13408.34, 38885.17, 636.24, 16568.74, -122.62, -385.75, 8888.46, -37675.83, -27163.13, 29130.29, 1266.05, 15230.63, 0.00, 0.00, 0.00, 0.00, 0.00, 0.00, 0.00
17, 13455.48, 38919.44, 652.51, 16585.42, -106.46, -370.52, 8911.98, -37656.21, -27163.13, 29130.29, 1266.05, 15230.63, 0.00, 0.00, 0.00, 0.00, 0.00, 0.00, 0.00
18, 13455.48, 38919.44, 652.51, 16585.42, -106.46, -370.52, 8911.98, -37656.21, -27169.88, 29155.17, 1286.41, 15388.84, 0.00, 0.00, 0.00, 0.00, 0.00, 0.00, 0.00
19, 13433.13, 38909.67, 654.68, 16589.73, -113.35, -376.45, 8898.97, -37662.29, -27169.88, 29155.17, 1286.41, 15388.84, 0.00, 0.00, 0.00, 0.00, 0.00, 0.00, 0.00
20, 13433.13, 38909.67, 654.68, 16589.73, -113.35, -376.45, 8898.97, -37662.29, -27157.77, 29133.17, 1294.99, 15278.11, 0.00, 0.00, 0.00, 0.00, 0.00, 0.00, 0.00
21, 13439.99, 38904.48, 659.96, 16587.07, -96.11, -365.72, 8915.95, -37658.57, -27157.77, 29133.17, 1294.99, 15278.11, 0.00, 0.00, 0.00, 0.00, -0.05, 0.27, 0.97
22, 13439.99, 38904.48, 659.96, 16587.07, -96.11, -365.72, 8915.95, -37658.57, -27159.47, 29162.92, 1294.90, 15436.23, 0.00, 0.00, 0.00, 0.00, 0.00, 0.00, 0.00
23, 13442.07, 38883.59, 645.07, 16562.75, -112.45, -382.01, 8900.80, -37665.86, -27159.47, 29162.92, 1294.90, 15436.23, 0.00, 0.00, 0.00, 0.00, 0.00, 0.00, 0.00
24, 13442.07, 38883.59, 645.07, 16562.75, -112.45, -382.01, 8900.80, -37665.86, -27159.13, 29126.58, 1271.79, 15343.09, 0.00, 0.00, 0.00, 0.00, 0.00, 0.00, 0.00
25, 13438.05, 38901.29, 644.38, 16564.27, -120.21, -383.29, 8900.24, -37682.85, -27159.13, 29126.58, 1271.79, 15343.09, 0.00, 0.00, 0.00, 0.00, 0.00, 0.00, 0.00
26, 13438.05, 38901.29, 644.38, 16564.27, -120.21, -383.29, 8900.24, -37682.85, -27164.05, 29158.10, 1282.07, 15336.49, 0.00, 0.00, 0.00, 0.00, 0.00, 0.00, 0.00
27, 13447.70, 38916.69, 650.37, 16556.07, -122.24, -383.40, 8897.63, -37693.04, -27164.05, 29158.10, 1282.07, 15336.49, 0.00, 0.00, 0.00, 0.00, 0.00, 0.00, 0.00
28, 13447.70, 38916.69, 650.37, 16556.07, -122.24, -383.40, 8897.63, -37693.04, -27162.22, 29121.42, 1286.97, 15334.93, 0.00, 0.00, 0.00, 0.00, 0.00, 0.00, 0.00
29, 13444.93, 38902.70, 652.31, 16556.70, -120.34, -385.57, 8900.08, -37704.57, -27162.22, 29121.42, 1286.97, 15334.93, 0.00, 0.00, 0.00, 0.00, 0.00, 0.00, 0.00
30, 13444.93, 38902.70, 652.31, 16556.70, -120.34, -385.57, 8900.08, -37704.57, -27157.41, 29168.64, 1305.83, 15376.08, 0.00, 0.00, 0.00, 0.00, 0.00, 0.00, 0.00
31, 13465.12, 38929.47, 669.12, 16566.17, -110.22, -378.84, 8907.95, -37699.34, -27157.41, 29168.64, 1305.83, 15376.08, 0.00, 0.00, 0.00, 0.00, -0.05, 0.27, 0.97
32, 13465.12, 38929.47, 669.12, 16566.17, -110.22, -378.84, 8907.95, -37699.34, -27148.41, 29139.23, 1313.79, 15356.97, 0.00, 0.00, 0.00, 0.00, 0.00, 0.00, 0.00
33, 13452.33, 38909.56, 664.47, 16561.17, -113.68, -382.53, 8905.83, -37713.00, -27148.41, 29139.23, 1313.79, 15356.97, 0.00, 0.00, 0.00, 0.00, 0.00, 0.00, 0.00
34, 13452.33, 38909.56, 664.47, 16561.17, -113.68, -382.53, 8905.83, -37713.00, -27156.14, 29176.40, 1314.68, 15368.25, 0.00, 0.00, 0.00, 0.00, 0.00, 0.00, 0.00
35, 13455.41, 38922.37, 669.12, 16564.34, -112.21, -378.93, 8907.91, -37720.94, -27156.14, 29176.40, 1314.68, 15368.25, 0.00, 0.00, 0.00, 0.00, 0.00, 0.00, 0.00
36, 13455.41, 38922.37, 669.12, 16564.34, -112.21, -378.93, 8907.91, -37720.94, -27152.92, 29117.55, 1307.67, 15438.86, 0.00, 0.00, 0.00, 0.00, 0.00, 0.00, 0.00
37, 13479.17, 38947.29, 674.89, 16561.99, -115.74, -380.07, 8905.74, -37732.05, -27152.92, 29117.55, 1307.67, 15438.86, 0.00, 0.00, 0.00, 0.00, 0.00, 0.00, 0.00
38, 13479.17, 38947.29, 674.89, 16561.99, -115.74, -380.07, 8905.74, -37732.05, -27160.72, 29153.65, 1314.64, 15398.16, 0.00, 0.00, 0.00, 0.00, 0.00, 0.00, 0.00
39, 13450.00, 38905.85, 665.25, 16564.41, -117.86, -381.12, 8906.75, -37742.46, -27160.72, 29153.65, 1314.64, 15398.16, 0.00, 0.00, 0.00, 0.00, 0.00, 0.00, 0.00
40, 13450.00, 38905.85, 665.25, 16564.41, -117.86, -381.12, 8906.75, -37742.46, -27155.96, 29135.43, 1304.89, 15364.21, 0.00, 0.00, 0.00, 0.00, 0.00, 0.00, 0.00
41, 13438.67, 38899.23, 656.43, 16553.37, -130.85, -393.86, 8892.93, -37761.62, -27155.96, 29135.43, 1304.89, 15364.21, 0.00, 0.00, 0.00, 0.00, -0.04, 0.27, 0.97
42, 13438.67, 38899.23, 656.43, 16553.37, -130.85, -393.86, 8892.93, -37761.62, -27163.36, 29148.13, 1303.11, 15369.37, 0.00, 0.00, 0.00, 0.00, 0.00, 0.00, 0.00
43, 13485.99, 38954.15, 678.02, 16572.10, -110.08, -376.87, 8914.90, -37752.07, -27163.36, 29148.13, 1303.11, 15369.37, 0.00, 0.00, 0.00, 0.00, 0.00, 0.00, 0.00
44, 13485.99, 38954.15, 678.02, 16572.10, -110.08, -376.87, 8914.90, -37752.07, -27148.88, 29148.17, 1319.85, 15391.23, 0.00, 0.00, 0.00, 0.00, 0.00, 0.00, 0.00
45, 13458.50, 38918.18, 676.14, 16561.46, -117.01, -384.14, 8905.94, -37760.59, -27148.88, 29148.17, 1319.85, 15391.23, 0.00, 0.00, 0.00, 0.00, 0.00, 0.00, 0.00
46, 13458.50, 38918.18, 676.14, 16561.46, -117.01, -384.14, 8905.94, -37760.59, -27154.31, 29155.93, 1319.87, 15386.81, 0.00, 0.00, 0.00, 0.00, 0.00, 0.00, 0.00
47, 13447.35, 38911.57, 673.70, 16568.48, -114.60, -381.70, 8911.19, -37770.94, -27154.31, 29155.93, 1319.87, 15386.81, 0.00, 0.00, 0.00, 0.00, 0.00, 0.00, 0.00
48, 13447.35, 38911.57, 673.70, 16568.48, -114.60, -381.70, 8911.19, -37770.94, -27157.14, 29130.36, 1308.96, 15439.78, 0.00, 0.00, 0.00, 0.00, 0.00, 0.00, 0.00
49, 13443.97, 38906.63, 667.89, 16557.14, -124.70, -389.99, 8900.69, -37776.64, -27157.14, 29130.36, 1308.96, 15439.78, 0.00, 0.00, 0.00, 0.00, 0.00, 0.00, 0.00
50, 13443.97, 38906.63, 667.89, 16557.14, -124.70, -389.99, 8900.69, -37776.64, -27158.93, 29140.82, 1299.42, 15415.26, 0.00, 0.00, 0.00, 0.00, 0.00, 0.00, 0.00
51, 13464.76, 38924.15, 673.21, 16570.91, -118.29, -382.68, 8911.93, -37776.48, -27158.93, 29140.82, 1299.42, 15415.26, 0.00, 0.00, 0.00, 0.00, -0.04, 0.27, 0.97
52, 13464.76, 38924.15, 673.21, 16570.91, -118.29, -382.68, 8911.93, -37776.48, -27152.85, 29147.23, 1305.43, 15383.14, 0.00, 0.00, 0.00, 0.00, 0.00, 0.00, 0.00
53, 13467.86, 38943.33, 676.27, 16558.62, -121.82, -389.77, 8903.66, -37777.42, -27152.85, 29147.23, 1305.43, 15383.14, 0.00, 0.00, 0.00, 0.00, 0.00, 0.00, 0.00
54, 13467.86, 38943.33, 676.27, 16558.62, -121.82, -389.77, 8903.66, -37777.42, -27148.34, 29147.52, 1306.39, 15412.82, 0.00, 0.00, 0.00, 0.00, 0.00, 0.00, 0.00
55, 13454.97, 38915.32, 671.60, 16569.75, -113.44, -379.20, 8918.10, -37777.82, -27148.34, 29147.52, 1306.39, 15412.82, 0.00, 0.00, 0.00, 0.00, 0.00, 0.00, 0.00
56, 13454.97, 38915.32, 671.60, 16569.75, -113.44, -379.20, 8918.10, -37777.82, -27152.92, 29155.84, 1310.08, 15399.79, 0.00, 0.00, 0.00, 0.00, 0.00, 0.00, 0.00
57, 13465.27, 38915.41, 669.52, 16553.30, -122.96, -392.47, 8903.66, -37778.20, -27152.92, 29155.84, 1310.08, 15399.79, 0.00, 0.00, 0.00, 0.00, 0.00, 0.00, 0.00
58, 13465.27, 38915.41, 669.52, 16553.30, -122.96, -392.47, 8903.66, -37778.20, -27147.33, 29140.33, 1303.75, 15488.04, 0.00, 0.00, 0.00, 0.00, 0.00, 0.00, 0.00
59, 13461.40, 38930.30, 673.10, 16565.99, -113.66, -383.09, 8916.87, -37774.85, -27147.33, 29140.33, 1303.75, 15488.04, 0.00, 0.00, 0.00, 0.00, 0.00, 0.00, 0.00
60, 13461.40, 38930.30, 673.10, 16565.99, -113.66, -383.09, 8916.87, -37774.85, -27152.05, 29159.55, 1310.64, 15438.62, 0.00, 0.00, 0.00, 0.00, -0.05, 0.27, 0.97
61, 13434.43, 38898.88, 662.35, 16548.76, -129.06, -397.01, 8897.96, -37783.50, -27152.05, 29159.55, 1310.64, 15438.62, 0.00, 0.00, 0.00, 0.00, 0.00, 0.00, 0.00
62, 13434.43, 38898.88, 662.35, 16548.76, -129.06, -397.01, 8897.96, -37783.50, -27149.14, 29139.46, 1297.68, 15432.22, 0.00, 0.00, 0.00, 0.00, 0.00, 0.00, 0.00
63, 13437.09, 38911.17, 666.24, 16562.71, -118.15, -386.10, 8915.15, -37775.25, -27149.14, 29139.46, 1297.68, 15432.22, 0.00, 0.00, 0.00, 0.00, 0.00, 0.00, 0.00
64, 13437.09, 38911.17, 666.24, 16562.71, -118.15, -386.10, 8915.15, -37775.25, -27153.57, 29152.96, 1304.22, 15459.72, 0.00, 0.00, 0.00, 0.00, 0.00, 0.00, 0.00
65, 13447.01, 38926.10, 667.51, 16554.75, -123.40, -391.49, 8906.50, -37773.33, -27153.57, 29152.96, 1304.22, 15459.72, 0.00, 0.00, 0.00, 0.00, 0.00, 0.00, 0.00
66, 13447.01, 38926.10, 667.51, 16554.75, -123.40, -391.49, 8906.50, -37773.33, -27139.26, 29151.97, 1303.84, 15421.32, 0.00, 0.00, 0.00, 0.00, 0.00, 0.00, 0.00
67, 13471.17, 38927.35, 665.81, 16558.13, -117.91, -386.55, 8914.64, -37771.23, -27139.26, 29151.97, 1303.84, 15421.32, 0.00, 0.00, 0.00, 0.00, 0.00, 0.00, 0.00
68, 13471.17, 38927.35, 665.81, 16558.13, -117.91, -386.55, 8914.64, -37771.23, -27159.07, 29150.47, 1310.93, 15447.40, 0.00, 0.00, 0.00, 0.00, 0.00, 0.00, 0.00
69, 13432.88, 38895.52, 660.20, 16547.73, -130.11, -396.18, 8898.88, -37778.07, -27159.07, 29150.47, 1310.93, 15447.40, 0.00, 0.00, 0.00, 0.00, 0.00, 0.00, 0.00
70, 13432.88, 38895.52, 660.20, 16547.73, -130.11, -396.18, 8898.88, -37778.07, -27155.54, 29126.67, 1293.56, 15462.78, 0.00, 0.00, 0.00, 0.00, -0.05, 0.27, 0.97
71, 13432.82, 38899.41, 661.63, 16553.59, -127.18, -391.18, 8909.23, -37770.51, -27155.54, 29126.67, 1293.56, 15462.78, 0.00, 0.00, 0.00, 0.00, 0.00, 0.00, 0.00
72, 13432.82, 38899.41, 661.63, 16553.59, -127.18, -391.18, 8909.23, -37770.51, -27158.58, 29156.31, 1304.40, 15469.31, 0.00, 0.00, 0.00, 0.00, 0.00, 0.00, 0.00
73, 13441.94, 38905.64, 666.17, 16550.30, -127.81, -393.44, 8904.04, -37764.16, -27158.58, 29156.31, 1304.40, 15469.31, 0.00, 0.00, 0.00, 0.00, 0.00, 0.00, 0.00
74, 13441.94, 38905.64, 666.17, 16550.30, -127.81, -393.44, 8904.04, -37764.16, -27152.16, 29129.06, 1290.37, 15417.16, 0.00, 0.00, 0.00, 0.00, 0.00, 0.00, 0.00
75, 13442.09, 38907.88, 663.36, 16554.51, -127.16, -395.20, 8906.32, -37764.63, -27152.16, 29129.06, 1290.37, 15417.16, 0.00, 0.00, 0.00, 0.00, 0.00, 0.00, 0.00
76, 13442.09, 38907.88, 663.36, 16554.51, -127.16, -395.20, 8906.32, -37764.63, -27158.71, 29149.85, 1297.43, 15477.64, 0.00, 0.00, 0.00, 0.00, 0.00, 0.00, 0.00
77, 13465.38, 38923.06, 670.51, 16553.23, -122.67, -393.79, 8908.87, -37757.17, -27158.71, 29149.85, 1297.43, 15477.64, 0.00, 0.00, 0.00, 0.00, 0.00, 0.00, 0.00
78, 13465.38, 38923.06, 670.51, 16553.23, -122.67, -393.79, 8908.87, -37757.17, -27144.83, 29134.51, 1294.03, 15458.29, 0.00, 0.00, 0.00, 0.00, 0.00, 0.00, 0.00
79, 13449.40, 38911.75, 665.03, 16555.45, -120.99, -390.02, 8913.47, -37748.86, -27144.83, 29134.51, 1294.03, 15458.29, 0.00, 0.00, 0.00, 0.00, 0.00, 0.00, 0.00
80, 13449.40, 38911.75, 665.03, 16555.45, -120.99, -390.02, 8913.47, -37748.86, -27150.62, 29162.34, 1299.20, 15448.45, 0.00, 0.00, 0.00, 0.00, -0.05, 0.27, 0.97
81, 13442.45, 38908.93, 664.67, 16556.74, -121.73, -387.76, 8911.89, -37749.70, -27150.62, 29162.34, 1299.20, 15448.45, 0.00, 0.00, 0.00, 0.00, 0.00, 0.00, 0.00
82, 13442.45, 38908.93, 664.67, 16556.74, -121.73, -387.76, 8911.89, -37749.70, -27142.86, 29138.89, 1290.95, 15488.44, 0.00, 0.00, 0.00, 0.00, 0.00, 0.00, 0.00
83, 13428.97, 38895.23, 660.76, 16551.33, -122.06, -391.00, 8912.51, -37737.88, -27142.86, 29138.89, 1290.95, 15488.44, 0.00, 0.00, 0.00, 0.00, 0.00, 0.00, 0.00
84, 13428.97, 38895.23, 660.76, 16551.33, -122.06, -391.00, 8912.51, -37737.88, -27153.08, 29156.13, 1290.95, 15490.23, 0.00, 0.00, 0.00, 0.00, 0.00, 0.00, 0.00
85, 13435.30, 38898.65, 658.53, 16554.46, -124.10, -390.51, 8911.77, -37740.76, -27153.08, 29156.13, 1290.95, 15490.23, 0.00, 0.00, 0.00, 0.00, 0.00, 0.00, 0.00
86, 13435.30, 38898.65, 658.53, 16554.46, -124.10, -390.51, 8911.77, -37740.76, -27146.26, 29135.77, 1282.74, 15487.90, 0.00, 0.00, 0.00, 0.00, 0.00, 0.00, 0.00
87, 13458.88, 38922.52, 660.81, 16553.63, -124.28, -393.59, 8908.82, -37735.71, -27146.26, 29135.77, 1282.74, 15487.90, 0.00, 0.00, 0.00, 0.00, 0.00, 0.00, 0.00
88, 13458.88, 38922.52, 660.81, 16553.63, -124.28, -393.59, 8908.82, -37735.71, -27148.38, 29160.82, 1287.93, 15486.83, 0.00, 0.00, 0.00, 0.00, 0.00, 0.00, 0.00
89, 13436.04, 38900.19, 658.15, 16562.91, -119.78, -385.81, 8916.85, -37729.57, -27148.38, 29160.82, 1287.93, 15486.83, 0.00, 0.00, 0.00, 0.00, 0.00, 0.00, 0.00
90, 13436.04, 38900.19, 658.15, 16562.91, -119.78, -385.81, 8916.85, -37729.57, -27147.98, 29141.94, 1282.01, 15462.78, 0.00, 0.00, 0.00, 0.00, -0.04, 0.27, 0.97
91, 13431.16, 38897.60, 658.95, 16553.43, -125.35, -389.73, 8909.67, -37724.27, -27147.98, 29141.94, 1282.01, 15462.78, 0.00, 0.00, 0.00, 0.00, 0.00, 0.00, 0.00
92, 13431.16, 38897.60, 658.95, 16553.43, -125.35, -389.73, 8909.67, -37724.27, -27147.51, 29158.99, 1285.78, 15520.69, 0.00, 0.00, 0.00, 0.00, 0.00, 0.00, 0.00
93, 13462.01, 38918.83, 667.80, 16571.07, -111.94, -377.23, 8925.16, -37710.54, -27147.51, 29158.99, 1285.78, 15520.69, 0.00, 0.00, 0.00, 0.00, 0.00, 0.00, 0.00
94, 13462.01, 38918.83, 667.80, 16571.07, -111.94, -377.23, 8925.16, -37710.54, -27146.91, 29149.71, 1283.77, 15467.27, 0.00, 0.00, 0.00, 0.00, 0.00, 0.00, 0.00
95, 13411.14, 38888.93, 656.43, 16556.41, -126.26, -388.56, 8909.83, -37716.80, -27146.91, 29149.71, 1283.77, 15467.27, 0.00, 0.00, 0.00, 0.00, 0.00, 0.00, 0.00
96, 13411.14, 38888.93, 656.43, 16556.41, -126.26, -388.56, 8909.83, -37716.80, -27154.98, 29148.24, 1275.44, 15517.36, 0.00, 0.00, 0.00, 0.00, 0.00, 0.00, 0.00
97, 13431.81, 38900.62, 654.57, 16563.27, -121.55, -384.87, 8916.78, -37712.42, -27154.98, 29148.24, 1275.44, 15517.36, 0.00, 0.00, 0.00, 0.00, 0.00, 0.00, 0.00
98, 13431.81, 38900.62, 654.57, 16563.27, -121.55, -384.87, 8916.78, -37712.42, -27153.44, 29145.78, 1273.80, 15493.42, 0.00, 0.00, 0.00, 0.00, 0.00, 0.00, 0.00
99, 13449.27, 38906.16, 659.38, 16557.01, -124.05, -388.54, 8909.49, -37705.43, -27153.44, 29145.78, 1273.80, 15493.42, 0.00, 0.00, 0.00, 0.00, -0.04, 0.27, 0.97
100, 13449.27, 38906.16, 659.38, 16557.01, -124.05, -388.54, 8909.49, -37705.43, -27144.05, 29159.35, 1272.48, 15468.59, 0.00, 0.00, 0.00, 0.00, 0.00, 0.00, 0.00
101, 13427.18, 38909.96, 657.86, 16567.69, -116.50, -377.83, 8921.56, -37702.54, -27144.05, 29159.35, 1272.48, 15468.59, 0.00, 0.00, 0.00, 0.00, 0.00, 0.00, 0.00
102, 13427.18, 38909.96, 657.86, 16567.69, -116.50, -377.83, 8921.56, -37702.54, -27151.42, 29153.33, 1271.77, 15408.67, 0.00, 0.00, 0.00, 0.00, 0.00, 0.00, 0.00
103, 13435.70, 38891.45, 655.87, 16552.70, -129.24, -390.98, 8905.29, -37700.53, -27151.42, 29153.33, 1271.77, 15408.67, 0.00, 0.00, 0.00, 0.00, 0.00, 0.00, 0.00
104, 13435.70, 38891.45, 655.87, 16552.70, -129.24, -390.98, 8905.29, -37700.53, -27144.76, 29160.13, 1268.68, 15593.96, 0.00, 0.00, 0.00, 0.00, 0.00, 0.00, 0.00
105, 13425.89, 38894.49, 657.52, 16568.77, -116.36, -378.95, 8923.78, -37684.82, -27144.76, 29160.13, 1268.68, 15593.96, 0.00, 0.00, 0.00, 0.00, 0.00, 0.00, 0.00
106, 13425.89, 38894.49, 657.52, 16568.77, -116.36, -378.95, 8923.78, -37684.82, -27149.79, 29171.55, 1271.05, 15449.88, 0.00, 0.00, 0.00, 0.00, 0.00, 0.00, 0.00
107, 13442.63, 38901.98, 652.60, 16551.22, -131.79, -393.50, 8901.58, -37693.54, -27149.79, 29171.55, 1271.05, 15449.88, 0.00, 0.00, 0.00, 0.00, 0.00, 0.00, 0.00
108, 13442.63, 38901.98, 652.60, 16551.22, -131.79, -393.50, 8901.58, -37693.54, -27132.51, 29228.39, 1265.60, 15342.66, 0.00, 0.00, 0.00, 0.00, 0.00, 0.00, 0.00
109, 13444.39, 38906.03, 656.76, 16563.76, -118.93, -382.06, 8921.43, -37672.34, -27132.51, 29228.39, 1265.60, 15342.66, 0.00, 0.00, 0.00, 0.00, -0.05, 0.28, 0.97
110, 13444.39, 38906.03, 656.76, 16563.76, -118.93, -382.06, 8921.43, -37672.34, -27157.21, 29116.61, 1270.27, 15700.51, 0.00, 0.00, 0.00, 0.00, 0.00, 0.00, 0.00
111, 13404.63, 38875.79, 650.39, 16556.21, -126.49, -379.04, 8919.22, -37673.08, -27157.21, 29116.61, 1270.27, 15700.51, 0.00, 0.00, 0.00, 0.00, 0.00, 0.00, 0.00
112, 13404.63, 38875.79, 650.39, 16556.21, -126.49, -379.04, 8919.22, -37673.08, -27152.94, 29113.62, 1256.68, 15596.17, 0.00, 0.00, 0.00, 0.00, 0.00, 0.00, 0.00
113, 13426.58, 38900.26, 655.53, 16565.82, -120.83, -376.76, 8921.54, -37676.61, -27152.94, 29113.62, 1256.68, 15596.17, 0.00, 0.00, 0.00, 0.00, 0.00, 0.00, 0.00
114, 13426.58, 38900.26, 655.53, 16565.82, -120.83, -376.76, 8921.54, -37676.61, -27151.89, 29159.37, 1266.09, 15493.60, 0.00, 0.00, 0.00, 0.00, 0.00, 0.00, 0.00
115, 13442.36, 38903.32, 660.25, 16562.42, -124.79, -382.97, 8911.15, -37679.45, -27151.89, 29159.37, 1266.09, 15493.60, 0.00, 0.00, 0.00, 0.00, 0.00, 0.00, 0.00
116, 13442.36, 38903.32, 660.25, 16562.42, -124.79, -382.97, 8911.15, -37679.45, -27144.74, 29161.13, 1260.06, 15417.34, 0.00, 0.00, 0.00, 0.00, 0.00, 0.00, 0.00
117, 13433.73, 38891.18, 654.24, 16568.39, -121.01, -379.22, 8919.80, -37678.09, -27144.74, 29161.13, 1260.06, 15417.34, 0.00, 0.00, 0.00, 0.00, 0.00, 0.00, 0.00
118, 13433.73, 38891.18, 654.24, 16568.39, -121.01, -379.22, 8919.80, -37678.09, -27152.16, 29165.49, 1266.47, 15468.86, 0.00, 0.00, 0.00, 0.00, 0.00, 0.00, 0.00
119, 13424.95, 38892.21, 655.58, 16563.09, -124.30, -380.34, 8915.35, -37674.18, -27152.16, 29165.49, 1266.47, 15468.86, 0.00, 0.00, 0.00, 0.00, -0.05, 0.28, 0.97
120, 13424.95, 38892.21, 655.58, 16563.09, -124.30, -380.34, 8915.35, -37674.18, -27143.26, 29137.51, 1262.14, 15450.96, 0.00, 0.00, 0.00, 0.00, 0.00, 0.00, 0.00
121, 13432.19, 38902.00, 657.36, 16566.91, -120.10, -378.53, 8921.25, -37671.45, -27143.26, 29137.51, 1262.14, 15450.96, 0.00, 0.00, 0.00, 0.00, 0.00, 0.00, 0.00
122, 13432.19, 38902.00, 657.36, 16566.91, -120.10, -378.53, 8921.25, -37671.45, -27158.42, 29172.29, 1262.54, 15415.35, 0.00, 0.00, 0.00, 0.00, 0.00, 0.00, 0.00
123, 13421.31, 38884.68, 652.00, 16560.81, -126.62, -381.25, 8913.96, -37670.38, -27158.42, 29172.29, 1262.54, 15415.35, 0.00, 0.00, 0.00, 0.00, 0.00, 0.00, 0.00
124, 13421.31, 38884.68, 652.00, 16560.81, -126.62, -381.25, 8913.96, -37670.38, -27148.36, 29132.35, 1254.31, 15438.44, 0.00, 0.00, 0.00, 0.00, 0.00, 0.00, 0.00
125, 13424.26, 38881.37, 653.12, 16567.94, -121.57, -377.10, 8921.30, -37664.23, -27148.36, 29132.35, 1254.31, 15438.44, 0.00, 0.00, 0.00, 0.00, 0.00, 0.00, 0.00
126, 13424.26, 38881.37, 653.12, 16567.94, -121.57, -377.10, 8921.30, -37664.23, -27151.31, 29177.70, 1253.93, 15396.42, 0.00, 0.00, 0.00, 0.00, 0.00, 0.00, 0.00
127, 13434.56, 38888.35, 653.32, 16567.45, -122.49, -378.55, 8918.44, -37658.44, -27151.31, 29177.70, 1253.93, 15396.42, 0.00, 0.00, 0.00, 0.00, 0.00, 0.00, 0.00
128, 13434.56, 38888.35, 653.32, 16567.45, -122.49, -378.55, 8918.44, -37658.44, -27143.29, 29142.36, 1242.80, 15397.00, 0.00, 0.00, 0.00, 0.00, 0.00, 0.00, 0.00
129, 13420.68, 38892.66, 652.07, 16566.64, -123.20, -379.40, 8916.29, -37655.25, -27143.29, 29142.36, 1242.80, 15397.00, 0.00, 0.00, 0.00, 0.00, -0.05, 0.28, 0.97
130, 13420.68, 38892.66, 652.07, 16566.64, -123.20, -379.40, 8916.29, -37655.25, -27148.34, 29175.22, 1252.48, 15408.96, 0.00, 0.00, 0.00, 0.00, 0.00, 0.00, 0.00
131, 13427.50, 38879.07, 652.67, 16572.14, -118.11, -374.37, 8922.50, -37642.04, -27148.34, 29175.22, 1252.48, 15408.96, 0.00, 0.00, 0.00, 0.00, 0.00, 0.00, 0.00
132, 13427.50, 38879.07, 652.67, 16572.14, -118.11, -374.37, 8922.50, -37642.04, -27145.21, 29149.56, 1241.59, 15403.19, 0.00, 0.00, 0.00, 0.00, 0.00, 0.00, 0.00
133, 13410.58, 38869.79, 645.23, 16566.75, -126.00, -378.82, 8914.95, -37640.52, -27145.21, 29149.56, 1241.59, 15403.19, 0.00, 0.00, 0.00, 0.00, 0.00, 0.00, 0.00
134, 13410.58, 38869.79, 645.23, 16566.75, -126.00, -378.82, 8914.95, -37640.52, -27144.56, 29175.51, 1237.21, 15400.87, 0.00, 0.00, 0.00, 0.00, 0.00, 0.00, 0.00
135, 13413.33, 38874.84, 645.99, 16574.78, -122.17, -370.82, 8917.67, -37627.15, -27144.56, 29175.51, 1237.21, 15400.87, 0.00, 0.00, 0.00, 0.00, 0.00, 0.00, 0.00
136, 13413.33, 38874.84, 645.99, 16574.78, -122.17, -370.82, 8917.67, -37627.15, -27152.85, 29150.18, 1220.72, 15387.70, 0.00, 0.00, 0.00, 0.00, 0.00, 0.00, 0.00
137, 13412.25, 38866.04, 635.97, 16568.28, -129.19, -376.14, 8912.76, -37618.92, -27152.85, 29150.18, 1220.72, 15387.70, 0.00, 0.00, 0.00, 0.00, 0.00, 0.00, 0.00
138, 13412.25, 38866.04, 635.97, 16568.28, -129.19, -376.14, 8912.76, -37618.92, -27147.76, 29173.92, 1222.93, 15426.46, 0.00, 0.00, 0.00, 0.00, -0.05, 0.28, 0.97
139, 13418.38, 38884.79, 646.64, 16583.18, -110.71, -362.66, 8930.48, -37597.53, -27147.76, 29173.92, 1222.93, 15426.46, 0.00, 0.00, 0.00, 0.00, 0.00, 0.00, 0.00
140, 13418.38, 38884.79, 646.64, 16583.18, -110.71, -362.66, 8930.48, -37597.53, -27137.56, 29166.01, 1221.50, 15392.13, 0.00, 0.00, 0.00, 0.00, 0.00, 0.00, 0.00
141, 13399.92, 38861.21, 634.81, 16575.72, -120.88, -371.82, 8915.64, -37594.54, -27137.56, 29166.01, 1221.50, 15392.13, 0.00, 0.00, 0.00, 0.00, 0.00, 0.00, 0.00
142, 13399.92, 38861.21, 634.81, 16575.72, -120.88, -371.82, 8915.64, -37594.54, -27144.29, 29166.59, 1217.75, 15461.08, 0.00, 0.00, 0.00, 0.00, 0.00, 0.00, 0.00
143, 13418.22, 38880.79, 648.96, 16595.86, -99.06, -347.08, 8944.99, -37557.90, -27144.29, 29166.59, 1217.75, 15461.08, 0.00, 0.00, 0.00, 0.00, 0.00, 0.00, 0.00
144, 13418.22, 38880.79, 648.96, 16595.86, -99.06, -347.08, 8944.99, -37557.90, -27134.99, 29172.96, 1220.96, 15460.30, 0.00, 0.00, 0.00, 0.00, 0.00, 0.00, 0.00
145, 13386.33, 38855.80, 629.36, 16580.66, -116.18, -351.35, 8918.08, -37565.64, -27134.99, 29172.96, 1220.96, 15460.30, 0.00, 0.00, 0.00, 0.00, 0.00, 0.00, 0.00
146, 13386.33, 38855.80, 629.36, 16580.66, -116.18, -351.35, 8918.08, -37565.64, -27137.90, 29177.94, 1203.48, 15450.51, 0.00, 0.00, 0.00, 0.00, 0.00, 0.00, 0.00
147, 13404.83, 38874.55, 638.10, 16601.67, -95.40, -342.00, 8943.89, -37537.56, -27137.90, 29177.94, 1203.48, 15450.51, 0.00, 0.00, 0.00, 0.00, 0.00, 0.00, 0.00
148, 13404.83, 38874.55, 638.10, 16601.67, -95.40, -342.00, 8943.89, -37537.56, -27136.45, 29178.14, 1196.38, 15449.01, 0.00, 0.00, 0.00, 0.00, -0.05, 0.27, 0.97
149, 13387.78, 38852.32, 623.48, 16592.41, -105.52, -355.44, 8939.07, -37524.67, -27136.45, 29178.14, 1196.38, 15449.01, 0.00, 0.00, 0.00, 0.00, 0.00, 0.00, 0.00
150, 13387.78, 38852.32, 623.48, 16592.41, -105.52, -355.44, 8939.07, -37524.67, -27140.40, 29171.46, 1180.69, 15470.67, 0.00, 0.00, 0.00, 0.00, 0.00, 0.00, 0.00
151, 13398.33, 38870.89, 632.11, 16621.65, -83.89, -329.69, 8960.32, -37512.33, -27140.40, 29171.46, 1180.69, 15470.67, 0.00, 0.00, 0.00, 0.00, 0.00, 0.00, 0.00
152, 13398.33, 38870.89, 632.11, 16621.65, -83.89, -329.69, 8960.32, -37512.33, -27133.72, 29184.20, 1187.75, 15483.05, 0.00, 0.00, 0.00, 0.00, 0.00, 0.00, 0.00
153, 13388.81, 38850.77, 622.97, 16609.11, -96.85, -337.20, 8938.04, -37518.45, -27133.72, 29184.20, 1187.75, 15483.05, 0.00, 0.00, 0.00, 0.00, 0.00, 0.00, 0.00
154, 13388.81, 38850.77, 622.97, 16609.11, -96.85, -337.20, 8938.04, -37518.45, -27133.05, 29169.03, 1187.46, 15501.07, 0.00, 0.00, 0.00, 0.00, 0.00, 0.00, 0.00
155, 13405.91, 38863.63, 635.75, 16642.08, -82.43, -316.34, 8940.83, -37529.63, -27133.05, 29169.03, 1187.46, 15501.07, 0.00, 0.00, 0.00, 0.00, 0.00, 0.00, 0.00
156, 13405.91, 38863.63, 635.75, 16642.08, -82.43, -316.34, 8940.83, -37529.63, -27147.76, 29176.02, 1162.16, 15493.56, 0.00, 0.00, 0.00, 0.00, 0.00, 0.00, 0.00
157, 13369.96, 38836.13, 599.54, 16611.35, -113.17, -349.78, 8911.60, -37528.15, -27147.76, 29176.02, 1162.16, 15493.56, 0.00, 0.00, 0.00, 0.00, 0.00, 0.00, 0.00
158, 13369.96, 38836.13, 599.54, 16611.35, -113.17, -349.78, 8911.60, -37528.15, -27146.24, 29151.03, 1144.59, 15454.08, 0.00, 0.00, 0.00, 0.00, -0.04, 0.28, 0.97
159, 13386.33, 38845.81, 611.68, 16635.64, -90.41, -309.64, 8940.61, -37527.15, -27146.24, 29151.03, 1144.59, 15454.08, 0.00, 0.00, 0.00, 0.00, 0.00, 0.00, 0.00
160, 13386.33, 38845.81, 611.68, 16635.64, -90.41, -309.64, 8940.61, -37527.15, -27149.17, 29170.75, 1150.04, 15478.56, 0.00, 0.00, 0.00, 0.00, 0.00, 0.00, 0.00
161, 13368.98, 38829.38, 598.74, 16613.31, -113.01, -338.45, 8885.58, -37571.05, -27149.17, 29170.75, 1150.04, 15478.56, 0.00, 0.00, 0.00, 0.00, 0.00, 0.00, 0.00
162, 13368.98, 38829.38, 598.74, 16613.31, -113.01, -338.45, 8885.58, -37571.05, -27138.04, 29157.65, 1126.33, 15453.39, 0.00, 0.00, 0.00, 0.00, 0.00, 0.00, 0.00
163, 13373.63, 38836.63, 598.11, 16620.04, -104.92, -346.21, 8904.06, -37555.71, -27138.04, 29157.65, 1126.33, 15453.39, 0.00, 0.00, 0.00, 0.00, 0.00, 0.00, 0.00
164, 13373.63, 38836.63, 598.11, 16620.04, -104.92, -346.21, 8904.06, -37555.71, -27149.30, 29156.55, 1132.92, 15453.57, 0.00, 0.00, 0.00, 0.00, 0.00, 0.00, 0.00
165, 13358.63, 38818.65, 583.69, 16599.63, -130.65, -386.37, 8889.56, -37579.85, -27149.30, 29156.55, 1132.92, 15453.57, 0.00, 0.00, 0.00, 0.00, 0.00, 0.00, 0.00
166, 13358.63, 38818.65, 583.69, 16599.63, -130.65, -386.37, 8889.56, -37579.85, -27159.00, 29123.90, 1108.31, 15468.32, 0.00, 0.00, 0.00, 0.00, 0.00, 0.00, 0.00
167, 13350.65, 38814.45, 575.78, 16622.28, -136.48, -315.56, 8847.78, -37628.24, -27159.00, 29123.90, 1108.31, 15468.32, 0.00, 0.00, 0.00, 0.00, 0.00, 0.00, 0.00
168, 13350.65, 38814.45, 575.78, 16622.28, -136.48, -315.56, 8847.78, -37628.24, -27147.85, 29161.29, 1119.40, 15445.84, 0.00, 0.00, 0.00, 0.00, -0.04, 0.27, 0.96
169, 13359.26, 38820.80, 581.03, 16597.89, -128.81, -404.86, 8879.63, -37618.61, -27147.85, 29161.29, 1119.40, 15445.84, 0.00, 0.00, 0.00, 0.00, 0.00, 0.00, 0.00
170, 13359.26, 38820.80, 581.03, 16597.89, -128.81, -404.86, 8879.63, -37618.61, -27159.78, 29118.76, 1110.95, 15454.80, 0.00, 0.00, 0.00, 0.00, 0.00, 0.00, 0.00
171, 13361.76, 38825.61, 582.75, 16612.89, -128.84, -371.42, 8892.69, -37622.45, -27159.78, 29118.76, 1110.95, 15454.80, 0.00, 0.00, 0.00, 0.00, 0.00, 0.00, 0.00
172, 13361.76, 38825.61, 582.75, 16612.89, -128.84, -371.42, 8892.69, -37622.45, -27168.50, 29122.13, 1119.35, 15420.94, 0.00, 0.00, 0.00, 0.00, 0.00, 0.00, 0.00
173, 13361.89, 38826.54, 584.05, 16614.19, -122.00, -370.59, 8888.75, -37627.77, -27168.50, 29122.13, 1119.35, 15420.94, 0.00, 0.00, 0.00, 0.00, 0.00, 0.00, 0.00
174, 13361.89, 38826.54, 584.05, 16614.19, -122.00, -370.59, 8888.75, -37627.77, -27160.79, 29088.98, 1110.35, 15398.67, 0.00, 0.00, 0.00, 0.00, 0.00, 0.00, 0.00
175, 13360.29, 38826.01, 581.86, 16619.28, -120.61, -373.50, 8887.70, -37647.31, -27160.79, 29088.98, 1110.35, 15398.67, 0.00, 0.00, 0.00, 0.00, 0.00, 0.00, 0.00
176, 13360.29, 38826.01, 581.86, 16619.28, -120.61, -373.50, 8887.70, -37647.31, -27161.24, 29124.66, 1111.80, 15449.48, 0.00, 0.00, 0.00, 0.00, 0.00, 0.00, 0.00
177, 13362.50, 38825.22, 581.91, 16623.55, -115.74, -366.41, 8888.30, -37646.84, -27161.24, 29124.66, 1111.80, 15449.48, 0.00, 0.00, 0.00, 0.00, 0.00, 0.00, 0.00
178, 13362.50, 38825.22, 581.91, 16623.55, -115.74, -366.41, 8888.30, -37646.84, -27148.12, 29108.99, 1095.66, 15444.23, 0.00, 0.00, 0.00, 0.00, -0.05, 0.27, 0.97
179, 13353.18, 38814.43, 572.99, 16621.92, -120.74, -357.00, 8878.31, -37652.00, -27148.12, 29108.99, 1095.66, 15444.23, 0.00, 0.00, 0.00, 0.00, 0.00, 0.00, 0.00
180, 13353.18, 38814.43, 572.99, 16621.92, -120.74, -357.00, 8878.31, -37652.00, -27155.42, 29127.72, 1093.00, 15428.67, 0.00, 0.00, 0.00, 0.00, 0.00, 0.00, 0.00
181, 13348.46, 38813.54, 573.28, 16635.78, -113.01, -354.81, 8884.86, -37663.09, -27155.42, 29127.72, 1093.00, 15428.67, 0.00, 0.00, 0.00, 0.00, 0.00, 0.00, 0.00
182, 13348.46, 38813.54, 573.28, 16635.78, -113.01, -354.81, 8884.86, -37663.09, -27156.74, 29084.76, 1073.80, 15436.05, 0.00, 0.00, 0.00, 0.00, 0.00, 0.00, 0.00
183, 13346.96, 38810.14, 566.10, 16623.13, -122.38, -364.29, 8876.30, -37674.33, -27156.74, 29084.76, 1073.80, 15436.05, 0.00, 0.00, 0.00, 0.00, 0.00, 0.00, 0.00
184, 13346.96, 38810.14, 566.10, 16623.13, -122.38, -364.29, 8876.30, -37674.33, -27151.71, 29116.41, 1075.83, 15426.48, 0.00, 0.00, 0.00, 0.00, 0.00, 0.00, 0.00
185, 13350.14, 38822.68, 569.61, 16636.85, -111.94, -356.96, 8884.97, -37674.98, -27151.71, 29116.41, 1075.83, 15426.48, 0.00, 0.00, 0.00, 0.00, 0.00, 0.00, 0.00
186, 13350.14, 38822.68, 569.61, 16636.85, -111.94, -356.96, 8884.97, -37674.98, -27158.29, 29094.30, 1066.11, 15405.63, 0.00, 0.00, 0.00, 0.00, 0.00, 0.00, 0.00
187, 13342.36, 38799.57, 562.86, 16628.00, -116.25, -358.14, 8877.96, -37686.25, -27158.29, 29094.30, 1066.11, 15405.63, 0.00, 0.00, 0.00, 0.00, -0.05, 0.27, 0.97
188, 13342.36, 38799.57, 562.86, 16628.00, -116.25, -358.14, 8877.96, -37686.25, -27161.19, 29097.66, 1067.59, 15436.40, 0.00, 0.00, 0.00, 0.00, 0.00, 0.00, 0.00
189, 13350.74, 38807.25, 567.38, 16644.16, -106.08, -354.61, 8888.68, -37694.67, -27161.19, 29097.66, 1067.59, 15436.40, 0.00, 0.00, 0.00, 0.00, 0.00, 0.00, 0.00
190, 13350.74, 38807.25, 567.38, 16644.16, -106.08, -354.61, 8888.68, -37694.67, -27143.76, 29098.10, 1071.27, 15401.71, 0.00, 0.00, 0.00, 0.00, 0.00, 0.00, 0.00
191, 13344.50, 38805.27, 562.01, 16629.72, -112.70, -366.01, 8876.93, -37701.63, -27143.76, 29098.10, 1071.27, 15401.71, 0.00, 0.00, 0.00, 0.00, 0.00, 0.00, 0.00
192, 13344.50, 38805.27, 562.01, 16629.72, -112.70, -366.01, 8876.93, -37701.63, -27159.16, 29089.97, 1060.57, 15417.74, 0.00, 0.00, 0.00, 0.00, 0.00, 0.00, 0.00
193, 13349.42, 38810.94, 571.65, 16651.18, -97.23, -351.62, 8896.11, -37703.19, -27159.16, 29089.97, 1060.57, 15417.74, 0.00, 0.00, 0.00, 0.00, 0.00, 0.00, 0.00
194, 13349.42, 38810.94, 571.65, 16651.18, -97.23, -351.62, 8896.11, -37703.19, -27147.27, 29087.91, 1069.02, 15414.66, 0.00, 0.00, 0.00, 0.00, 0.00, 0.00, 0.00
195, 13338.76, 38803.48, 563.02, 16634.68, -108.38, -368.85, 8878.38, -37715.17, -27147.27, 29087.91, 1069.02, 15414.66, 0.00, 0.00, 0.00, 0.00, 0.00, 0.00, 0.00
196, 13338.76, 38803.48, 563.02, 16634.68, -108.38, -368.85, 8878.38, -37715.17, -27141.39, 29101.10, 1062.15, 15426.30, 0.00, 0.00, 0.00, 0.00, 0.00, 0.00, 0.00
197, 13354.97, 38818.14, 573.46, 16651.96, -88.51, -354.36, 8902.43, -37703.55, -27141.39, 29101.10, 1062.15, 15426.30, 0.00, 0.00, 0.00, 0.00, -0.04, 0.27, 0.97
198, 13354.97, 38818.14, 573.46, 16651.96, -88.51, -354.36, 8902.43, -37703.55, -27155.13, 29088.98, 1067.01, 15420.74, 0.00, 0.00, 0.00, 0.00, 0.00, 0.00, 0.00
199, 13340.19, 38798.94, 559.93, 16628.87, -112.74, -380.78, 8874.49, -37724.13, -27155.13, 29088.98, 1067.01, 15420.74, 0.00, 0.00, 0.00, 0.00, 0.00, 0.00, 0.00
200, 13340.19, 38798.94, 559.93, 16628.87, -112.74, -380.78, 8874.49, -37724.13, -27146.77, 29094.50, 1053.04, 15414.39, 0.00, 0.00, 0.00, 0.00, 0.00, 0.00, 0.00
201, 13347.52, 38808.77, 562.71, 16644.79, -98.15, -367.40, 8891.84, -37713.43, -27146.77, 29094.50, 1053.04, 15414.39, 0.00, 0.00, 0.00, 0.00, 0.00, 0.00, 0.00
202, 13347.52, 38808.77, 562.71, 16644.79, -98.15, -367.40, 8891.84, -37713.43, -27142.88, 29106.87, 1059.25, 15414.39, 0.00, 0.00, 0.00, 0.00, 0.00, 0.00, 0.00
203, 13339.30, 38792.28, 551.95, 16626.39, -112.38, -383.47, 8874.92, -37732.14, -27142.88, 29106.87, 1059.25, 15414.39, 0.00, 0.00, 0.00, 0.00, 0.00, 0.00, 0.00
204, 13339.30, 38792.28, 551.95, 16626.39, -112.38, -383.47, 8874.92, -37732.14, -27153.19, 29077.34, 1045.39, 15413.72, 0.00, 0.00, 0.00, 0.00, 0.00, 0.00, 0.00
205, 13335.47, 38799.90, 553.14, 16632.78, -105.92, -386.86, 8882.07, -37746.84, -27153.19, 29077.34, 1045.39, 15413.72, 0.00, 0.00, 0.00, 0.00, 0.00, 0.00, 0.00
206, 13335.47, 38799.90, 553.14, 16632.78, -105.92, -386.86, 8882.07, -37746.84, -27160.88, 29086.77, 1048.59, 15404.93, 0.00, 0.00, 0.00, 0.00, 0.00, 0.00, 0.00
207, 13333.69, 38800.82, 551.98, 16621.88, -112.36, -395.83, 8867.52, -37761.82, -27160.88, 29086.77, 1048.59, 15404.93, 0.00, 0.00, 0.00, 0.00, -0.04, 0.27, 0.97
208, 13333.69, 38800.82, 551.98, 16621.88, -112.36, -395.83, 8867.52, -37761.82, -27152.50, 29073.92, 1049.10, 15383.54, 0.00, 0.00, 0.00, 0.00, 0.00, 0.00, 0.00
209, 13337.93, 38803.97, 556.87, 16637.77, -103.18, -387.18, 8882.14, -37768.75, -27152.50, 29073.92, 1049.10, 15383.54, 0.00, 0.00, 0.00, 0.00, 0.00, 0.00, 0.00
210, 13337.93, 38803.97, 556.87, 16637.77, -103.18, -387.18, 8882.14, -37768.75, -27162.60, 29090.84, 1051.16, 15403.73, 0.00, 0.00, 0.00, 0.00, 0.00, 0.00, 0.00
211, 13327.54, 38787.07, 548.94, 16623.37, -112.14, -392.70, 8869.73, -37775.96, -27162.60, 29090.84, 1051.16, 15403.73, 0.00, 0.00, 0.00, 0.00, 0.00, 0.00, 0.00
212, 13327.54, 38787.07, 548.94, 16623.37, -112.14, -392.70, 8869.73, -37775.96, -27149.99, 29074.72, 1042.69, 15410.05, 0.00, 0.00, 0.00, 0.00, 0.00, 0.00, 0.00
213, 13331.74, 38801.78, 555.08, 16638.08, -99.91, -384.09, 8882.76, -37765.08, -27149.99, 29074.72, 1042.69, 15410.05, 0.00, 0.00, 0.00, 0.00, 0.00, 0.00, 0.00
214, 13331.74, 38801.78, 555.08, 16638.08, -99.91, -384.09, 8882.76, -37765.08, -27155.42, 29097.30, 1055.38, 15397.29, 0.00, 0.00, 0.00, 0.00, 0.00, 0.00, 0.00
215, 13332.30, 38793.42, 552.60, 16628.22, -108.23, -393.79, 8870.87, -37777.64, -27155.42, 29097.30, 1055.38, 15397.29, 0.00, 0.00, 0.00, 0.00, 0.00, 0.00, 0.00
216, 13332.30, 38793.42, 552.60, 16628.22, -108.23, -393.79, 8870.87, -37777.64, -27160.54, 29064.51, 1036.34, 15397.47, 0.00, 0.00, 0.00, 0.00, 0.00, 0.00, 0.00
217, 13324.75, 38794.43, 551.13, 16634.23, -108.05, -387.20, 8873.04, -37785.18, -27160.54, 29064.51, 1036.34, 15397.47, 0.00, 0.00, 0.00, 0.00, -0.05, 0.27, 0.97
218, 13324.75, 38794.43, 551.13, 16634.23, -108.05, -387.20, 8873.04, -37785.18, -27159.56, 29088.09, 1051.69, 15386.31, 0.00, 0.00, 0.00, 0.00, 0.00, 0.00, 0.00
219, 13326.02, 38794.16, 552.74, 16629.99, -104.49, -386.77, 8873.26, -37777.89, -27159.56, 29088.09, 1051.69, 15386.31, 0.00, 0.00, 0.00, 0.00, 0.00, 0.00, 0.00
220, 13326.02, 38794.16, 552.74, 16629.99, -104.49, -386.77, 8873.26, -37777.89, -27151.09, 29071.42, 1046.20, 15389.11, 0.00, 0.00, 0.00, 0.00, 0.00, 0.00, 0.00
221, 13335.79, 38802.43, 562.28, 16642.06, -94.23, -378.08, 8891.17, -37765.30, -27151.09, 29071.42, 1046.20, 15389.11, 0.00, 0.00, 0.00, 0.00, 0.00, 0.00, 0.00
222, 13335.79, 38802.43, 562.28, 16642.06, -94.23, -378.08, 8891.17, -37765.30, -27154.37, 29095.51, 1054.40, 15403.50, 0.00, 0.00, 0.00, 0.00, 0.00, 0.00, 0.00
223, 13337.62, 38798.58, 562.12, 16645.54, -91.13, -374.48, 8888.75, -37765.55, -27154.37, 29095.51, 1054.40, 15403.50, 0.00, 0.00, 0.00, 0.00, 0.00, 0.00, 0.00
224, 13337.62, 38798.58, 562.12, 16645.54, -91.13, -374.48, 8888.75, -37765.55, -27140.63, 29081.52, 1053.50, 15394.56, 0.00, 0.00, 0.00, 0.00, 0.00, 0.00, 0.00
225, 13347.66, 38809.33, 567.11, 16646.60, -84.98, -370.46, 8901.51, -37755.65, -27140.63, 29081.52, 1053.50, 15394.56, 0.00, 0.00, 0.00, 0.00, 0.00, 0.00, 0.00
226, 13347.66, 38809.33, 567.11, 16646.60, -84.98, -370.46, 8901.51, -37755.65, -27156.90, 29092.02, 1055.65, 15386.22, 0.00, 0.00, 0.00, 0.00, -0.05, 0.27, 0.97
227, 13341.64, 38805.38, 562.19, 16644.29, -89.99, -376.47, 8894.32, -37764.21, -27156.90, 29092.02, 1055.65, 15386.22, 0.00, 0.00, 0.00, 0.00, 0.00, 0.00, 0.00
228, 13341.64, 38805.38, 562.19, 16644.29, -89.99, -376.47, 8894.32, -37764.21, -27157.05, 29059.01, 1049.35, 15364.86, 0.00, 0.00, 0.00, 0.00, 0.00, 0.00, 0.00
