%OpenBCI Raw EEG Data
%
%Sample Rate = 250.0 Hz
%First Column = SampleIndex
%Other Columns = EEG data in microvolts followed by Accel Data (in G) interleaved with Aux Data
0, 0.00, 0.00, 0.00, 0.00, 0.00, 0.00, 0.00, 0.00, -23964.31, 30126.33, -837.14, 9079.95, 0.00, 0.00, 0.00, 0.00, 0.02, 0.31, 0.97
1, 16162.14, 37740.25, -1739.84, 14358.09, 3566.35, 3020.57, 9777.66, -39777.68, -23964.31, 30126.33, -837.14, 9079.95, 0.00, 0.00, 0.00, 0.00, 0.00, 0.00, 0.00
2, 16162.14, 37740.25, -1739.84, 14358.09, 3566.35, 3020.57, 9777.66, -39777.68, -25274.35, 29258.61, -1103.68, 10019.73, 0.00, 0.00, 0.00, 0.00, 0.00, 0.00, 0.00
3, 16169.77, 37769.64, -1730.83, 14371.81, 3580.88, 3032.13, 9795.45, -39761.83, -25274.35, 29258.61, -1103.68, 10019.73, 0.00, 0.00, 0.00, 0.00, 0.00, 0.00, 0.00
4, 16169.77, 37769.64, -1730.83, 14371.81, 3580.88, 3032.13, 9795.45, -39761.83, -25265.94, 29262.77, -1096.42, 10020.42, 0.00, 0.00, 0.00, 0.00, 0.00, 0.00, 0.00
5, 16162.66, 37725.18, -1743.97, 14355.47, 3564.50, 3020.79, 9778.75, -39775.15, -25265.94, 29262.77, -1096.42, 10020.42, 0.00, 0.00, 0.00, 0.00, 0.00, 0.00, 0.00
6, 16162.66, 37725.18, -1743.97, 14355.47, 3564.50, 3020.79, 9778.75, -39775.15, -25276.34, 29257.49, -1106.01, 10021.47, 0.00, 0.00, 0.00, 0.00, 0.00, 0.32, 0.96
7, 16167.20, 37756.12, -1733.31, 14372.24, 3577.08, 3029.94, 9793.35, -39761.94, -25276.34, 29257.49, -1106.01, 10021.47, 0.00, 0.00, 0.00, 0.00, 0.00, 0.00, 0.00
8, 16167.20, 37756.12, -1733.31, 14372.24, 3577.08, 3029.94, 9793.35, -39761.94, -25277.18, 29251.30, -1097.49, 10014.61, 0.00, 0.00, 0.00, 0.00, 0.00, 0.00, 0.00
9, 16157.92, 37733.12, -1743.82, 14354.87, 3559.69, 3017.95, 9772.85, -39781.30, -25277.18, 29251.30, -1097.49, 10014.61, 0.00, 0.00, 0.00, 0.00, 0.00, 0.00, 0.00
10, 16157.92, 37733.12, -1743.82, 14354.87, 3559.69, 3017.95, 9772.85, -39781.30, -25274.77, 29249.13, -1106.79, 10014.63, 0.00, 0.00, 0.00, 0.00, 0.00, 0.00, 0.00
11, 16169.99, 37749.57, -1732.80, 14373.45, 3576.21, 3032.53, 9792.34, -39762.93, -25274.77, 29249.13, -1106.79, 10014.63, 0.00, 0.00, 0.00, 0.00, 0.00, 0.00, 0.00
12, 16169.99, 37749.57, -1732.80, 14373.45, 3576.21, 3032.53, 9792.34, -39762.93, -25270.81, 29267.04, -1096.44, 10025.29, 0.00, 0.00, 0.00, 0.00, 0.00, 0.00, 0.00
13, 16166.64, 37742.64, -1738.61, 14358.49, 3566.00, 3022.49, 9779.27, -39771.84, -25270.81, 29267.04, -1096.44, 10025.29, 0.00, 0.00, 0.00, 0.00, 0.00, 0.00, 0.00
14, 16166.64, 37742.64, -1738.61, 14358.49, 3566.00, 3022.49, 9779.27, -39771.84, -25269.05, 29256.78, -1103.48, 10023.71, 0.00, 0.00, 0.00, 0.00, 0.00, 0.00, 0.00
15, 16158.41, 37739.45, -1739.64, 14368.97, 3571.79, 3028.55, 9790.87, -39763.95, -25269.05, 29256.78, -1103.48, 10023.71, 0.00, 0.00, 0.00, 0.00, 0.00, 0.00, 0.00
16, 16158.41, 37739.45, -1739.64, 14368.97, 3571.79, 3028.55, 9790.87, -39763.95, -25281.59, 29263.10, -1102.10, 10022.63, 0.00, 0.00, 0.00, 0.00, 0.01, 0.32, 0.96
17, 16155.13, 37728.69, -1744.35, 14356.23, 3561.77, 3019.77, 9774.82, -39779.69, -25281.59, 29263.10, -1102.10, 10022.63, 0.00, 0.00, 0.00, 0.00, 0.00, 0.00, 0.00
18, 16155.13, 37728.69, -1744.35, 14356.23, 3561.77, 3019.77, 9774.82, -39779.69, -25280.76, 29240.19, -1109.09, 10007.79, 0.00, 0.00, 0.00, 0.00, 0.00, 0.00, 0.00
19, 16158.10, 37741.12, -1740.62, 14364.08, 3570.02, 3022.60, 9787.49, -39767.89, -25280.76, 29240.19, -1109.09, 10007.79, 0.00, 0.00, 0.00, 0.00, 0.00, 0.00, 0.00
20, 16158.10, 37741.12, -1740.62, 14364.08, 3570.02, 3022.60, 9787.49, -39767.89, -25279.35, 29263.06, -1094.03, 10018.79, 0.00, 0.00, 0.00, 0.00, 0.00, 0.00, 0.00
21, 16165.65, 37737.63, -1740.28, 14361.15, 3567.25, 3023.43, 9779.51, -39774.57, -25279.35, 29263.06, -1094.03, 10018.79, 0.00, 0.00, 0.00, 0.00, 0.00, 0.00, 0.00
22, 16165.65, 37737.63, -1740.28, 14361.15, 3567.25, 3023.43, 9779.51, -39774.57, -25276.67, 29246.47, -1103.04, 10018.41, 0.00, 0.00, 0.00, 0.00, 0.00, 0.00, 0.00
23, 16165.25, 37750.75, -1735.46, 14370.85, 3572.68, 3028.53, 9790.26, -39766.66, -25276.67, 29246.47, -1103.04, 10018.41, 0.00, 0.00, 0.00, 0.00, 0.00, 0.00, 0.00
24, 16165.25, 37750.75, -1735.46, 14370.85, 3572.68, 3028.53, 9790.26, -39766.66, -25281.65, 29263.33, -1092.35, 10024.56, 0.00, 0.00, 0.00, 0.00, 0.00, 0.00, 0.00
25, 16165.43, 37748.83, -1736.42, 14362.34, 3567.67, 3023.61, 9782.08, -39773.03, -25281.65, 29263.33, -1092.35, 10024.56, 0.00, 0.00, 0.00, 0.00, 0.00, 0.00, 0.00
26, 16165.43, 37748.83, -1736.42, 14362.34, 3567.67, 3023.61, 9782.08, -39773.03, -25272.80, 29249.83, -1101.20, 10016.53, 0.00, 0.00, 0.00, 0.00, 0.01, 0.33, 0.96
27, 16165.16, 37756.01, -1735.32, 14369.56, 3572.84, 3029.29, 9790.49, -39768.13, -25272.80, 29249.83, -1101.20, 10016.53, 0.00, 0.00, 0.00, 0.00, 0.00, 0.00, 0.00
28, 16165.16, 37756.01, -1735.32, 14369.56, 3572.84, 3029.29, 9790.49, -39768.13, -25277.36, 29266.99, -1087.57, 10027.64, 0.00, 0.00, 0.00, 0.00, 0.00, 0.00, 0.00
29, 16168.47, 37749.66, -1735.30, 14366.74, 3569.95, 3027.48, 9787.36, -39770.41, -25277.36, 29266.99, -1087.57, 10027.64, 0.00, 0.00, 0.00, 0.00, 0.00, 0.00, 0.00
30, 16168.47, 37749.66, -1735.30, 14366.74, 3569.95, 3027.48, 9787.36, -39770.41, -25268.22, 29247.68, -1095.95, 10016.20, 0.00, 0.00, 0.00, 0.00, 0.00, 0.00, 0.00
31, 16172.60, 37758.18, -1728.75, 14371.41, 3577.35, 3028.28, 9791.02, -39768.25, -25268.22, 29247.68, -1095.95, 10016.20, 0.00, 0.00, 0.00, 0.00, 0.00, 0.00, 0.00
32, 16172.60, 37758.18, -1728.75, 14371.41, 3577.35, 3028.28, 9791.02, -39768.25, -25272.04, 29266.93, -1078.16, 10025.74, 0.00, 0.00, 0.00, 0.00, 0.00, 0.00, 0.00
33, 16179.78, 37761.71, -1727.23, 14371.63, 3575.94, 3030.25, 9790.31, -39770.84, -25272.04, 29266.93, -1078.16, 10025.74, 0.00, 0.00, 0.00, 0.00, 0.00, 0.00, 0.00
34, 16179.78, 37761.71, -1727.23, 14371.63, 3575.94, 3030.25, 9790.31, -39770.84, -25267.84, 29241.91, -1092.80, 10011.82, 0.00, 0.00, 0.00, 0.00, 0.00, 0.00, 0.00
35, 16160.15, 37746.62, -1736.69, 14364.30, 3565.17, 3025.38, 9785.48, -39776.02, -25267.84, 29241.91, -1092.80, 10011.82, 0.00, 0.00, 0.00, 0.00, 0.00, 0.00, 0.00
36, 16160.15, 37746.62, -1736.69, 14364.30, 3565.17, 3025.38, 9785.48, -39776.02, -25277.88, 29269.79, -1093.22, 10028.49, 0.00, 0.00, 0.00, 0.00, 0.01, 0.33, 0.96
37, 16178.33, 37769.26, -1724.24, 14373.49, 3576.97, 3033.58, 9796.14, -39764.71, -25277.88, 29269.79, -1093.22, 10028.49, 0.00, 0.00, 0.00, 0.00, 0.00, 0.00, 0.00
38, 16178.33, 37769.26, -1724.24, 14373.49, 3576.97, 3033.58, 9796.14, -39764.71, -25265.74, 29253.04, -1085.78, 10015.70, 0.00, 0.00, 0.00, 0.00, 0.00, 0.00, 0.00
39, 16165.54, 37746.75, -1731.97, 14364.44, 3566.91, 3023.43, 9784.16, -39777.92, -25265.74, 29253.04, -1085.78, 10015.70, 0.00, 0.00, 0.00, 0.00, 0.00, 0.00, 0.00
40, 16165.54, 37746.75, -1731.97, 14364.44, 3566.91, 3023.43, 9784.16, -39777.92, -25277.90, 29262.68, -1084.77, 10023.80, 0.00, 0.00, 0.00, 0.00, 0.00, 0.00, 0.00
41, 16180.63, 37761.17, -1722.43, 14376.46, 3579.10, 3033.56, 9795.54, -39765.52, -25277.90, 29262.68, -1084.77, 10023.80, 0.00, 0.00, 0.00, 0.00, 0.00, 0.00, 0.00
42, 16180.63, 37761.17, -1722.43, 14376.46, 3579.10, 3033.56, 9795.54, -39765.52, -25265.27, 29254.61, -1085.89, 10016.87, 0.00, 0.00, 0.00, 0.00, 0.00, 0.00, 0.00
43, 16168.42, 37753.19, -1733.78, 14365.80, 3566.20, 3026.22, 9784.32, -39775.96, -25265.27, 29254.61, -1085.89, 10016.87, 0.00, 0.00, 0.00, 0.00, 0.00, 0.00, 0.00
44, 16168.42, 37753.19, -1733.78, 14365.80, 3566.20, 3026.22, 9784.32, -39775.96, -25272.51, 29263.75, -1093.16, 10025.81, 0.00, 0.00, 0.00, 0.00, 0.00, 0.00, 0.00
45, 16186.69, 37762.89, -1728.89, 14376.60, 3573.71, 3035.05, 9794.89, -39767.13, -25272.51, 29263.75, -1093.16, 10025.81, 0.00, 0.00, 0.00, 0.00, 0.01, 0.32, 0.97
46, 16186.69, 37762.89, -1728.89, 14376.60, 3573.71, 3035.05, 9794.89, -39767.13, -25269.83, 29250.32, -1093.16, 10016.29, 0.00, 0.00, 0.00, 0.00, 0.00, 0.00, 0.00
47, 16165.52, 37757.26, -1735.84, 14363.03, 3560.88, 3022.94, 9779.04, -39781.93, -25269.83, 29250.32, -1093.16, 10016.29, 0.00, 0.00, 0.00, 0.00, 0.00, 0.00, 0.00
48, 16165.52, 37757.26, -1735.84, 14363.03, 3560.88, 3022.94, 9779.04, -39781.93, -25275.42, 29260.15, -1097.27, 10021.09, 0.00, 0.00, 0.00, 0.00, 0.00, 0.00, 0.00
49, 16163.73, 37759.07, -1734.36, 14377.94, 3569.06, 3032.44, 9791.79, -39771.80, -25275.42, 29260.15, -1097.27, 10021.09, 0.00, 0.00, 0.00, 0.00, 0.00, 0.00, 0.00
50, 16163.73, 37759.07, -1734.36, 14377.94, 3569.06, 3032.44, 9791.79, -39771.80, -25271.39, 29250.77, -1099.21, 10015.15, 0.00, 0.00, 0.00, 0.00, 0.00, 0.00, 0.00
51, 16152.31, 37734.26, -1741.36, 14360.30, 3559.96, 3020.30, 9779.11, -39781.21, -25271.39, 29250.77, -1099.21, 10015.15, 0.00, 0.00, 0.00, 0.00, 0.00, 0.00, 0.00
52, 16152.31, 37734.26, -1741.36, 14360.30, 3559.96, 3020.30, 9779.11, -39781.21, -25274.26, 29255.59, -1097.43, 10019.17, 0.00, 0.00, 0.00, 0.00, 0.00, 0.00, 0.00
53, 16156.15, 37741.23, -1741.60, 14370.07, 3564.59, 3025.62, 9785.82, -39776.09, -25274.26, 29255.59, -1097.43, 10019.17, 0.00, 0.00, 0.00, 0.00, 0.00, 0.00, 0.00
54, 16156.15, 37741.23, -1741.60, 14370.07, 3564.59, 3025.62, 9785.82, -39776.09, -25279.58, 29242.96, -1101.20, 10004.06, 0.00, 0.00, 0.00, 0.00, 0.00, 0.00, 0.00
55, 16158.81, 37741.52, -1741.38, 14359.97, 3557.41, 3019.50, 9774.93, -39786.39, -25279.58, 29242.96, -1101.20, 10004.06, 0.00, 0.00, 0.00, 0.00, 0.01, 0.32, 0.96
56, 16158.81, 37741.52, -1741.38, 14359.97, 3557.41, 3019.50, 9774.93, -39786.39, -25273.92, 29250.81, -1098.70, 10013.74, 0.00, 0.00, 0.00, 0.00, 0.00, 0.00, 0.00
57, 16161.05, 37757.41, -1735.72, 14372.26, 3570.69, 3028.50, 9792.05, -39770.14, -25273.92, 29250.81, -1098.70, 10013.74, 0.00, 0.00, 0.00, 0.00, 0.00, 0.00, 0.00
58, 16161.05, 37757.41, -1735.72, 14372.26, 3570.69, 3028.50, 9792.05, -39770.14, -25276.29, 29254.83, -1093.40, 10014.68, 0.00, 0.00, 0.00, 0.00, 0.00, 0.00, 0.00
59, 16153.96, 37739.80, -1745.96, 14357.08, 3554.37, 3015.79, 9771.67, -39790.55, -25276.29, 29254.83, -1093.40, 10014.68, 0.00, 0.00, 0.00, 0.00, 0.00, 0.00, 0.00
60, 16153.96, 37739.80, -1745.96, 14357.08, 3554.37, 3015.79, 9771.67, -39790.55, -25280.27, 29237.91, -1099.06, 10008.57, 0.00, 0.00, 0.00, 0.00, 0.00, 0.00, 0.00
61, 16171.53, 37756.97, -1730.07, 14379.64, 3572.14, 3032.75, 9794.06, -39771.80, -25280.27, 29237.91, -1099.06, 10008.57, 0.00, 0.00, 0.00, 0.00, 0.00, 0.00, 0.00
62, 16171.53, 37756.97, -1730.07, 14379.64, 3572.14, 3032.75, 9794.06, -39771.80, -25271.15, 29265.88, -1083.37, 10024.40, 0.00, 0.00, 0.00, 0.00, 0.00, 0.00, 0.00
63, 16169.27, 37761.89, -1731.16, 14368.53, 3566.31, 3024.19, 9782.42, -39779.27, -25271.15, 29265.88, -1083.37, 10024.40, 0.00, 0.00, 0.00, 0.00, 0.00, 0.00, 0.00
64, 16169.27, 37761.89, -1731.16, 14368.53, 3566.31, 3024.19, 9782.42, -39779.27, -25268.36, 29244.28, -1090.21, 10008.66, 0.00, 0.00, 0.00, 0.00, 0.00, 0.00, 0.00
65, 16173.39, 37766.07, -1725.96, 14383.88, 3575.41, 3033.58, 9792.66, -39772.85, -25268.36, 29244.28, -1090.21, 10008.66, 0.00, 0.00, 0.00, 0.00, 0.00, 0.32, 0.96
66, 16173.39, 37766.07, -1725.96, 14383.88, 3575.41, 3033.58, 9792.66, -39772.85, -25276.18, 29252.15, -1085.20, 10010.76, 0.00, 0.00, 0.00, 0.00, 0.00, 0.00, 0.00
67, 16167.11, 37757.62, -1730.25, 14369.09, 3567.03, 3023.70, 9781.32, -39781.43, -25276.18, 29252.15, -1085.20, 10010.76, 0.00, 0.00, 0.00, 0.00, 0.00, 0.00, 0.00
68, 16167.11, 37757.62, -1730.25, 14369.09, 3567.03, 3023.70, 9781.32, -39781.43, -25264.27, 29247.26, -1085.04, 10012.98, 0.00, 0.00, 0.00, 0.00, 0.00, 0.00, 0.00
69, 16169.65, 37769.26, -1729.00, 14378.09, 3573.82, 3028.86, 9792.03, -39771.20, -25264.27, 29247.26, -1085.04, 10012.98, 0.00, 0.00, 0.00, 0.00, 0.00, 0.00, 0.00
70, 16169.65, 37769.26, -1729.00, 14378.09, 3573.82, 3028.86, 9792.03, -39771.20, -25276.04, 29256.20, -1080.08, 10015.08, 0.00, 0.00, 0.00, 0.00, 0.00, 0.00, 0.00
71, 16166.70, 37756.92, -1730.45, 14372.01, 3569.55, 3025.80, 9784.86, -39776.45, -25276.04, 29256.20, -1080.08, 10015.08, 0.00, 0.00, 0.00, 0.00, 0.00, 0.00, 0.00
72, 16166.70, 37756.92, -1730.45, 14372.01, 3569.55, 3025.80, 9784.86, -39776.45, -25262.57, 29247.57, -1086.05, 10012.24, 0.00, 0.00, 0.00, 0.00, 0.00, 0.00, 0.00
73, 16172.34, 37767.65, -1724.71, 14380.60, 3580.03, 3035.21, 9799.09, -39763.44, -25262.57, 29247.57, -1086.05, 10012.24, 0.00, 0.00, 0.00, 0.00, 0.00, 0.00, 0.00
74, 16172.34, 37767.65, -1724.71, 14380.60, 3580.03, 3035.21, 9799.09, -39763.44, -25265.85, 29271.91, -1075.97, 10029.03, 0.00, 0.00, 0.00, 0.00, 0.00, 0.00, 0.00
75, 16170.17, 37763.45, -1726.87, 14375.77, 3576.86, 3030.07, 9792.34, -39766.93, -25265.85, 29271.91, -1075.97, 10029.03, 0.00, 0.00, 0.00, 0.00, 0.01, 0.33, 0.96
76, 16170.17, 37763.45, -1726.87, 14375.77, 3576.86, 3030.07, 9792.34, -39766.93, -25260.29, 29251.84, -1080.97, 10019.95, 0.00, 0.00, 0.00, 0.00, 0.00, 0.00, 0.00
77, 16177.01, 37772.39, -1725.82, 14377.25, 3575.72, 3029.80, 9792.83, -39769.54, -25260.29, 29251.84, -1080.97, 10019.95, 0.00, 0.00, 0.00, 0.00, 0.00, 0.00, 0.00
78, 16177.01, 37772.39, -1725.82, 14377.25, 3575.72, 3029.80, 9792.83, -39769.54, -25272.18, 29264.02, -1073.62, 10018.86, 0.00, 0.00, 0.00, 0.00, 0.00, 0.00, 0.00
79, 16162.43, 37759.65, -1728.21, 14373.62, 3573.86, 3025.67, 9786.13, -39776.49, -25272.18, 29264.02, -1073.62, 10018.86, 0.00, 0.00, 0.00, 0.00, 0.00, 0.00, 0.00
80, 16162.43, 37759.65, -1728.21, 14373.62, 3573.86, 3025.67, 9786.13, -39776.49, -25264.44, 29243.05, -1081.31, 10003.77, 0.00, 0.00, 0.00, 0.00, 0.00, 0.00, 0.00
81, 16165.94, 37763.98, -1729.60, 14377.89, 3572.01, 3028.33, 9789.30, -39775.75, -25264.44, 29243.05, -1081.31, 10003.77, 0.00, 0.00, 0.00, 0.00, 0.00, 0.00, 0.00
82, 16165.94, 37763.98, -1729.60, 14377.89, 3572.01, 3028.33, 9789.30, -39775.75, -25275.75, 29260.51, -1075.77, 10017.81, 0.00, 0.00, 0.00, 0.00, 0.00, 0.00, 0.00
83, 16165.76, 37762.06, -1727.19, 14377.71, 3574.65, 3027.68, 9791.45, -39774.61, -25275.75, 29260.51, -1075.77, 10017.81, 0.00, 0.00, 0.00, 0.00, 0.00, 0.00, 0.00
84, 16165.76, 37762.06, -1727.19, 14377.71, 3574.65, 3027.68, 9791.45, -39774.61, -25268.02, 29235.61, -1083.81, 10002.29, 0.00, 0.00, 0.00, 0.00, 0.01, 0.33, 0.96
85, 16163.75, 37766.87, -1728.91, 14380.08, 3575.05, 3028.59, 9788.99, -39775.78, -25268.02, 29235.61, -1083.81, 10002.29, 0.00, 0.00, 0.00, 0.00, 0.00, 0.00, 0.00
86, 16163.75, 37766.87, -1728.91, 14380.08, 3575.05, 3028.59, 9788.99, -39775.78, -25267.75, 29264.02, -1073.22, 10019.30, 0.00, 0.00, 0.00, 0.00, 0.00, 0.00, 0.00
87, 16177.48, 37783.99, -1720.59, 14388.40, 3579.63, 3033.11, 9794.91, -39768.58, -25267.75, 29264.02, -1073.22, 10019.30, 0.00, 0.00, 0.00, 0.00, 0.00, 0.00, 0.00
88, 16177.48, 37783.99, -1720.59, 14388.40, 3579.63, 3033.11, 9794.91, -39768.58, -25262.68, 29247.64, -1078.11, 10010.90, 0.00, 0.00, 0.00, 0.00, 0.00, 0.00, 0.00
89, 16174.48, 37774.45, -1724.75, 14378.41, 3571.16, 3026.29, 9786.51, -39775.44, -25262.68, 29247.64, -1078.11, 10010.90, 0.00, 0.00, 0.00, 0.00, 0.00, 0.00, 0.00
90, 16174.48, 37774.45, -1724.75, 14378.41, 3571.16, 3026.29, 9786.51, -39775.44, -25268.51, 29260.91, -1072.46, 10020.20, 0.00, 0.00, 0.00, 0.00, 0.00, 0.00, 0.00
91, 16182.08, 37777.62, -1722.54, 14386.52, 3581.53, 3032.93, 9796.52, -39767.02, -25268.51, 29260.91, -1072.46, 10020.20, 0.00, 0.00, 0.00, 0.00, 0.00, 0.00, 0.00
92, 16182.08, 37777.62, -1722.54, 14386.52, 3581.53, 3032.93, 9796.52, -39767.02, -25262.05, 29248.62, -1075.05, 10013.45, 0.00, 0.00, 0.00, 0.00, 0.00, 0.00, 0.00
93, 16167.53, 37758.67, -1730.36, 14376.26, 3568.25, 3023.32, 9782.62, -39781.41, -25262.05, 29248.62, -1075.05, 10013.45, 0.00, 0.00, 0.00, 0.00, 0.00, 0.00, 0.00
94, 16167.53, 37758.67, -1730.36, 14376.26, 3568.25, 3023.32, 9782.62, -39781.41, -25272.42, 29251.03, -1078.99, 10007.86, 0.00, 0.00, 0.00, 0.00, 0.01, 0.32, 0.96
95, 16176.47, 37777.64, -1721.84, 14391.55, 3579.18, 3032.30, 9793.73, -39772.89, -25272.42, 29251.03, -1078.99, 10007.86, 0.00, 0.00, 0.00, 0.00, 0.00, 0.00, 0.00
96, 16176.47, 37777.64, -1721.84, 14391.55, 3579.18, 3032.30, 9793.73, -39772.89, -25267.98, 29243.32, -1080.80, 10001.91, 0.00, 0.00, 0.00, 0.00, 0.00, 0.00, 0.00
97, 16164.18, 37772.50, -1730.32, 14375.66, 3566.11, 3022.13, 9781.08, -39785.12, -25267.98, 29243.32, -1080.80, 10001.91, 0.00, 0.00, 0.00, 0.00, 0.00, 0.00, 0.00
98, 16164.18, 37772.50, -1730.32, 14375.66, 3566.11, 3022.13, 9781.08, -39785.12, -25268.67, 29252.84, -1082.36, 10010.23, 0.00, 0.00, 0.00, 0.00, 0.00, 0.00, 0.00
99, 16163.98, 37771.86, -1729.96, 14388.53, 3579.07, 3032.01, 9795.99, -39768.85, -25268.67, 29252.84, -1082.36, 10010.23, 0.00, 0.00, 0.00, 0.00, 0.00, 0.00, 0.00
100, 16163.98, 37771.86, -1729.96, 14388.53, 3579.07, 3032.01, 9795.99, -39768.85, -25264.49, 29258.54, -1082.36, 10015.62, 0.00, 0.00, 0.00, 0.00, 0.00, 0.00, 0.00
101, 16156.04, 37752.92, -1738.00, 14368.35, 3563.52, 3018.45, 9778.66, -39782.86, -25264.49, 29258.54, -1082.36, 10015.62, 0.00, 0.00, 0.00, 0.00, 0.00, 0.00, 0.00
102, 16156.04, 37752.92, -1738.00, 14368.35, 3563.52, 3018.45, 9778.66, -39782.86, -25268.06, 29246.07, -1085.40, 10010.18, 0.00, 0.00, 0.00, 0.00, 0.00, 0.00, 0.00
103, 16161.36, 37762.46, -1731.52, 14386.19, 3570.83, 3030.23, 9790.98, -39773.83, -25268.06, 29246.07, -1085.40, 10010.18, 0.00, 0.00, 0.00, 0.00, 0.00, 0.00, 0.00
104, 16161.36, 37762.46, -1731.52, 14386.19, 3570.83, 3030.23, 9790.98, -39773.83, -25262.97, 29252.38, -1086.34, 10011.39, 0.00, 0.00, 0.00, 0.00, 0.02, 0.33, 0.96
105, 16147.91, 37755.74, -1744.69, 14365.98, 3559.16, 3017.24, 9773.93, -39785.66, -25262.97, 29252.38, -1086.34, 10011.39, 0.00, 0.00, 0.00, 0.00, 0.00, 0.00, 0.00
106, 16147.91, 37755.74, -1744.69, 14365.98, 3559.16, 3017.24, 9773.93, -39785.66, -25264.02, 29245.83, -1093.51, 10002.67, 0.00, 0.00, 0.00, 0.00, 0.00, 0.00, 0.00
107, 16153.09, 37754.35, -1741.69, 14377.60, 3566.82, 3025.33, 9787.09, -39775.96, -25264.02, 29245.83, -1093.51, 10002.67, 0.00, 0.00, 0.00, 0.00, 0.00, 0.00, 0.00
108, 16153.09, 37754.35, -1741.69, 14377.60, 3566.82, 3025.33, 9787.09, -39775.96, -25268.31, 29249.40, -1084.22, 10003.92, 0.00, 0.00, 0.00, 0.00, 0.00, 0.00, 0.00
109, 16144.53, 37741.43, -1743.55, 14368.86, 3559.05, 3017.95, 9773.08, -39788.32, -25268.31, 29249.40, -1084.22, 10003.92, 0.00, 0.00, 0.00, 0.00, 0.00, 0.00, 0.00
110, 16144.53, 37741.43, -1743.55, 14368.86, 3559.05, 3017.95, 9773.08, -39788.32, -25261.16, 29250.32, -1093.02, 10010.47, 0.00, 0.00, 0.00, 0.00, 0.00, 0.00, 0.00
111, 16159.35, 37765.86, -1731.37, 14387.39, 3574.24, 3030.20, 9791.38, -39773.79, -25261.16, 29250.32, -1093.02, 10010.47, 0.00, 0.00, 0.00, 0.00, 0.00, 0.00, 0.00
112, 16159.35, 37765.86, -1731.37, 14387.39, 3574.24, 3030.20, 9791.38, -39773.79, -25265.32, 29256.15, -1083.86, 10017.65, 0.00, 0.00, 0.00, 0.00, 0.00, 0.00, 0.00
113, 16160.27, 37773.78, -1732.64, 14375.68, 3566.13, 3019.34, 9778.35, -39786.28, -25265.32, 29256.15, -1083.86, 10017.65, 0.00, 0.00, 0.00, 0.00, 0.00, 0.00, 0.00
114, 16160.27, 37773.78, -1732.64, 14375.68, 3566.13, 3019.34, 9778.35, -39786.28, -25259.71, 29242.09, -1082.03, 10003.14, 0.00, 0.00, 0.00, 0.00, 0.01, 0.33, 0.96
115, 16165.61, 37772.37, -1728.48, 14388.44, 3573.91, 3027.79, 9787.87, -39780.45, -25259.71, 29242.09, -1082.03, 10003.14, 0.00, 0.00, 0.00, 0.00, 0.00, 0.00, 0.00
116, 16165.61, 37772.37, -1728.48, 14388.44, 3573.91, 3027.79, 9787.87, -39780.45, -25266.99, 29255.08, -1070.63, 10003.39, 0.00, 0.00, 0.00, 0.00, 0.00, 0.00, 0.00
117, 16153.29, 37767.34, -1732.33, 14372.98, 3566.80, 3020.10, 9777.12, -39789.28, -25266.99, 29255.08, -1070.63, 10003.39, 0.00, 0.00, 0.00, 0.00, 0.00, 0.00, 0.00
118, 16153.29, 37767.34, -1732.33, 14372.98, 3566.80, 3020.10, 9777.12, -39789.28, -25260.24, 29239.77, -1081.13, 9989.35, 0.00, 0.00, 0.00, 0.00, 0.00, 0.00, 0.00
119, 16168.67, 37785.36, -1726.65, 14381.92, 3568.05, 3024.26, 9783.65, -39785.32, -25260.24, 29239.77, -1081.13, 9989.35, 0.00, 0.00, 0.00, 0.00, 0.00, 0.00, 0.00
120, 16168.67, 37785.36, -1726.65, 14381.92, 3568.05, 3024.26, 9783.65, -39785.32, -25267.93, 29258.72, -1073.11, 10006.58, 0.00, 0.00, 0.00, 0.00, 0.00, 0.00, 0.00
121, 16158.28, 37766.58, -1728.97, 14369.96, 3560.32, 3017.69, 9771.87, -39795.31, -25267.93, 29258.72, -1073.11, 10006.58, 0.00, 0.00, 0.00, 0.00, 0.00, 0.00, 0.00
122, 16158.28, 37766.58, -1728.97, 14369.96, 3560.32, 3017.69, 9771.87, -39795.31, -25256.78, 29246.99, -1073.64, 9993.78, 0.00, 0.00, 0.00, 0.00, 0.00, 0.00, 0.00
123, 16151.19, 37745.48, -1737.22, 14371.66, 3558.22, 3018.20, 9772.76, -39794.29, -25256.78, 29246.99, -1073.64, 9993.78, 0.00, 0.00, 0.00, 0.00, 0.00, 0.00, 0.00
124, 16151.19, 37745.48, -1737.22, 14371.66, 3558.22, 3018.20, 9772.76, -39794.29, -25269.45, 29258.70, -1066.80, 9993.73, 0.00, 0.00, 0.00, 0.00, 0.01, 0.32, 0.96
125, 16158.41, 37755.43, -1731.52, 14366.61, 3556.88, 3017.95, 9769.23, -39797.64, -25269.45, 29258.70, -1066.80, 9993.73, 0.00, 0.00, 0.00, 0.00, 0.00, 0.00, 0.00
126, 16158.41, 37755.43, -1731.52, 14366.61, 3556.88, 3017.95, 9769.23, -39797.64, -25261.70, 29233.40, -1070.69, 9982.00, 0.00, 0.00, 0.00, 0.00, 0.00, 0.00, 0.00
127, 16155.62, 37758.09, -1734.50, 14360.55, 3550.42, 3010.36, 9760.40, -39810.69, -25261.70, 29233.40, -1070.69, 9982.00, 0.00, 0.00, 0.00, 0.00, 0.00, 0.00, 0.00
128, 16155.62, 37758.09, -1734.50, 14360.55, 3550.42, 3010.36, 9760.40, -39810.69, -25272.54, 29247.57, -1060.72, 9979.32, 0.00, 0.00, 0.00, 0.00, 0.00, 0.00, 0.00
129, 16187.02, 37799.41, -1724.12, 14359.72, 3549.93, 3011.45, 9757.90, -39809.95, -25272.54, 29247.57, -1060.72, 9979.32, 0.00, 0.00, 0.00, 0.00, 0.00, 0.00, 0.00
130, 16187.02, 37799.41, -1724.12, 14359.72, 3549.93, 3011.45, 9757.90, -39809.95, -25260.46, 29239.08, -1052.03, 9953.95, 0.00, 0.00, 0.00, 0.00, 0.00, 0.00, 0.00
131, 16178.73, 37783.30, -1725.04, 14349.53, 3545.75, 3006.09, 9753.81, -39814.02, -25260.46, 29239.08, -1052.03, 9953.95, 0.00, 0.00, 0.00, 0.00, 0.00, 0.00, 0.00
132, 16178.73, 37783.30, -1725.04, 14349.53, 3545.75, 3006.09, 9753.81, -39814.02, -25270.10, 29262.30, -1033.90, 9927.04, 0.00, 0.00, 0.00, 0.00, 0.00, 0.00, 0.00
133, 16179.51, 37791.75, -1709.51, 14360.39, 3554.49, 3011.76, 9756.60, -39820.77, -25270.10, 29262.30, -1033.90, 9927.04, 0.00, 0.00, 0.00, 0.00, 0.01, 0.33, 0.96
134, 16179.51, 37791.75, -1709.51, 14360.39, 3554.49, 3011.76, 9756.60, -39820.77, -25234.87, 29261.27, -1003.06, 9891.70, 0.00, 0.00, 0.00, 0.00, 0.00, 0.00, 0.00
135, 16299.47, 37844.56, -1674.48, 14357.60, 3560.03, 3011.79, 9749.65, -39809.21, -25234.87, 29261.27, -1003.06, 9891.70, 0.00, 0.00, 0.00, 0.00, 0.00, 0.00, 0.00
136, 16299.47, 37844.56, -1674.48, 14357.60, 3560.03, 3011.79, 9749.65, -39809.21, -25269.99, 29270.12, -1002.52, 9874.98, 0.00, 0.00, 0.00, 0.00, 0.00, 0.00, 0.00
137, 16187.33, 37810.68, -1711.85, 14326.22, 3528.11, 2985.95, 9717.22, -39853.67, -25269.99, 29270.12, -1002.52, 9874.98, 0.00, 0.00, 0.00, 0.00, 0.00, 0.00, 0.00
138, 16187.33, 37810.68, -1711.85, 14326.22, 3528.11, 2985.95, 9717.22, -39853.67, -25285.63, 29160.17, -1018.39, 9938.46, 0.00, 0.00, 0.00, 0.00, 0.00, 0.00, 0.00
139, 16139.12, 37766.11, -1694.17, 14333.23, 3524.56, 2995.49, 9723.12, -39872.76, -25285.63, 29160.17, -1018.39, 9938.46, 0.00, 0.00, 0.00, 0.00, 0.00, 0.00, 0.00
140, 16139.12, 37766.11, -1694.17, 14333.23, 3524.56, 2995.49, 9723.12, -39872.76, -25254.56, 29302.09, -950.40, 9942.46, 0.00, 0.00, 0.00, 0.00, 0.00, 0.00, 0.00
141, 16212.68, 37822.05, -1651.37, 14349.44, 3560.48, 3012.26, 9745.61, -39827.57, -25254.56, 29302.09, -950.40, 9942.46, 0.00, 0.00, 0.00, 0.00, 0.00, 0.00, 0.00
142, 16212.68, 37822.05, -1651.37, 14349.44, 3560.48, 3012.26, 9745.61, -39827.57, -25284.36, 29171.91, -995.14, 10073.15, 0.00, 0.00, 0.00, 0.00, 0.00, 0.00, 0.00
143, 16236.51, 37851.49, -1694.22, 14284.06, 3487.86, 2960.35, 9665.92, -39929.56, -25284.36, 29171.91, -995.14, 10073.15, 0.00, 0.00, 0.00, 0.00, 0.02, 0.33, 0.97
144, 16236.51, 37851.49, -1694.22, 14284.06, 3487.86, 2960.35, 9665.92, -39929.56, -25285.19, 29199.80, -956.32, 9894.98, 0.00, 0.00, 0.00, 0.00, 0.00, 0.00, 0.00
145, 16297.62, 37880.84, -1660.40, 14315.08, 3505.42, 2989.50, 9674.75, -39925.02, -25285.19, 29199.80, -956.32, 9894.98, 0.00, 0.00, 0.00, 0.00, 0.00, 0.00, 0.00
146, 16297.62, 37880.84, -1660.40, 14315.08, 3505.42, 2989.50, 9674.75, -39925.02, -25282.62, 29195.98, -951.76, 9894.49, 0.00, 0.00, 0.00, 0.00, 0.00, 0.00, 0.00
147, 16229.80, 37801.98, -1658.83, 14281.22, 3487.07, 2964.91, 9649.14, -39949.50, -25282.62, 29195.98, -951.76, 9894.49, 0.00, 0.00, 0.00, 0.00, 0.00, 0.00, 0.00
148, 16229.80, 37801.98, -1658.83, 14281.22, 3487.07, 2964.91, 9649.14, -39949.50, -25288.74, 29211.22, -949.82, 9860.83, 0.00, 0.00, 0.00, 0.00, 0.00, 0.00, 0.00
149, 16288.27, 37924.67, -1643.34, 14281.24, 3484.41, 2958.07, 9634.14, -39962.88, -25288.74, 29211.22, -949.82, 9860.83, 0.00, 0.00, 0.00, 0.00, 0.00, 0.00, 0.00
150, 16288.27, 37924.67, -1643.34, 14281.24, 3484.41, 2958.07, 9634.14, -39962.88, -25282.97, 29229.98, -931.33, 9899.61, 0.00, 0.00, 0.00, 0.00, 0.00, 0.00, 0.00
151, 16242.92, 37858.38, -1660.44, 14265.78, 3444.92, 2937.82, 9578.73, -40015.19, -25282.97, 29229.98, -931.33, 9899.61, 0.00, 0.00, 0.00, 0.00, 0.00, 0.00, 0.00
152, 16242.92, 37858.38, -1660.44, 14265.78, 3444.92, 2937.82, 9578.73, -40015.19, -25306.80, 29141.96, -943.09, 9917.94, 0.00, 0.00, 0.00, 0.00, 0.00, 0.00, 0.00
153, 16307.14, 37889.98, -1617.77, 14282.47, 3456.21, 2943.46, 9567.04, -40020.06, -25306.80, 29141.96, -943.09, 9917.94, 0.00, 0.00, 0.00, 0.00, 0.02, 0.33, 0.97
154, 16307.14, 37889.98, -1617.77, 14282.47, 3456.21, 2943.46, 9567.04, -40020.06, -25298.20, 29195.27, -932.65, 9904.01, 0.00, 0.00, 0.00, 0.00, 0.00, 0.00, 0.00
155, 16173.79, 37773.42, -1661.34, 14237.03, 3416.24, 2911.20, 9514.96, -40056.61, -25298.20, 29195.27, -932.65, 9904.01, 0.00, 0.00, 0.00, 0.00, 0.00, 0.00, 0.00
156, 16173.79, 37773.42, -1661.34, 14237.03, 3416.24, 2911.20, 9514.96, -40056.61, -25290.15, 29199.76, -931.49, 9815.12, 0.00, 0.00, 0.00, 0.00, 0.00, 0.00, 0.00
157, 16374.49, 37974.65, -1608.43, 14270.60, 3462.33, 2937.76, 9573.23, -39995.18, -25290.15, 29199.76, -931.49, 9815.12, 0.00, 0.00, 0.00, 0.00, 0.00, 0.00, 0.00
158, 16374.49, 37974.65, -1608.43, 14270.60, 3462.33, 2937.76, 9573.23, -39995.18, -25278.93, 29253.29, -892.51, 9871.96, 0.00, 0.00, 0.00, 0.00, 0.00, 0.00, 0.00
159, 16234.74, 37790.09, -1615.11, 14260.95, 3463.72, 2935.39, 9594.42, -39961.79, -25278.93, 29253.29, -892.51, 9871.96, 0.00, 0.00, 0.00, 0.00, 0.00, 0.00, 0.00
160, 16234.74, 37790.09, -1615.11, 14260.95, 3463.72, 2935.39, 9594.42, -39961.79, -25272.51, 29250.34, -925.03, 9849.21, 0.00, 0.00, 0.00, 0.00, 0.00, 0.00, 0.00
161, 16244.98, 37871.92, -1615.76, 14269.55, 3477.24, 2943.52, 9626.90, -39902.54, -25272.51, 29250.34, -925.03, 9849.21, 0.00, 0.00, 0.00, 0.00, 0.00, 0.00, 0.00
162, 16244.98, 37871.92, -1615.76, 14269.55, 3477.24, 2943.52, 9626.90, -39902.54, -25229.71, 29329.09, -881.40, 9853.86, 0.00, 0.00, 0.00, 0.00, 0.00, 0.00, 0.00
163, 16424.26, 38033.08, -1561.29, 14293.60, 3517.90, 2966.50, 9679.87, -39846.27, -25229.71, 29329.09, -881.40, 9853.86, 0.00, 0.00, 0.00, 0.00, 0.02, 0.32, 0.96
164, 16424.26, 38033.08, -1561.29, 14293.60, 3517.90, 2966.50, 9679.87, -39846.27, -25242.99, 29309.60, -882.83, 9834.41, 0.00, 0.00, 0.00, 0.00, 0.00, 0.00, 0.00
165, 16325.04, 37953.80, -1609.46, 14268.03, 3491.43, 2939.77, 9685.61, -39844.69, -25242.99, 29309.60, -882.83, 9834.41, 0.00, 0.00, 0.00, 0.00, 0.00, 0.00, 0.00
166, 16325.04, 37953.80, -1609.46, 14268.03, 3491.43, 2939.77, 9685.61, -39844.69, -25258.65, 29343.28, -918.79, 9880.68, 0.00, 0.00, 0.00, 0.00, 0.00, 0.00, 0.00
167, 16162.46, 37699.68, -1618.78, 14259.61, 3482.56, 2935.66, 9684.88, -39816.77, -25258.65, 29343.28, -918.79, 9880.68, 0.00, 0.00, 0.00, 0.00, 0.00, 0.00, 0.00
168, 16162.46, 37699.68, -1618.78, 14259.61, 3482.56, 2935.66, 9684.88, -39816.77, -25235.77, 29362.95, -935.98, 9904.59, 0.00, 0.00, 0.00, 0.00, 0.00, 0.00, 0.00
169, 16264.29, 37929.25, -1607.52, 14274.58, 3486.60, 2944.71, 9711.16, -39790.73, -25235.77, 29362.95, -935.98, 9904.59, 0.00, 0.00, 0.00, 0.00, 0.00, 0.00, 0.00
170, 16264.29, 37929.25, -1607.52, 14274.58, 3486.60, 2944.71, 9711.16, -39790.73, -25223.09, 29404.10, -911.33, 9899.48, 0.00, 0.00, 0.00, 0.00, 0.00, 0.00, 0.00
171, 16397.91, 38049.48, -1603.04, 14279.75, 3478.07, 2945.65, 9712.48, -39786.93, -25223.09, 29404.10, -911.33, 9899.48, 0.00, 0.00, 0.00, 0.00, 0.00, 0.00, 0.00
172, 16397.91, 38049.48, -1603.04, 14279.75, 3478.07, 2945.65, 9712.48, -39786.93, -25232.19, 29397.37, -922.46, 9932.49, 0.00, 0.00, 0.00, 0.00, 0.01, 0.33, 0.96
173, 16259.44, 37817.03, -1651.84, 14264.84, 3443.04, 2925.15, 9699.85, -39789.88, -25232.19, 29397.37, -922.46, 9932.49, 0.00, 0.00, 0.00, 0.00, 0.00, 0.00, 0.00
174, 16259.44, 37817.03, -1651.84, 14264.84, 3443.04, 2925.15, 9699.85, -39789.88, -25260.85, 29393.33, -963.29, 9914.96, 0.00, 0.00, 0.00, 0.00, 0.00, 0.00, 0.00
175, 16277.05, 37777.55, -1668.33, 14253.35, 3420.53, 2911.72, 9691.78, -39798.87, -25260.85, 29393.33, -963.29, 9914.96, 0.00, 0.00, 0.00, 0.00, 0.00, 0.00, 0.00
176, 16277.05, 37777.55, -1668.33, 14253.35, 3420.53, 2911.72, 9691.78, -39798.87, -25252.51, 29386.02, -976.93, 9897.06, 0.00, 0.00, 0.00, 0.00, 0.00, 0.00, 0.00
177, 16323.10, 37962.92, -1649.02, 14288.42, 3434.28, 2941.44, 9723.54, -39774.10, -25252.51, 29386.02, -976.93, 9897.06, 0.00, 0.00, 0.00, 0.00, 0.00, 0.00, 0.00
178, 16323.10, 37962.92, -1649.02, 14288.42, 3434.28, 2941.44, 9723.54, -39774.10, -25235.07, 29442.19, -924.33, 9948.94, 0.00, 0.00, 0.00, 0.00, 0.00, 0.00, 0.00
179, 16410.05, 38007.98, -1676.74, 14276.57, 3417.40, 2930.25, 9723.86, -39769.52, -25235.07, 29442.19, -924.33, 9948.94, 0.00, 0.00, 0.00, 0.00, 0.00, 0.00, 0.00
180, 16410.05, 38007.98, -1676.74, 14276.57, 3417.40, 2930.25, 9723.86, -39769.52, -25246.83, 29420.88, -977.33, 9970.55, 0.00, 0.00, 0.00, 0.00, 0.00, 0.00, 0.00
181, 16192.09, 37704.69, -1722.29, 14252.14, 3382.71, 2903.74, 9710.38, -39776.22, -25246.83, 29420.88, -977.33, 9970.55, 0.00, 0.00, 0.00, 0.00, 0.00, 0.00, 0.00
182, 16192.09, 37704.69, -1722.29, 14252.14, 3382.71, 2903.74, 9710.38, -39776.22, -25264.44, 29418.76, -973.06, 9966.42, 0.00, 0.00, 0.00, 0.00, 0.01, 0.33, 0.96
183, 16392.34, 37957.86, -1699.96, 14278.23, 3381.26, 2920.05, 9728.93, -39771.22, -25264.44, 29418.76, -973.06, 9966.42, 0.00, 0.00, 0.00, 0.00, 0.00, 0.00, 0.00
184, 16392.34, 37957.86, -1699.96, 14278.23, 3381.26, 2920.05, 9728.93, -39771.22, -25252.78, 29392.86, -969.84, 9916.55, 0.00, 0.00, 0.00, 0.00, 0.00, 0.00, 0.00
185, 16258.35, 37896.55, -1750.90, 14272.04, 3362.02, 2908.01, 9731.23, -39766.55, -25252.78, 29392.86, -969.84, 9916.55, 0.00, 0.00, 0.00, 0.00, 0.00, 0.00, 0.00
186, 16258.35, 37896.55, -1750.90, 14272.04, 3362.02, 2908.01, 9731.23, -39766.55, -25248.42, 29440.80, -942.26, 9978.80, 0.00, 0.00, 0.00, 0.00, 0.00, 0.00, 0.00
187, 16423.97, 37869.29, -1739.55, 14300.76, 3359.60, 2931.52, 9759.38, -39736.71, -25248.42, 29440.80, -942.26, 9978.80, 0.00, 0.00, 0.00, 0.00, 0.00, 0.00, 0.00
188, 16423.97, 37869.29, -1739.55, 14300.76, 3359.60, 2931.52, 9759.38, -39736.71, -25236.55, 29425.00, -958.82, 9973.08, 0.00, 0.00, 0.00, 0.00, 0.00, 0.00, 0.00
189, 16244.98, 37755.36, -1835.66, 14247.96, 3294.80, 2881.43, 9718.43, -39776.87, -25236.55, 29425.00, -958.82, 9973.08, 0.00, 0.00, 0.00, 0.00, 0.00, 0.00, 0.00
190, 16244.98, 37755.36, -1835.66, 14247.96, 3294.80, 2881.43, 9718.43, -39776.87, -25306.44, 29370.59, -1025.52, 9914.21, 0.00, 0.00, 0.00, 0.00, 0.00, 0.00, 0.00
191, 16178.59, 37766.11, -1894.06, 14239.87, 3242.88, 2864.11, 9702.15, -39808.86, -25306.44, 29370.59, -1025.52, 9914.21, 0.00, 0.00, 0.00, 0.00, 0.00, 0.00, 0.00
192, 16178.59, 37766.11, -1894.06, 14239.87, 3242.88, 2864.11, 9702.15, -39808.86, -25299.04, 29362.46, -997.42, 9916.60, 0.00, 0.00, 0.00, 0.00, 0.01, 0.32, 0.97
193, 16375.83, 37783.48, -1917.60, 14260.28, 3230.70, 2883.31, 9729.51, -39772.80, -25299.04, 29362.46, -997.42, 9916.60, 0.00, 0.00, 0.00, 0.00, 0.00, 0.00, 0.00
194, 16375.83, 37783.48, -1917.60, 14260.28, 3230.70, 2883.31, 9729.51, -39772.80, -25281.37, 29375.18, -977.89, 9907.57, 0.00, 0.00, 0.00, 0.00, 0.00, 0.00, 0.00
195, 16175.22, 37719.06, -1999.54, 14264.50, 3187.47, 2880.87, 9738.90, -39769.72, -25281.37, 29375.18, -977.89, 9907.57, 0.00, 0.00, 0.00, 0.00, 0.00, 0.00, 0.00
196, 16175.22, 37719.06, -1999.54, 14264.50, 3187.47, 2880.87, 9738.90, -39769.72, -25323.16, 29330.03, -1015.13, 9879.58, 0.00, 0.00, 0.00, 0.00, 0.00, 0.00, 0.00
197, 16253.27, 37538.26, -2053.50, 14229.34, 3107.65, 2840.24, 9703.52, -39798.13, -25323.16, 29330.03, -1015.13, 9879.58, 0.00, 0.00, 0.00, 0.00, 0.00, 0.00, 0.00
198, 16253.27, 37538.26, -2053.50, 14229.34, 3107.65, 2840.24, 9703.52, -39798.13, -25301.79, 29338.03, -997.40, 9879.60, 0.00, 0.00, 0.00, 0.00, 0.00, 0.00, 0.00
199, 16410.67, 37789.36, -2081.57, 14267.57, 3095.81, 2865.92, 9743.64, -39760.29, -25301.79, 29338.03, -997.40, 9879.60, 0.00, 0.00, 0.00, 0.00, 0.00, 0.00, 0.00
200, 16410.67, 37789.36, -2081.57, 14267.57, 3095.81, 2865.92, 9743.64, -39760.29, -25309.04, 29318.11, -980.17, 9852.63, 0.00, 0.00, 0.00, 0.00, 0.00, 0.00, 0.00
201, 16241.54, 37649.14, -2186.54, 14241.08, 3017.06, 2839.27, 9718.36, -39787.36, -25309.04, 29318.11, -980.17, 9852.63, 0.00, 0.00, 0.00, 0.00, 0.00, 0.00, 0.00
202, 16241.54, 37649.14, -2186.54, 14241.08, 3017.06, 2839.27, 9718.36, -39787.36, -25324.82, 29299.78, -970.38, 9852.45, 0.00, 0.00, 0.00, 0.00, 0.01, 0.32, 0.96
203, 16363.22, 37575.79, -2226.12, 14266.18, 2984.74, 2854.23, 9747.10, -39760.96, -25324.82, 29299.78, -970.38, 9852.45, 0.00, 0.00, 0.00, 0.00, 0.00, 0.00, 0.00
204, 16363.22, 37575.79, -2226.12, 14266.18, 2984.74, 2854.23, 9747.10, -39760.96, -25324.57, 29308.01, -989.33, 9851.80, 0.00, 0.00, 0.00, 0.00, 0.00, 0.00, 0.00
205, 16191.56, 37450.75, -2287.99, 14237.32, 2903.09, 2822.31, 9723.70, -39784.79, -25324.57, 29308.01, -989.33, 9851.80, 0.00, 0.00, 0.00, 0.00, 0.00, 0.00, 0.00
206, 16191.56, 37450.75, -2287.99, 14237.32, 2903.09, 2822.31, 9723.70, -39784.79, -25345.25, 29254.23, -992.95, 9817.11, 0.00, 0.00, 0.00, 0.00, 0.00, 0.00, 0.00
207, 16208.66, 37395.25, -2393.27, 14243.72, 2836.08, 2818.89, 9722.09, -39789.64, -25345.25, 29254.23, -992.95, 9817.11, 0.00, 0.00, 0.00, 0.00, 0.00, 0.00, 0.00
208, 16208.66, 37395.25, -2393.27, 14243.72, 2836.08, 2818.89, 9722.09, -39789.64, -25339.28, 29249.78, -973.84, 9799.76, 0.00, 0.00, 0.00, 0.00, 0.00, 0.00, 0.00
209, 16213.58, 37379.63, -2471.28, 14237.23, 2776.06, 2813.62, 9723.90, -39784.76, -25339.28, 29249.78, -973.84, 9799.76, 0.00, 0.00, 0.00, 0.00, 0.00, 0.00, 0.00
210, 16213.58, 37379.63, -2471.28, 14237.23, 2776.06, 2813.62, 9723.90, -39784.76, -25346.36, 29218.96, -1004.60, 9764.23, 0.00, 0.00, 0.00, 0.00, 0.00, 0.00, 0.00
211, 16352.36, 37415.19, -2505.63, 14251.81, 2709.48, 2816.36, 9736.26, -39782.75, -25346.36, 29218.96, -1004.60, 9764.23, 0.00, 0.00, 0.00, 0.00, 0.01, 0.33, 0.96
212, 16352.36, 37415.19, -2505.63, 14251.81, 2709.48, 2816.36, 9736.26, -39782.75, -25357.38, 29220.66, -969.66, 9770.93, 0.00, 0.00, 0.00, 0.00, 0.00, 0.00, 0.00
213, 16112.43, 37269.48, -2607.58, 14239.74, 2631.38, 2810.62, 9732.49, -39788.70, -25357.38, 29220.66, -969.66, 9770.93, 0.00, 0.00, 0.00, 0.00, 0.00, 0.00, 0.00
214, 16112.43, 37269.48, -2607.58, 14239.74, 2631.38, 2810.62, 9732.49, -39788.70, -25353.25, 29190.73, -977.67, 9781.79, 0.00, 0.00, 0.00, 0.00, 0.00, 0.00, 0.00
215, 16186.93, 37180.14, -2691.15, 14240.00, 2551.23, 2799.13, 9732.33, -39792.90, -25353.25, 29190.73, -977.67, 9781.79, 0.00, 0.00, 0.00, 0.00, 0.00, 0.00, 0.00
216, 16186.93, 37180.14, -2691.15, 14240.00, 2551.23, 2799.13, 9732.33, -39792.90, -25362.86, 29173.65, -981.55, 9718.43, 0.00, 0.00, 0.00, 0.00, 0.00, 0.00, 0.00
217, 16399.21, 37323.93, -2707.65, 14250.91, 2489.81, 2804.99, 9739.91, -39791.74, -25362.86, 29173.65, -981.55, 9718.43, 0.00, 0.00, 0.00, 0.00, 0.00, 0.00, 0.00
218, 16399.21, 37323.93, -2707.65, 14250.91, 2489.81, 2804.99, 9739.91, -39791.74, -25357.12, 29164.06, -956.43, 9741.34, 0.00, 0.00, 0.00, 0.00, 0.00, 0.00, 0.00
219, 16104.92, 37142.81, -2834.09, 14238.93, 2410.32, 2792.65, 9738.07, -39790.91, -25357.12, 29164.06, -956.43, 9741.34, 0.00, 0.00, 0.00, 0.00, 0.00, 0.00, 0.00
220, 16104.92, 37142.81, -2834.09, 14238.93, 2410.32, 2792.65, 9738.07, -39790.91, -25374.35, 29166.03, -968.79, 9739.88, 0.00, 0.00, 0.00, 0.00, 0.00, 0.00, 0.00
221, 16196.01, 37067.71, -2870.59, 14235.00, 2334.37, 2780.85, 9727.79, -39803.32, -25374.35, 29166.03, -968.79, 9739.88, 0.00, 0.00, 0.00, 0.00, 0.01, 0.33, 0.96
222, 16196.01, 37067.71, -2870.59, 14235.00, 2334.37, 2780.85, 9727.79, -39803.32, -25370.84, 29117.64, -997.98, 9695.36, 0.00, 0.00, 0.00, 0.00, 0.00, 0.00, 0.00
223, 16193.03, 37135.90, -2938.36, 14243.83, 2272.93, 2780.80, 9738.59, -39801.46, -25370.84, 29117.64, -997.98, 9695.36, 0.00, 0.00, 0.00, 0.00, 0.00, 0.00, 0.00
224, 16193.03, 37135.90, -2938.36, 14243.83, 2272.93, 2780.80, 9738.59, -39801.46, -25378.73, 29116.74, -966.69, 9672.23, 0.00, 0.00, 0.00, 0.00, 0.00, 0.00, 0.00
225, 16111.54, 36996.29, -2998.69, 14248.59, 2206.50, 2786.06, 9745.61, -39795.09, -25378.73, 29116.74, -966.69, 9672.23, 0.00, 0.00, 0.00, 0.00, 0.00, 0.00, 0.00
226, 16111.54, 36996.29, -2998.69, 14248.59, 2206.50, 2786.06, 9745.61, -39795.09, -25375.64, 29105.21, -1003.08, 9693.88, 0.00, 0.00, 0.00, 0.00, 0.00, 0.00, 0.00
227, 16218.31, 37043.68, -3074.15, 14226.77, 2116.82, 2756.64, 9727.70, -39812.30, -25375.64, 29105.21, -1003.08, 9693.88, 0.00, 0.00, 0.00, 0.00, 0.00, 0.00, 0.00
228, 16218.31, 37043.68, -3074.15, 14226.77, 2116.82, 2756.64, 9727.70, -39812.30, -25399.52, 29081.92, -965.57, 9673.46, 0.00, 0.00, 0.00, 0.00, 0.00, 0.00, 0.00
229, 16196.34, 36902.64, -3149.29, 14229.10, 2043.11, 2753.49, 9726.05, -39825.55, -25399.52, 29081.92, -965.57, 9673.46, 0.00, 0.00, 0.00, 0.00, 0.00, 0.00, 0.00
230, 16196.34, 36902.64, -3149.29, 14229.10, 2043.11, 2753.49, 9726.05, -39825.55, -25395.13, 29049.98, -1007.19, 9670.42, 0.00, 0.00, 0.00, 0.00, 0.00, 0.00, 0.00
231, 16095.76, 36862.94, -3189.26, 14228.34, 1979.49, 2748.95, 9734.83, -39808.70, -25395.13, 29049.98, -1007.19, 9670.42, 0.00, 0.00, 0.00, 0.00, 0.02, 0.33, 0.96
232, 16095.76, 36862.94, -3189.26, 14228.34, 1979.49, 2748.95, 9734.83, -39808.70, -25389.81, 29064.44, -993.18, 9671.11, 0.00, 0.00, 0.00, 0.00, 0.00, 0.00, 0.00
233, 16105.08, 36727.56, -3244.45, 14235.27, 1901.06, 2748.64, 9736.60, -39813.91, -25389.81, 29064.44, -993.18, 9671.11, 0.00, 0.00, 0.00, 0.00, 0.00, 0.00, 0.00
234, 16105.08, 36727.56, -3244.45, 14235.27, 1901.06, 2748.64, 9736.60, -39813.91, -25391.22, 29019.07, -991.41, 9629.13, 0.00, 0.00, 0.00, 0.00, 0.00, 0.00, 0.00
235, 16172.76, 36866.07, -3316.98, 14215.37, 1809.13, 2728.07, 9721.24, -39828.73, -25391.22, 29019.07, -991.41, 9629.13, 0.00, 0.00, 0.00, 0.00, 0.00, 0.00, 0.00
236, 16172.76, 36866.07, -3316.98, 14215.37, 1809.13, 2728.07, 9721.24, -39828.73, -25415.18, 29003.64, -1011.57, 9615.07, 0.00, 0.00, 0.00, 0.00, 0.00, 0.00, 0.00
237, 15948.64, 36541.68, -3395.90, 14223.04, 1739.61, 2730.00, 9731.93, -39821.98, -25415.18, 29003.64, -1011.57, 9615.07, 0.00, 0.00, 0.00, 0.00, 0.00, 0.00, 0.00
238, 15948.64, 36541.68, -3395.90, 14223.04, 1739.61, 2730.00, 9731.93, -39821.98, -25395.22, 28997.56, -996.24, 9647.84, 0.00, 0.00, 0.00, 0.00, 0.00, 0.00, 0.00
239, 16184.58, 36702.03, -3409.74, 14221.57, 1671.98, 2720.43, 9728.95, -39824.77, -25395.22, 28997.56, -996.24, 9647.84, 0.00, 0.00, 0.00, 0.00, 0.00, 0.00, 0.00
240, 16184.58, 36702.03, -3409.74, 14221.57, 1671.98, 2720.43, 9728.95, -39824.77, -25407.07, 28969.49, -1005.60, 9601.75, 0.00, 0.00, 0.00, 0.00, 0.00, 0.00, 0.00
241, 16140.31, 36648.57, -3458.33, 14229.59, 1591.51, 2717.44, 9729.60, -39834.14, -25407.07, 28969.49, -1005.60, 9601.75, 0.00, 0.00, 0.00, 0.00, 0.01, 0.33, 0.96
242, 16140.31, 36648.57, -3458.33, 14229.59, 1591.51, 2717.44, 9729.60, -39834.14, -25421.15, 28929.68, -998.34, 9587.69, 0.00, 0.00, 0.00, 0.00, 0.00, 0.00, 0.00
243, 15907.11, 36409.94, -3523.35, 14212.24, 1499.20, 2699.60, 9717.11, -39845.76, -25421.15, 28929.68, -998.34, 9587.69, 0.00, 0.00, 0.00, 0.00, 0.00, 0.00, 0.00
244, 15907.11, 36409.94, -3523.35, 14212.24, 1499.20, 2699.60, 9717.11, -39845.76, -25434.85, 28911.62, -1028.38, 9595.07, 0.00, 0.00, 0.00, 0.00, 0.00, 0.00, 0.00
245, 16076.80, 36472.03, -3586.58, 14218.44, 1414.80, 2692.16, 9719.70, -39848.87, -25434.85, 28911.62, -1028.38, 9595.07, 0.00, 0.00, 0.00, 0.00, 0.00, 0.00, 0.00
246, 16076.80, 36472.03, -3586.58, 14218.44, 1414.80, 2692.16, 9719.70, -39848.87, -25438.90, 28871.41, -1024.45, 9571.60, 0.00, 0.00, 0.00, 0.00, 0.00, 0.00, 0.00
247, 16021.15, 36400.08, -3619.57, 14215.37, 1338.11, 2686.66, 9721.26, -39846.21, -25438.90, 28871.41, -1024.45, 9571.60, 0.00, 0.00, 0.00, 0.00, 0.00, 0.00, 0.00
248, 16021.15, 36400.08, -3619.57, 14215.37, 1338.11, 2686.66, 9721.26, -39846.21, -25420.59, 28873.83, -1008.47, 9570.30, 0.00, 0.00, 0.00, 0.00, 0.00, 0.00, 0.00
249, 16051.70, 36507.95, -3646.13, 14228.20, 1267.81, 2690.08, 9735.17, -39835.59, -25420.59, 28873.83, -1008.47, 9570.30, 0.00, 0.00, 0.00, 0.00, 0.00, 0.00, 0.00
250, 16051.70, 36507.95, -3646.13, 14228.20, 1267.81, 2690.08, 9735.17, -39835.59, -25423.79, 28842.58, -987.43, 9556.80, 0.00, 0.00, 0.00, 0.00, 0.01, 0.33, 0.97
251, 15998.64, 36267.78, -3690.81, 14229.30, 1193.47, 2691.06, 9735.19, -39837.27, -25423.79, 28842.58, -987.43, 9556.80, 0.00, 0.00, 0.00, 0.00, 0.00, 0.00, 0.00
252, 15998.64, 36267.78, -3690.81, 14229.30, 1193.47, 2691.06, 9735.19, -39837.27, -25437.87, 28807.26, -994.90, 9552.06, 0.00, 0.00, 0.00, 0.00, 0.00, 0.00, 0.00
253, 16072.56, 36414.45, -3751.16, 14224.14, 1114.86, 2670.36, 9727.50, -39848.33, -25437.87, 28807.26, -994.90, 9552.06, 0.00, 0.00, 0.00, 0.00, 0.00, 0.00, 0.00
254, 16072.56, 36414.45, -3751.16, 14224.14, 1114.86, 2670.36, 9727.50, -39848.33, -25443.64, 28783.37, -1023.60, 9541.78, 0.00, 0.00, 0.00, 0.00, 0.00, 0.00, 0.00
255, 15877.45, 36106.85, -3802.14, 14201.83, 1029.07, 2651.48, 9709.20, -39859.29, -25443.64, 28783.37, -1023.60, 9541.78, 0.00, 0.00, 0.00, 0.00, 0.00, 0.00, 0.00
0, 15877.45, 36106.85, -3802.14, 14201.83, 1029.07, 2651.48, 9709.20, -39859.29, -25444.26, 28739.04, -1037.75, 9511.23, 0.00, 0.00, 0.00, 0.00, 0.00, 0.00, 0.00
1, 15930.69, 36183.14, -3838.00, 14214.88, 970.24, 2653.46, 9720.80, -39858.01, -25444.26, 28739.04, -1037.75, 9511.23, 0.00, 0.00, 0.00, 0.00, 0.00, 0.00, 0.00
2, 15930.69, 36183.14, -3838.00, 14214.88, 970.24, 2653.46, 9720.80, -39858.01, -25464.63, 28709.94, -1030.15, 9501.77, 0.00, 0.00, 0.00, 0.00, 0.00, 0.00, 0.00
3, 16074.19, 36216.22, -3866.18, 14207.64, 899.75, 2638.13, 9707.34, -39871.11, -25464.63, 28709.94, -1030.15, 9501.77, 0.00, 0.00, 0.00, 0.00, 0.00, 0.00, 0.00
4, 16074.19, 36216.22, -3866.18, 14207.64, 899.75, 2638.13, 9707.34, -39871.11, -25454.48, 28679.32, -1039.33, 9505.12, 0.00, 0.00, 0.00, 0.00, 0.01, 0.32, 0.96
5, 15824.05, 36101.48, -3924.56, 14211.93, 844.72, 2637.01, 9720.19, -39860.91, -25454.48, 28679.32, -1039.33, 9505.12, 0.00, 0.00, 0.00, 0.00, 0.00, 0.00, 0.00
6, 15824.05, 36101.48, -3924.56, 14211.93, 844.72, 2637.01, 9720.19, -39860.91, -25459.73, 28667.97, -1029.21, 9494.91, 0.00, 0.00, 0.00, 0.00, 0.00, 0.00, 0.00
7, 16095.09, 36145.52, -3913.05, 14222.84, 804.84, 2642.24, 9727.97, -39852.09, -25459.73, 28667.97, -1029.21, 9494.91, 0.00, 0.00, 0.00, 0.00, 0.00, 0.00, 0.00
8, 16095.09, 36145.52, -3913.05, 14222.84, 804.84, 2642.24, 9727.97, -39852.09, -25458.41, 28625.45, -1038.24, 9478.28, 0.00, 0.00, 0.00, 0.00, 0.00, 0.00, 0.00
9, 15830.35, 35998.09, -3984.98, 14204.40, 740.85, 2617.30, 9716.62, -39860.60, -25458.41, 28625.45, -1038.24, 9478.28, 0.00, 0.00, 0.00, 0.00, 0.00, 0.00, 0.00
10, 15830.35, 35998.09, -3984.98, 14204.40, 740.85, 2617.30, 9716.62, -39860.60, -25463.62, 28614.90, -1041.32, 9493.03, 0.00, 0.00, 0.00, 0.00, 0.00, 0.00, 0.00
11, 15914.51, 36033.87, -4017.97, 14198.95, 687.38, 2606.19, 9704.75, -39874.32, -25463.62, 28614.90, -1041.32, 9493.03, 0.00, 0.00, 0.00, 0.00, 0.00, 0.00, 0.00
12, 15914.51, 36033.87, -4017.97, 14198.95, 687.38, 2606.19, 9704.75, -39874.32, -25482.40, 28542.57, -1060.50, 9452.55, 0.00, 0.00, 0.00, 0.00, 0.00, 0.00, 0.00
13, 15955.70, 36037.94, -4043.56, 14205.27, 650.91, 2603.71, 9712.37, -39870.01, -25482.40, 28542.57, -1060.50, 9452.55, 0.00, 0.00, 0.00, 0.00, 0.00, 0.00, 0.00
14, 15955.70, 36037.94, -4043.56, 14205.27, 650.91, 2603.71, 9712.37, -39870.01, -25467.09, 28547.89, -1050.80, 9463.91, 0.00, 0.00, 0.00, 0.00, 0.01, 0.32, 0.96
15, 15876.96, 35926.92, -4054.63, 14198.97, 609.09, 2591.60, 9704.64, -39874.37, -25467.09, 28547.89, -1050.80, 9463.91, 0.00, 0.00, 0.00, 0.00, 0.00, 0.00, 0.00
16, 15876.96, 35926.92, -4054.63, 14198.97, 609.09, 2591.60, 9704.64, -39874.37, -25482.80, 28482.13, -1060.88, 9426.45, 0.00, 0.00, 0.00, 0.00, 0.00, 0.00, 0.00
17, 15918.15, 35955.26, -4063.03, 14197.87, 569.72, 2585.11, 9705.22, -39874.01, -25482.80, 28482.13, -1060.88, 9426.45, 0.00, 0.00, 0.00, 0.00, 0.00, 0.00, 0.00
18, 15918.15, 35955.26, -4063.03, 14197.87, 569.72, 2585.11, 9705.22, -39874.01, -25480.27, 28482.20, -1039.09, 9432.57, 0.00, 0.00, 0.00, 0.00, 0.00, 0.00, 0.00
19, 15885.38, 35944.24, -4109.37, 14194.68, 534.68, 2574.43, 9701.04, -39879.45, -25480.27, 28482.20, -1039.09, 9432.57, 0.00, 0.00, 0.00, 0.00, 0.00, 0.00, 0.00
20, 15885.38, 35944.24, -4109.37, 14194.68, 534.68, 2574.43, 9701.04, -39879.45, -25502.09, 28413.11, -1077.69, 9408.25, 0.00, 0.00, 0.00, 0.00, 0.00, 0.00, 0.00
21, 15870.70, 35786.55, -4123.36, 14187.25, 502.36, 2561.69, 9698.67, -39885.55, -25502.09, 28413.11, -1077.69, 9408.25, 0.00, 0.00, 0.00, 0.00, 0.00, 0.00, 0.00
22, 15870.70, 35786.55, -4123.36, 14187.25, 502.36, 2561.69, 9698.67, -39885.55, -25502.49, 28404.06, -1069.96, 9412.81, 0.00, 0.00, 0.00, 0.00, 0.00, 0.00, 0.00
23, 15893.90, 35888.14, -4108.68, 14201.83, 480.83, 2563.54, 9707.38, -39879.69, -25502.49, 28404.06, -1069.96, 9412.81, 0.00, 0.00, 0.00, 0.00, 0.00, 0.00, 0.00
24, 15893.90, 35888.14, -4108.68, 14201.83, 480.83, 2563.54, 9707.38, -39879.69, -25509.82, 28349.50, -1066.09, 9399.44, 0.00, 0.00, 0.00, 0.00, 0.01, 0.33, 0.96
25, 15755.88, 35714.53, -4189.23, 14169.58, 417.58, 2536.32, 9675.71, -39915.70, -25509.82, 28349.50, -1066.09, 9399.44, 0.00, 0.00, 0.00, 0.00, 0.00, 0.00, 0.00
26, 15755.88, 35714.53, -4189.23, 14169.58, 417.58, 2536.32, 9675.71, -39915.70, -25532.49, 28321.04, -1082.81, 9386.84, 0.00, 0.00, 0.00, 0.00, 0.00, 0.00, 0.00
27, 16005.77, 35858.25, -4128.68, 14227.24, 452.98, 2574.16, 9729.65, -39865.88, -25532.49, 28321.04, -1082.81, 9386.84, 0.00, 0.00, 0.00, 0.00, 0.00, 0.00, 0.00
28, 16005.77, 35858.25, -4128.68, 14227.24, 452.98, 2574.16, 9729.65, -39865.88, -25484.23, 28314.12, -1015.69, 9407.71, 0.00, 0.00, 0.00, 0.00, 0.00, 0.00, 0.00
29, 15785.09, 35785.77, -4194.10, 14178.56, 390.40, 2536.01, 9699.70, -39886.39, -25484.23, 28314.12, -1015.69, 9407.71, 0.00, 0.00, 0.00, 0.00, 0.00, 0.00, 0.00
30, 15785.09, 35785.77, -4194.10, 14178.56, 390.40, 2536.01, 9699.70, -39886.39, -25524.10, 28272.45, -1090.34, 9377.88, 0.00, 0.00, 0.00, 0.00, 0.00, 0.00, 0.00
31, 15872.44, 35775.91, -4220.70, 14166.33, 344.95, 2518.57, 9684.05, -39902.33, -25524.10, 28272.45, -1090.34, 9377.88, 0.00, 0.00, 0.00, 0.00, 0.00, 0.00, 0.00
32, 15872.44, 35775.91, -4220.70, 14166.33, 344.95, 2518.57, 9684.05, -39902.33, -25527.97, 28232.51, -1080.10, 9390.88, 0.00, 0.00, 0.00, 0.00, 0.00, 0.00, 0.00
33, 15764.37, 35606.08, -4238.90, 14162.22, 327.48, 2512.45, 9687.11, -39899.23, -25527.97, 28232.51, -1080.10, 9390.88, 0.00, 0.00, 0.00, 0.00, 0.01, 0.32, 0.96
34, 15764.37, 35606.08, -4238.90, 14162.22, 327.48, 2512.45, 9687.11, -39899.23, -25531.08, 28208.12, -1094.01, 9370.95, 0.00, 0.00, 0.00, 0.00, 0.00, 0.00, 0.00
35, 15820.16, 35680.40, -4263.93, 14156.50, 307.20, 2506.59, 9691.31, -39897.24, -25531.08, 28208.12, -1094.01, 9370.95, 0.00, 0.00, 0.00, 0.00, 0.00, 0.00, 0.00
36, 15820.16, 35680.40, -4263.93, 14156.50, 307.20, 2506.59, 9691.31, -39897.24, -25543.13, 28167.76, -1091.91, 9350.49, 0.00, 0.00, 0.00, 0.00, 0.00, 0.00, 0.00
37, 15812.43, 35691.33, -4271.53, 14142.10, 267.89, 2487.41, 9674.21, -39915.95, -25543.13, 28167.76, -1091.91, 9350.49, 0.00, 0.00, 0.00, 0.00, 0.00, 0.00, 0.00
38, 15812.43, 35691.33, -4271.53, 14142.10, 267.89, 2487.41, 9674.21, -39915.95, -25552.51, 28133.63, -1098.72, 9375.24, 0.00, 0.00, 0.00, 0.00, 0.00, 0.00, 0.00
39, 15734.82, 35552.91, -4328.37, 14162.31, 255.08, 2497.81, 9692.90, -39897.75, -25552.51, 28133.63, -1098.72, 9375.24, 0.00, 0.00, 0.00, 0.00, 0.00, 0.00, 0.00
40, 15734.82, 35552.91, -4328.37, 14162.31, 255.08, 2497.81, 9692.90, -39897.75, -25543.91, 28121.15, -1093.18, 9368.76, 0.00, 0.00, 0.00, 0.00, 0.00, 0.00, 0.00
41, 15835.05, 35620.70, -4318.00, 14161.82, 241.42, 2491.46, 9691.07, -39900.48, -25543.91, 28121.15, -1093.18, 9368.76, 0.00, 0.00, 0.00, 0.00, 0.00, 0.00, 0.00
42, 15835.05, 35620.70, -4318.00, 14161.82, 241.42, 2491.46, 9691.07, -39900.48, -25548.49, 28082.22, -1085.60, 9339.43, 0.00, 0.00, 0.00, 0.00, 0.00, 0.00, 0.00
43, 15810.46, 35674.95, -4323.50, 14157.73, 216.16, 2476.01, 9686.24, -39907.54, -25548.49, 28082.22, -1085.60, 9339.43, 0.00, 0.00, 0.00, 0.00, 0.01, 0.33, 0.96
44, 15810.46, 35674.95, -4323.50, 14157.73, 216.16, 2476.01, 9686.24, -39907.54, -25558.64, 28050.77, -1076.08, 9342.20, 0.00, 0.00, 0.00, 0.00, 0.00, 0.00, 0.00
45, 15796.83, 35586.01, -4363.64, 14140.99, 180.22, 2459.59, 9665.88, -39927.72, -25558.64, 28050.77, -1076.08, 9342.20, 0.00, 0.00, 0.00, 0.00, 0.00, 0.00, 0.00
46, 15796.83, 35586.01, -4363.64, 14140.99, 180.22, 2459.59, 9665.88, -39927.72, -25581.01, 28004.25, -1109.29, 9329.04, 0.00, 0.00, 0.00, 0.00, 0.00, 0.00, 0.00
47, 15785.61, 35568.42, -4360.53, 14158.35, 183.46, 2463.18, 9683.45, -39917.02, -25581.01, 28004.25, -1109.29, 9329.04, 0.00, 0.00, 0.00, 0.00, 0.00, 0.00, 0.00
48, 15785.61, 35568.42, -4360.53, 14158.35, 183.46, 2463.18, 9683.45, -39917.02, -25587.67, 27972.16, -1104.27, 9305.17, 0.00, 0.00, 0.00, 0.00, 0.00, 0.00, 0.00
49, 15610.59, 35383.01, -4398.26, 14133.28, 145.35, 2439.74, 9661.97, -39932.46, -25587.67, 27972.16, -1104.27, 9305.17, 0.00, 0.00, 0.00, 0.00, 0.00, 0.00, 0.00
50, 15610.59, 35383.01, -4398.26, 14133.28, 145.35, 2439.74, 9661.97, -39932.46, -25584.12, 27948.69, -1127.67, 9315.00, 0.00, 0.00, 0.00, 0.00, 0.00, 0.00, 0.00
51, 15754.96, 35548.08, -4381.32, 14171.90, 160.46, 2464.26, 9695.47, -39904.79, -25584.12, 27948.69, -1127.67, 9315.00, 0.00, 0.00, 0.00, 0.00, 0.00, 0.00, 0.00
52, 15754.96, 35548.08, -4381.32, 14171.90, 160.46, 2464.26, 9695.47, -39904.79, -25578.13, 27942.70, -1088.22, 9331.72, 0.00, 0.00, 0.00, 0.00, 0.00, 0.00, 0.00
53, 15854.23, 35557.36, -4399.96, 14156.97, 135.85, 2447.23, 9680.05, -39916.01, -25578.13, 27942.70, -1088.22, 9331.72, 0.00, 0.00, 0.00, 0.00, 0.02, 0.33, 0.96
54, 15854.23, 35557.36, -4399.96, 14156.97, 135.85, 2447.23, 9680.05, -39916.01, -25596.03, 27887.02, -1126.91, 9301.23, 0.00, 0.00, 0.00, 0.00, 0.00, 0.00, 0.00
55, 15672.64, 35504.70, -4439.88, 14143.96, 105.50, 2427.78, 9669.66, -39928.71, -25596.03, 27887.02, -1126.91, 9301.23, 0.00, 0.00, 0.00, 0.00, 0.00, 0.00, 0.00
56, 15672.64, 35504.70, -4439.88, 14143.96, 105.50, 2427.78, 9669.66, -39928.71, -25608.24, 27876.45, -1110.21, 9306.66, 0.00, 0.00, 0.00, 0.00, 0.00, 0.00, 0.00
57, 15762.54, 35480.22, -4445.40, 14149.12, 100.99, 2426.57, 9670.97, -39926.43, -25608.24, 27876.45, -1110.21, 9306.66, 0.00, 0.00, 0.00, 0.00, 0.00, 0.00, 0.00
58, 15762.54, 35480.22, -4445.40, 14149.12, 100.99, 2426.57, 9670.97, -39926.43, -25617.13, 27819.83, -1141.41, 9280.47, 0.00, 0.00, 0.00, 0.00, 0.00, 0.00, 0.00
59, 15589.07, 35317.54, -4472.79, 14137.70, 74.50, 2407.95, 9660.40, -39943.04, -25617.13, 27819.83, -1141.41, 9280.47, 0.00, 0.00, 0.00, 0.00, 0.00, 0.00, 0.00
60, 15589.07, 35317.54, -4472.79, 14137.70, 74.50, 2407.95, 9660.40, -39943.04, -25625.87, 27816.74, -1138.08, 9269.58, 0.00, 0.00, 0.00, 0.00, 0.00, 0.00, 0.00
61, 15820.09, 35566.52, -4447.44, 14152.41, 85.74, 2420.74, 9679.76, -39918.74, -25625.87, 27816.74, -1138.08, 9269.58, 0.00, 0.00, 0.00, 0.00, 0.00, 0.00, 0.00
62, 15820.09, 35566.52, -4447.44, 14152.41, 85.74, 2420.74, 9679.76, -39918.74, -25606.81, 27793.21, -1123.22, 9292.45, 0.00, 0.00, 0.00, 0.00, 0.00, 0.00, 0.00
63, 15605.45, 35357.11, -4485.35, 14133.07, 52.97, 2397.49, 9660.56, -39933.80, -25606.81, 27793.21, -1123.22, 9292.45, 0.00, 0.00, 0.00, 0.00, 0.02, 0.33, 0.96
64, 15605.45, 35357.11, -4485.35, 14133.07, 52.97, 2397.49, 9660.56, -39933.80, -25633.02, 27771.19, -1138.33, 9279.15, 0.00, 0.00, 0.00, 0.00, 0.00, 0.00, 0.00
65, 15701.61, 35396.98, -4491.09, 14143.94, 56.24, 2400.06, 9670.35, -39929.40, -25633.02, 27771.19, -1138.33, 9279.15, 0.00, 0.00, 0.00, 0.00, 0.00, 0.00, 0.00
66, 15701.61, 35396.98, -4491.09, 14143.94, 56.24, 2400.06, 9670.35, -39929.40, -25630.99, 27727.45, -1135.92, 9265.80, 0.00, 0.00, 0.00, 0.00, 0.00, 0.00, 0.00
67, 15776.46, 35544.10, -4464.87, 14153.50, 57.06, 2406.34, 9684.09, -39914.96, -25630.99, 27727.45, -1135.92, 9265.80, 0.00, 0.00, 0.00, 0.00, 0.00, 0.00, 0.00
68, 15776.46, 35544.10, -4464.87, 14153.50, 57.06, 2406.34, 9684.09, -39914.96, -25614.54, 27748.04, -1097.87, 9276.22, 0.00, 0.00, 0.00, 0.00, 0.00, 0.00, 0.00
69, 15651.03, 35381.92, -4498.38, 14140.52, 39.05, 2391.75, 9670.55, -39926.99, -25614.54, 27748.04, -1097.87, 9276.22, 0.00, 0.00, 0.00, 0.00, 0.00, 0.00, 0.00
70, 15651.03, 35381.92, -4498.38, 14140.52, 39.05, 2391.75, 9670.55, -39926.99, -25658.17, 27668.82, -1173.58, 9236.25, 0.00, 0.00, 0.00, 0.00, 0.00, 0.00, 0.00
71, 15630.49, 35342.33, -4513.11, 14126.32, 7.53, 2366.45, 9645.92, -39952.80, -25658.17, 27668.82, -1173.58, 9236.25, 0.00, 0.00, 0.00, 0.00, 0.00, 0.00, 0.00
72, 15630.49, 35342.33, -4513.11, 14126.32, 7.53, 2366.45, 9645.92, -39952.80, -25663.38, 27675.50, -1144.66, 9243.68, 0.00, 0.00, 0.00, 0.00, 0.01, 0.32, 0.96
73, 15692.58, 35397.52, -4501.62, 14154.06, 30.00, 2386.88, 9675.44, -39928.62, -25663.38, 27675.50, -1144.66, 9243.68, 0.00, 0.00, 0.00, 0.00, 0.00, 0.00, 0.00
74, 15692.58, 35397.52, -4501.62, 14154.06, 30.00, 2386.88, 9675.44, -39928.62, -25657.10, 27641.87, -1151.74, 9250.11, 0.00, 0.00, 0.00, 0.00, 0.00, 0.00, 0.00
75, 15648.34, 35382.86, -4510.65, 14136.85, 9.21, 2364.52, 9660.40, -39942.63, -25657.10, 27641.87, -1151.74, 9250.11, 0.00, 0.00, 0.00, 0.00, 0.00, 0.00, 0.00
76, 15648.34, 35382.86, -4510.65, 14136.85, 9.21, 2364.52, 9660.40, -39942.63, -25665.32, 27635.41, -1144.97, 9240.12, 0.00, 0.00, 0.00, 0.00, 0.00, 0.00, 0.00
77, 15704.87, 35460.35, -4507.10, 14148.54, 12.18, 2370.02, 9670.35, -39934.41, -25665.32, 27635.41, -1144.97, 9240.12, 0.00, 0.00, 0.00, 0.00, 0.00, 0.00, 0.00
78, 15704.87, 35460.35, -4507.10, 14148.54, 12.18, 2370.02, 9670.35, -39934.41, -25671.00, 27595.64, -1155.54, 9211.49, 0.00, 0.00, 0.00, 0.00, 0.00, 0.00, 0.00
79, 15595.62, 35297.54, -4519.10, 14137.34, -6.91, 2355.34, 9658.50, -39945.81, -25671.00, 27595.64, -1155.54, 9211.49, 0.00, 0.00, 0.00, 0.00, 0.00, 0.00, 0.00
80, 15595.62, 35297.54, -4519.10, 14137.34, -6.91, 2355.34, 9658.50, -39945.81, -25678.82, 27595.84, -1170.81, 9221.01, 0.00, 0.00, 0.00, 0.00, 0.00, 0.00, 0.00
81, 15689.58, 35363.25, -4529.25, 14144.27, -4.67, 2358.47, 9671.31, -39931.08, -25678.82, 27595.84, -1170.81, 9221.01, 0.00, 0.00, 0.00, 0.00, 0.00, 0.00, 0.00
82, 15689.58, 35363.25, -4529.25, 14144.27, -4.67, 2358.47, 9671.31, -39931.08, -25666.98, 27580.44, -1155.67, 9234.02, 0.00, 0.00, 0.00, 0.00, 0.01, 0.32, 0.97
83, 15680.53, 35387.68, -4518.72, 14131.85, -12.25, 2344.05, 9659.60, -39941.67, -25666.98, 27580.44, -1155.67, 9234.02, 0.00, 0.00, 0.00, 0.00, 0.00, 0.00, 0.00
84, 15680.53, 35387.68, -4518.72, 14131.85, -12.25, 2344.05, 9659.60, -39941.67, -25687.38, 27552.55, -1174.27, 9210.77, 0.00, 0.00, 0.00, 0.00, 0.00, 0.00, 0.00
85, 15631.38, 35350.38, -4546.84, 14135.06, -13.55, 2341.95, 9663.78, -39938.68, -25687.38, 27552.55, -1174.27, 9210.77, 0.00, 0.00, 0.00, 0.00, 0.00, 0.00, 0.00
86, 15631.38, 35350.38, -4546.84, 14135.06, -13.55, 2341.95, 9663.78, -39938.68, -25677.06, 27549.91, -1164.79, 9200.18, 0.00, 0.00, 0.00, 0.00, 0.00, 0.00, 0.00
87, 15654.04, 35354.22, -4537.18, 14128.13, -16.09, 2331.04, 9657.23, -39940.89, -25677.06, 27549.91, -1164.79, 9200.18, 0.00, 0.00, 0.00, 0.00, 0.00, 0.00, 0.00
88, 15654.04, 35354.22, -4537.18, 14128.13, -16.09, 2331.04, 9657.23, -39940.89, -25688.57, 27528.25, -1173.22, 9205.25, 0.00, 0.00, 0.00, 0.00, 0.00, 0.00, 0.00
89, 15604.33, 35358.58, -4525.49, 14144.21, -8.07, 2340.16, 9672.74, -39935.48, -25688.57, 27528.25, -1173.22, 9205.25, 0.00, 0.00, 0.00, 0.00, 0.00, 0.00, 0.00
90, 15604.33, 35358.58, -4525.49, 14144.21, -8.07, 2340.16, 9672.74, -39935.48, -25701.49, 27503.17, -1166.54, 9186.99, 0.00, 0.00, 0.00, 0.00, 0.00, 0.00, 0.00
91, 15642.98, 35364.79, -4546.68, 14116.02, -29.97, 2312.69, 9643.66, -39959.71, -25701.49, 27503.17, -1166.54, 9186.99, 0.00, 0.00, 0.00, 0.00, 0.00, 0.00, 0.00
92, 15642.98, 35364.79, -4546.68, 14116.02, -29.97, 2312.69, 9643.66, -39959.71, -25705.29, 27491.97, -1195.44, 9200.65, 0.00, 0.00, 0.00, 0.00, 0.01, 0.32, 0.97
93, 15583.12, 35238.80, -4549.68, 14137.50, -12.70, 2326.10, 9665.94, -39940.78, -25705.29, 27491.97, -1195.44, 9200.65, 0.00, 0.00, 0.00, 0.00, 0.00, 0.00, 0.00
94, 15583.12, 35238.80, -4549.68, 14137.50, -12.70, 2326.10, 9665.94, -39940.78, -25713.13, 27481.67, -1179.79, 9176.75, 0.00, 0.00, 0.00, 0.00, 0.00, 0.00, 0.00
95, 15584.62, 35307.17, -4565.39, 14124.09, -20.18, 2312.58, 9652.67, -39956.63, -25713.13, 27481.67, -1179.79, 9176.75, 0.00, 0.00, 0.00, 0.00, 0.00, 0.00, 0.00
96, 15584.62, 35307.17, -4565.39, 14124.09, -20.18, 2312.58, 9652.67, -39956.63, -25712.78, 27470.09, -1188.51, 9175.39, 0.00, 0.00, 0.00, 0.00, 0.00, 0.00, 0.00
97, 15637.53, 35387.71, -4556.02, 14137.77, -10.06, 2315.37, 9665.09, -39942.79, -25712.78, 27470.09, -1188.51, 9175.39, 0.00, 0.00, 0.00, 0.00, 0.00, 0.00, 0.00
98, 15637.53, 35387.71, -4556.02, 14137.77, -10.06, 2315.37, 9665.09, -39942.79, -25732.89, 27462.80, -1188.64, 9169.98, 0.00, 0.00, 0.00, 0.00, 0.00, 0.00, 0.00
99, 15526.97, 35274.56, -4567.85, 14126.95, -13.34, 2305.90, 9654.19, -39957.39, -25732.89, 27462.80, -1188.64, 9169.98, 0.00, 0.00, 0.00, 0.00, 0.00, 0.00, 0.00
100, 15526.97, 35274.56, -4567.85, 14126.95, -13.34, 2305.90, 9654.19, -39957.39, -25717.02, 27442.73, -1186.83, 9162.74, 0.00, 0.00, 0.00, 0.00, 0.00, 0.00, 0.00
101, 15650.31, 35402.75, -4536.00, 14147.04, 16.81, 2317.25, 9678.24, -39933.00, -25717.02, 27442.73, -1186.83, 9162.74, 0.00, 0.00, 0.00, 0.00, 0.00, 0.00, 0.00
102, 15650.31, 35402.75, -4536.00, 14147.04, 16.81, 2317.25, 9678.24, -39933.00, -25734.37, 27453.87, -1163.07, 9171.48, 0.00, 0.00, 0.00, 0.00, 0.02, 0.33, 0.96
103, 15586.12, 35275.50, -4561.70, 14127.89, 3.67, 2297.11, 9654.57, -39965.34, -25734.37, 27453.87, -1163.07, 9171.48, 0.00, 0.00, 0.00, 0.00, 0.00, 0.00, 0.00
104, 15586.12, 35275.50, -4561.70, 14127.89, 3.67, 2297.11, 9654.57, -39965.34, -25737.41, 27426.55, -1193.49, 9152.66, 0.00, 0.00, 0.00, 0.00, 0.00, 0.00, 0.00
105, 15521.21, 35271.77, -4576.88, 14123.02, 23.18, 2287.63, 9662.82, -39947.91, -25737.41, 27426.55, -1193.49, 9152.66, 0.00, 0.00, 0.00, 0.00, 0.00, 0.00, 0.00
106, 15521.21, 35271.77, -4576.88, 14123.02, 23.18, 2287.63, 9662.82, -39947.91, -25745.56, 27437.57, -1206.99, 9158.78, 0.00, 0.00, 0.00, 0.00, 0.00, 0.00, 0.00
107, 15591.17, 35311.22, -4559.76, 14131.20, 42.54, 2294.67, 9659.60, -39963.00, -25745.56, 27437.57, -1206.99, 9158.78, 0.00, 0.00, 0.00, 0.00, 0.00, 0.00, 0.00
108, 15591.17, 35311.22, -4559.76, 14131.20, 42.54, 2294.67, 9659.60, -39963.00, -25748.31, 27421.03, -1205.83, 9149.22, 0.00, 0.00, 0.00, 0.00, 0.00, 0.00, 0.00
109, 15572.86, 35310.82, -4569.28, 14121.54, 67.68, 2276.73, 9649.96, -39976.50, -25748.31, 27421.03, -1205.83, 9149.22, 0.00, 0.00, 0.00, 0.00, 0.00, 0.00, 0.00
110, 15572.86, 35310.82, -4569.28, 14121.54, 67.68, 2276.73, 9649.96, -39976.50, -25771.58, 27423.15, -1204.54, 9140.43, 0.00, 0.00, 0.00, 0.00, 0.00, 0.00, 0.00
111, 15539.96, 35296.60, -4561.07, 14128.94, 107.15, 2289.56, 9652.91, -39980.27, -25771.58, 27423.15, -1204.54, 9140.43, 0.00, 0.00, 0.00, 0.00, 0.02, 0.33, 0.96
112, 15539.96, 35296.60, -4561.07, 14128.94, 107.15, 2289.56, 9652.91, -39980.27, -25755.31, 27422.55, -1214.84, 9142.15, 0.00, 0.00, 0.00, 0.00, 0.00, 0.00, 0.00
113, 15541.75, 35324.83, -4528.69, 14137.39, 165.60, 2293.53, 9662.46, -39980.54, -25755.31, 27422.55, -1214.84, 9142.15, 0.00, 0.00, 0.00, 0.00, 0.00, 0.00, 0.00
114, 15541.75, 35324.83, -4528.69, 14137.39, 165.60, 2293.53, 9662.46, -39980.54, -25775.32, 27459.68, -1200.20, 9167.88, 0.00, 0.00, 0.00, 0.00, 0.00, 0.00, 0.00
115, 15558.09, 35312.31, -4508.39, 14135.47, 229.15, 2288.19, 9659.10, -39984.81, -25775.32, 27459.68, -1200.20, 9167.88, 0.00, 0.00, 0.00, 0.00, 0.00, 0.00, 0.00
116, 15558.09, 35312.31, -4508.39, 14135.47, 229.15, 2288.19, 9659.10, -39984.81, -25777.39, 27443.90, -1217.79, 9160.88, 0.00, 0.00, 0.00, 0.00, 0.00, 0.00, 0.00
117, 15524.16, 35318.26, -4497.39, 14125.23, 283.31, 2270.38, 9637.96, -40024.60, -25777.39, 27443.90, -1217.79, 9160.88, 0.00, 0.00, 0.00, 0.00, 0.00, 0.00, 0.00
118, 15524.16, 35318.26, -4497.39, 14125.23, 283.31, 2270.38, 9637.96, -40024.60, -25800.82, 27448.52, -1222.82, 9141.68, 0.00, 0.00, 0.00, 0.00, 0.00, 0.00, 0.00
119, 15542.15, 35333.23, -4462.15, 14146.04, 363.69, 2290.32, 9645.76, -40024.39, -25800.82, 27448.52, -1222.82, 9141.68, 0.00, 0.00, 0.00, 0.00, 0.00, 0.00, 0.00
120, 15542.15, 35333.23, -4462.15, 14146.04, 363.69, 2290.32, 9645.76, -40024.39, -25795.28, 27463.01, -1235.14, 9169.07, 0.00, 0.00, 0.00, 0.00, 0.00, 0.00, 0.00
121, 15501.16, 35309.65, -4444.91, 14134.19, 421.26, 2278.16, 9631.19, -40054.04, -25795.28, 27463.01, -1235.14, 9169.07, 0.00, 0.00, 0.00, 0.00, 0.02, 0.32, 0.96
122, 15501.16, 35309.65, -4444.91, 14134.19, 421.26, 2278.16, 9631.19, -40054.04, -25838.71, 27463.90, -1249.15, 9162.47, 0.00, 0.00, 0.00, 0.00, 0.00, 0.00, 0.00
123, 15512.71, 35344.23, -4413.22, 14160.19, 500.34, 2283.97, 9640.33, -40060.18, -25838.71, 27463.90, -1249.15, 9162.47, 0.00, 0.00, 0.00, 0.00, 0.00, 0.00, 0.00
124, 15512.71, 35344.23, -4413.22, 14160.19, 500.34, 2283.97, 9640.33, -40060.18, -25815.53, 27484.80, -1252.17, 9172.08, 0.00, 0.00, 0.00, 0.00, 0.00, 0.00, 0.00
125, 15506.70, 35371.16, -4388.18, 14165.35, 564.29, 2295.39, 9641.45, -40062.17, -25815.53, 27484.80, -1252.17, 9172.08, 0.00, 0.00, 0.00, 0.00, 0.00, 0.00, 0.00
126, 15506.70, 35371.16, -4388.18, 14165.35, 564.29, 2295.39, 9641.45, -40062.17, -25823.01, 27501.63, -1254.56, 9198.68, 0.00, 0.00, 0.00, 0.00, 0.00, 0.00, 0.00
127, 15529.12, 35392.55, -4365.88, 14186.47, 631.06, 2291.97, 9642.21, -40070.13, -25823.01, 27501.63, -1254.56, 9198.68, 0.00, 0.00, 0.00, 0.00, 0.00, 0.00, 0.00
128, 15529.12, 35392.55, -4365.88, 14186.47, 631.06, 2291.97, 9642.21, -40070.13, -25822.72, 27487.64, -1263.14, 9192.11, 0.00, 0.00, 0.00, 0.00, 0.00, 0.00, 0.00
129, 15489.13, 35409.59, -4365.99, 14185.31, 673.88, 2291.28, 9622.47, -40092.14, -25822.72, 27487.64, -1263.14, 9192.11, 0.00, 0.00, 0.00, 0.00, 0.00, 0.00, 0.00
130, 15489.13, 35409.59, -4365.99, 14185.31, 673.88, 2291.28, 9622.47, -40092.14, -25848.09, 27487.08, -1286.50, 9192.69, 0.00, 0.00, 0.00, 0.00, 0.00, 0.00, 0.00
131, 15478.69, 35422.89, -4346.86, 14197.40, 726.90, 2291.99, 9638.63, -40085.98, -25848.09, 27487.08, -1286.50, 9192.69, 0.00, 0.00, 0.00, 0.00, 0.02, 0.33, 0.96
132, 15478.69, 35422.89, -4346.86, 14197.40, 726.90, 2291.99, 9638.63, -40085.98, -25829.83, 27495.51, -1277.76, 9187.48, 0.00, 0.00, 0.00, 0.00, 0.00, 0.00, 0.00
133, 15464.77, 35432.88, -4324.84, 14196.42, 778.09, 2285.87, 9638.16, -40084.90, -25829.83, 27495.51, -1277.76, 9187.48, 0.00, 0.00, 0.00, 0.00, 0.00, 0.00, 0.00
134, 15464.77, 35432.88, -4324.84, 14196.42, 778.09, 2285.87, 9638.16, -40084.90, -25841.57, 27500.78, -1294.84, 9210.86, 0.00, 0.00, 0.00, 0.00, 0.00, 0.00, 0.00
135, 15475.54, 35435.85, -4303.36, 14212.85, 820.38, 2295.46, 9648.13, -40074.91, -25841.57, 27500.78, -1294.84, 9210.86, 0.00, 0.00, 0.00, 0.00, 0.00, 0.00, 0.00
136, 15475.54, 35435.85, -4303.36, 14212.85, 820.38, 2295.46, 9648.13, -40074.91, -25825.34, 27514.95, -1280.37, 9191.15, 0.00, 0.00, 0.00, 0.00, 0.00, 0.00, 0.00
137, 15470.09, 35474.34, -4285.19, 14193.71, 847.22, 2275.54, 9626.54, -40098.58, -25825.34, 27514.95, -1280.37, 9191.15, 0.00, 0.00, 0.00, 0.00, 0.00, 0.00, 0.00
138, 15470.09, 35474.34, -4285.19, 14193.71, 847.22, 2275.54, 9626.54, -40098.58, -25843.96, 27507.87, -1294.14, 9190.61, 0.00, 0.00, 0.00, 0.00, 0.00, 0.00, 0.00
139, 15480.26, 35530.31, -4256.49, 14211.64, 906.85, 2299.19, 9654.54, -40071.89, -25843.96, 27507.87, -1294.14, 9190.61, 0.00, 0.00, 0.00, 0.00, 0.00, 0.00, 0.00
140, 15480.26, 35530.31, -4256.49, 14211.64, 906.85, 2299.19, 9654.54, -40071.89, -25825.70, 27523.71, -1271.21, 9243.47, 0.00, 0.00, 0.00, 0.00, 0.00, 0.00, 0.00
141, 15443.36, 35487.06, -4245.71, 14201.85, 925.99, 2281.80, 9635.70, -40079.54, -25825.70, 27523.71, -1271.21, 9243.47, 0.00, 0.00, 0.00, 0.00, 0.01, 0.33, 0.96
142, 15443.36, 35487.06, -4245.71, 14201.85, 925.99, 2281.80, 9635.70, -40079.54, -25833.86, 27519.47, -1287.10, 9210.73, 0.00, 0.00, 0.00, 0.00, 0.00, 0.00, 0.00
143, 15444.83, 35515.07, -4229.73, 14213.29, 958.42, 2292.86, 9637.33, -40075.43, -25833.86, 27519.47, -1287.10, 9210.73, 0.00, 0.00, 0.00, 0.00, 0.00, 0.00, 0.00
144, 15444.83, 35515.07, -4229.73, 14213.29, 958.42, 2292.86, 9637.33, -40075.43, -25837.61, 27541.68, -1293.20, 9221.93, 0.00, 0.00, 0.00, 0.00, 0.00, 0.00, 0.00
145, 15498.21, 35554.61, -4195.78, 14210.30, 988.89, 2286.36, 9638.21, -40069.84, -25837.61, 27541.68, -1293.20, 9221.93, 0.00, 0.00, 0.00, 0.00, 0.00, 0.00, 0.00
146, 15498.21, 35554.61, -4195.78, 14210.30, 988.89, 2286.36, 9638.21, -40069.84, -25833.34, 27548.39, -1287.01, 9220.45, 0.00, 0.00, 0.00, 0.00, 0.00, 0.00, 0.00
147, 15457.30, 35545.00, -4203.74, 14210.86, 1014.70, 2283.48, 9641.11, -40064.88, -25833.34, 27548.39, -1287.01, 9220.45, 0.00, 0.00, 0.00, 0.00, 0.00, 0.00, 0.00
148, 15457.30, 35545.00, -4203.74, 14210.86, 1014.70, 2283.48, 9641.11, -40064.88, -25841.37, 27576.53, -1295.40, 9198.91, 0.00, 0.00, 0.00, 0.00, 0.00, 0.00, 0.00
149, 15458.26, 35556.06, -4177.76, 14206.12, 1048.86, 2287.14, 9639.82, -40053.21, -25841.37, 27576.53, -1295.40, 9198.91, 0.00, 0.00, 0.00, 0.00, 0.00, 0.00, 0.00
150, 15458.26, 35556.06, -4177.76, 14206.12, 1048.86, 2287.14, 9639.82, -40053.21, -25830.68, 27563.70, -1293.12, 9259.84, 0.00, 0.00, 0.00, 0.00, 0.01, 0.33, 0.96
151, 15438.82, 35553.71, -4158.05, 14219.24, 1082.49, 2302.56, 9646.72, -40051.64, -25830.68, 27563.70, -1293.12, 9259.84, 0.00, 0.00, 0.00, 0.00, 0.00, 0.00, 0.00
152, 15438.82, 35553.71, -4158.05, 14219.24, 1082.49, 2302.56, 9646.72, -40051.64, -25837.32, 27582.95, -1282.50, 9226.08, 0.00, 0.00, 0.00, 0.00, 0.00, 0.00, 0.00
153, 15462.04, 35567.35, -4135.88, 14221.25, 1123.26, 2303.19, 9656.58, -40038.12, -25837.32, 27582.95, -1282.50, 9226.08, 0.00, 0.00, 0.00, 0.00, 0.00, 0.00, 0.00
154, 15462.04, 35567.35, -4135.88, 14221.25, 1123.26, 2303.19, 9656.58, -40038.12, -25829.14, 27586.05, -1297.90, 9202.75, 0.00, 0.00, 0.00, 0.00, 0.00, 0.00, 0.00
155, 15478.78, 35619.25, -4111.02, 14232.07, 1158.69, 2313.25, 9675.24, -40025.91, -25829.14, 27586.05, -1297.90, 9202.75, 0.00, 0.00, 0.00, 0.00, 0.00, 0.00, 0.00
156, 15478.78, 35619.25, -4111.02, 14232.07, 1158.69, 2313.25, 9675.24, -40025.91, -25819.39, 27621.66, -1272.15, 9264.69, 0.00, 0.00, 0.00, 0.00, 0.00, 0.00, 0.00
157, 15502.81, 35633.82, -4088.98, 14239.71, 1195.82, 2323.98, 9683.85, -40009.98, -25819.39, 27621.66, -1272.15, 9264.69, 0.00, 0.00, 0.00, 0.00, 0.00, 0.00, 0.00
158, 15502.81, 35633.82, -4088.98, 14239.71, 1195.82, 2323.98, 9683.85, -40009.98, -25819.73, 27621.86, -1294.97, 9244.28, 0.00, 0.00, 0.00, 0.00, 0.00, 0.00, 0.00
159, 15476.28, 35611.96, -4082.08, 14244.07, 1217.54, 2329.50, 9684.14, -40007.30, -25819.73, 27621.86, -1294.97, 9244.28, 0.00, 0.00, 0.00, 0.00, 0.00, 0.00, 0.00
160, 15476.28, 35611.96, -4082.08, 14244.07, 1217.54, 2329.50, 9684.14, -40007.30, -25817.56, 27662.18, -1280.13, 9284.69, 0.00, 0.00, 0.00, 0.00, 0.01, 0.33, 0.97
161, 15481.17, 35628.12, -4057.18, 14250.49, 1249.31, 2344.23, 9687.74, -39994.29, -25817.56, 27662.18, -1280.13, 9284.69, 0.00, 0.00, 0.00, 0.00, 0.00, 0.00, 0.00
162, 15481.17, 35628.12, -4057.18, 14250.49, 1249.31, 2344.23, 9687.74, -39994.29, -25813.76, 27656.71, -1282.03, 9230.44, 0.00, 0.00, 0.00, 0.00, 0.00, 0.00, 0.00
163, 15493.94, 35667.04, -4059.34, 14251.05, 1276.96, 2346.37, 9688.32, -39993.68, -25813.76, 27656.71, -1282.03, 9230.44, 0.00, 0.00, 0.00, 0.00, 0.00, 0.00, 0.00
164, 15493.94, 35667.04, -4059.34, 14251.05, 1276.96, 2346.37, 9688.32, -39993.68, -25813.74, 27681.52, -1269.53, 9266.70, 0.00, 0.00, 0.00, 0.00, 0.00, 0.00, 0.00
165, 15468.21, 35650.18, -4108.54, 14253.73, 1295.24, 2342.53, 9683.27, -39989.80, -25813.74, 27681.52, -1269.53, 9266.70, 0.00, 0.00, 0.00, 0.00, 0.00, 0.00, 0.00
166, 15468.21, 35650.18, -4108.54, 14253.73, 1295.24, 2342.53, 9683.27, -39989.80, -25812.89, 27665.67, -1289.52, 9272.75, 0.00, 0.00, 0.00, 0.00, 0.00, 0.00, 0.00
167, 15498.16, 35668.76, -4093.41, 14249.97, 1313.61, 2341.14, 9683.11, -39993.02, -25812.89, 27665.67, -1289.52, 9272.75, 0.00, 0.00, 0.00, 0.00, 0.00, 0.00, 0.00
168, 15498.16, 35668.76, -4093.41, 14249.97, 1313.61, 2341.14, 9683.11, -39993.02, -25818.21, 27690.86, -1290.61, 9289.65, 0.00, 0.00, 0.00, 0.00, 0.00, 0.00, 0.00
169, 15484.08, 35670.86, -4085.74, 14254.89, 1336.23, 2348.25, 9685.30, -39986.11, -25818.21, 27690.86, -1290.61, 9289.65, 0.00, 0.00, 0.00, 0.00, 0.00, 0.00, 0.00
170, 15484.08, 35670.86, -4085.74, 14254.89, 1336.23, 2348.25, 9685.30, -39986.11, -25801.73, 27719.65, -1295.75, 9267.97, 0.00, 0.00, 0.00, 0.00, 0.02, 0.32, 0.97
171, 15483.70, 35696.34, -4066.79, 14260.46, 1356.68, 2357.59, 9682.62, -39977.52, -25801.73, 27719.65, -1295.75, 9267.97, 0.00, 0.00, 0.00, 0.00, 0.00, 0.00, 0.00
172, 15483.70, 35696.34, -4066.79, 14260.46, 1356.68, 2357.59, 9682.62, -39977.52, -25808.49, 27731.12, -1298.03, 9303.80, 0.00, 0.00, 0.00, 0.00, 0.00, 0.00, 0.00
173, 15513.14, 35717.55, -4048.97, 14268.19, 1381.16, 2363.21, 9684.59, -39972.76, -25808.49, 27731.12, -1298.03, 9303.80, 0.00, 0.00, 0.00, 0.00, 0.00, 0.00, 0.00
174, 15513.14, 35717.55, -4048.97, 14268.19, 1381.16, 2363.21, 9684.59, -39972.76, -25801.06, 27736.30, -1310.15, 9307.11, 0.00, 0.00, 0.00, 0.00, 0.00, 0.00, 0.00
175, 15487.88, 35708.54, -4048.53, 14266.29, 1389.21, 2359.25, 9671.98, -39983.22, -25801.06, 27736.30, -1310.15, 9307.11, 0.00, 0.00, 0.00, 0.00, 0.00, 0.00, 0.00
176, 15487.88, 35708.54, -4048.53, 14266.29, 1389.21, 2359.25, 9671.98, -39983.22, -25814.43, 27754.07, -1318.89, 9301.66, 0.00, 0.00, 0.00, 0.00, 0.00, 0.00, 0.00
177, 15481.62, 35693.37, -4034.53, 14278.16, 1414.89, 2366.29, 9674.08, -39974.02, -25814.43, 27754.07, -1318.89, 9301.66, 0.00, 0.00, 0.00, 0.00, 0.00, 0.00, 0.00
178, 15481.62, 35693.37, -4034.53, 14278.16, 1414.89, 2366.29, 9674.08, -39974.02, -25804.35, 27764.22, -1329.24, 9297.21, 0.00, 0.00, 0.00, 0.00, 0.00, 0.00, 0.00
179, 15460.10, 35689.90, -4032.03, 14255.76, 1417.91, 2354.04, 9658.08, -39979.56, -25804.35, 27764.22, -1329.24, 9297.21, 0.00, 0.00, 0.00, 0.00, 0.00, 0.00, 0.00
180, 15460.10, 35689.90, -4032.03, 14255.76, 1417.91, 2354.04, 9658.08, -39979.56, -25806.45, 27780.13, -1330.17, 9284.42, 0.00, 0.00, 0.00, 0.00, 0.01, 0.32, 0.97
181, 15500.26, 35736.48, -3999.98, 14278.92, 1453.36, 2371.03, 9674.71, -39969.25, -25806.45, 27780.13, -1330.17, 9284.42, 0.00, 0.00, 0.00, 0.00, 0.00, 0.00, 0.00
182, 15500.26, 35736.48, -3999.98, 14278.92, 1453.36, 2371.03, 9674.71, -39969.25, -25794.34, 27803.96, -1320.36, 9330.00, 0.00, 0.00, 0.00, 0.00, 0.00, 0.00, 0.00
183, 15493.09, 35748.35, -3987.86, 14275.57, 1467.44, 2365.28, 9663.44, -39971.80, -25794.34, 27803.96, -1320.36, 9330.00, 0.00, 0.00, 0.00, 0.00, 0.00, 0.00, 0.00
184, 15493.09, 35748.35, -3987.86, 14275.57, 1467.44, 2365.28, 9663.44, -39971.80, -25790.45, 27821.86, -1329.62, 9335.81, 0.00, 0.00, 0.00, 0.00, 0.00, 0.00, 0.00
185, 15501.96, 35769.36, -3971.57, 14290.05, 1496.49, 2382.36, 9689.64, -39941.85, -25790.45, 27821.86, -1329.62, 9335.81, 0.00, 0.00, 0.00, 0.00, 0.00, 0.00, 0.00
186, 15501.96, 35769.36, -3971.57, 14290.05, 1496.49, 2382.36, 9689.64, -39941.85, -25790.43, 27838.47, -1327.58, 9331.03, 0.00, 0.00, 0.00, 0.00, 0.00, 0.00, 0.00
187, 15474.36, 35745.42, -3977.56, 14277.06, 1504.21, 2376.68, 9694.24, -39967.45, -25790.43, 27838.47, -1327.58, 9331.03, 0.00, 0.00, 0.00, 0.00, 0.00, 0.00, 0.00
188, 15474.36, 35745.42, -3977.56, 14277.06, 1504.21, 2376.68, 9694.24, -39967.45, -25784.95, 27835.79, -1331.07, 9309.19, 0.00, 0.00, 0.00, 0.00, 0.00, 0.00, 0.00
189, 15504.35, 35783.69, -3966.50, 14306.14, 1557.58, 2404.71, 9755.64, -39933.27, -25784.95, 27835.79, -1331.07, 9309.19, 0.00, 0.00, 0.00, 0.00, 0.01, 0.32, 0.97
190, 15504.35, 35783.69, -3966.50, 14306.14, 1557.58, 2404.71, 9755.64, -39933.27, -25780.03, 27850.52, -1322.80, 9301.61, 0.00, 0.00, 0.00, 0.00, 0.00, 0.00, 0.00
191, 15501.02, 35777.09, -3984.96, 14286.54, 1566.99, 2382.23, 9768.47, -39936.00, -25780.03, 27850.52, -1322.80, 9301.61, 0.00, 0.00, 0.00, 0.00, 0.00, 0.00, 0.00
192, 15501.02, 35777.09, -3984.96, 14286.54, 1566.99, 2382.23, 9768.47, -39936.00, -25786.65, 27844.89, -1336.52, 9286.12, 0.00, 0.00, 0.00, 0.00, 0.00, 0.00, 0.00
193, 15508.06, 35807.96, -3972.60, 14301.23, 1590.71, 2392.15, 9784.10, -39939.14, -25786.65, 27844.89, -1336.52, 9286.12, 0.00, 0.00, 0.00, 0.00, 0.00, 0.00, 0.00
194, 15508.06, 35807.96, -3972.60, 14301.23, 1590.71, 2392.15, 9784.10, -39939.14, -25779.81, 27871.06, -1325.68, 9292.47, 0.00, 0.00, 0.00, 0.00, 0.00, 0.00, 0.00
195, 15519.24, 35823.86, -3960.82, 14293.85, 1597.75, 2393.42, 9767.53, -39955.11, -25779.81, 27871.06, -1325.68, 9292.47, 0.00, 0.00, 0.00, 0.00, 0.00, 0.00, 0.00
196, 15519.24, 35823.86, -3960.82, 14293.85, 1597.75, 2393.42, 9767.53, -39955.11, -25772.83, 27868.51, -1329.59, 9288.89, 0.00, 0.00, 0.00, 0.00, 0.00, 0.00, 0.00
197, 15521.03, 35799.31, -3955.83, 14305.36, 1614.15, 2399.68, 9774.06, -39947.26, -25772.83, 27868.51, -1329.59, 9288.89, 0.00, 0.00, 0.00, 0.00, 0.00, 0.00, 0.00
198, 15521.03, 35799.31, -3955.83, 14305.36, 1614.15, 2399.68, 9774.06, -39947.26, -25780.41, 27904.05, -1341.71, 9308.47, 0.00, 0.00, 0.00, 0.00, 0.00, 0.00, 0.00
199, 15506.66, 35801.75, -3958.11, 14280.10, 1599.33, 2372.12, 9732.13, -39988.70, -25780.41, 27904.05, -1341.71, 9308.47, 0.00, 0.00, 0.00, 0.00, 0.01, 0.32, 0.97
200, 15506.66, 35801.75, -3958.11, 14280.10, 1599.33, 2372.12, 9732.13, -39988.70, -25797.06, 27868.82, -1357.29, 9286.10, 0.00, 0.00, 0.00, 0.00, 0.00, 0.00, 0.00
201, 15498.99, 35819.68, -3946.56, 14288.06, 1620.46, 2378.74, 9732.33, -40000.30, -25797.06, 27868.82, -1357.29, 9286.10, 0.00, 0.00, 0.00, 0.00, 0.00, 0.00, 0.00
202, 15498.99, 35819.68, -3946.56, 14288.06, 1620.46, 2378.74, 9732.33, -40000.30, -25793.58, 27899.78, -1350.29, 9307.67, 0.00, 0.00, 0.00, 0.00, 0.00, 0.00, 0.00
203, 15505.99, 35825.53, -3932.34, 14293.34, 1631.74, 2372.70, 9720.57, -40012.23, -25793.58, 27899.78, -1350.29, 9307.67, 0.00, 0.00, 0.00, 0.00, 0.00, 0.00, 0.00
204, 15505.99, 35825.53, -3932.34, 14293.34, 1631.74, 2372.70, 9720.57, -40012.23, -25792.48, 27899.87, -1374.74, 9301.77, 0.00, 0.00, 0.00, 0.00, 0.00, 0.00, 0.00
205, 15506.41, 35836.46, -3929.53, 14294.92, 1646.90, 2375.34, 9723.17, -40013.36, -25792.48, 27899.87, -1374.74, 9301.77, 0.00, 0.00, 0.00, 0.00, 0.00, 0.00, 0.00
206, 15506.41, 35836.46, -3929.53, 14294.92, 1646.90, 2375.34, 9723.17, -40013.36, -25786.47, 27933.22, -1374.74, 9312.43, 0.00, 0.00, 0.00, 0.00, 0.00, 0.00, 0.00
207, 15503.50, 35854.68, -3917.86, 14305.16, 1663.91, 2383.10, 9717.60, -40020.75, -25786.47, 27933.22, -1374.74, 9312.43, 0.00, 0.00, 0.00, 0.00, 0.00, 0.00, 0.00
208, 15503.50, 35854.68, -3917.86, 14305.16, 1663.91, 2383.10, 9717.60, -40020.75, -25768.25, 27935.72, -1401.70, 9296.07, 0.00, 0.00, 0.00, 0.00, 0.00, 0.00, 0.00
209, 15467.74, 35806.78, -3933.62, 14304.47, 1675.93, 2379.61, 9718.31, -40022.70, -25768.25, 27935.72, -1401.70, 9296.07, 0.00, 0.00, 0.00, 0.00, 0.01, 0.32, 0.97
210, 15467.74, 35806.78, -3933.62, 14304.47, 1675.93, 2379.61, 9718.31, -40022.70, -25764.05, 27949.34, -1427.27, 9293.54, 0.00, 0.00, 0.00, 0.00, 0.00, 0.00, 0.00
211, 15463.92, 35810.31, -3918.48, 14318.06, 1698.29, 2381.35, 9725.45, -40015.75, -25764.05, 27949.34, -1427.27, 9293.54, 0.00, 0.00, 0.00, 0.00, 0.00, 0.00, 0.00
212, 15463.92, 35810.31, -3918.48, 14318.06, 1698.29, 2381.35, 9725.45, -40015.75, -25753.37, 27946.70, -1432.37, 9296.40, 0.00, 0.00, 0.00, 0.00, 0.00, 0.00, 0.00
213, 15473.53, 35847.14, -3899.17, 14321.95, 1709.04, 2388.24, 9723.68, -40016.73, -25753.37, 27946.70, -1432.37, 9296.40, 0.00, 0.00, 0.00, 0.00, 0.00, 0.00, 0.00
214, 15473.53, 35847.14, -3899.17, 14321.95, 1709.04, 2388.24, 9723.68, -40016.73, -25759.60, 27976.20, -1403.94, 9303.65, 0.00, 0.00, 0.00, 0.00, 0.00, 0.00, 0.00
215, 15489.24, 35860.45, -3867.88, 14321.32, 1733.20, 2403.13, 9732.55, -40012.23, -25759.60, 27976.20, -1403.94, 9303.65, 0.00, 0.00, 0.00, 0.00, 0.00, 0.00, 0.00
216, 15489.24, 35860.45, -3867.88, 14321.32, 1733.20, 2403.13, 9732.55, -40012.23, -25769.24, 27952.33, -1387.35, 9288.74, 0.00, 0.00, 0.00, 0.00, 0.00, 0.00, 0.00
217, 15493.71, 35870.61, -3853.08, 14312.40, 1732.19, 2386.41, 9719.28, -40028.66, -25769.24, 27952.33, -1387.35, 9288.74, 0.00, 0.00, 0.00, 0.00, 0.00, 0.00, 0.00
218, 15493.71, 35870.61, -3853.08, 14312.40, 1732.19, 2386.41, 9719.28, -40028.66, -25770.17, 27972.96, -1380.53, 9277.90, 0.00, 0.00, 0.00, 0.00, 0.00, 0.00, 0.00
219, 15515.71, 35902.22, -3827.67, 14317.88, 1754.97, 2395.91, 9728.33, -40018.96, -25770.17, 27972.96, -1380.53, 9277.90, 0.00, 0.00, 0.00, 0.00, 0.01, 0.32, 0.97
220, 15515.71, 35902.22, -3827.67, 14317.88, 1754.97, 2395.91, 9728.33, -40018.96, -25727.82, 27981.54, -1373.13, 9286.86, 0.00, 0.00, 0.00, 0.00, 0.00, 0.00, 0.00
221, 15520.60, 35934.12, -3809.09, 14308.42, 1759.55, 2392.69, 9717.38, -40024.82, -25727.82, 27981.54, -1373.13, 9286.86, 0.00, 0.00, 0.00, 0.00, 0.00, 0.00, 0.00
222, 15520.60, 35934.12, -3809.09, 14308.42, 1759.55, 2392.69, 9717.38, -40024.82, -25751.04, 27994.38, -1351.77, 9281.58, 0.00, 0.00, 0.00, 0.00, 0.00, 0.00, 0.00
223, 15523.64, 35921.42, -3793.81, 14313.63, 1777.50, 2401.00, 9724.39, -40019.50, -25751.04, 27994.38, -1351.77, 9281.58, 0.00, 0.00, 0.00, 0.00, 0.00, 0.00, 0.00
224, 15523.64, 35921.42, -3793.81, 14313.63, 1777.50, 2401.00, 9724.39, -40019.50, -25734.28, 28001.79, -1349.51, 9278.23, 0.00, 0.00, 0.00, 0.00, 0.00, 0.00, 0.00
225, 15543.98, 35924.97, -3774.40, 14315.06, 1785.99, 2398.88, 9716.62, -40025.80, -25734.28, 28001.79, -1349.51, 9278.23, 0.00, 0.00, 0.00, 0.00, 0.00, 0.00, 0.00
226, 15543.98, 35924.97, -3774.40, 14315.06, 1785.99, 2398.88, 9716.62, -40025.80, -25748.74, 28012.79, -1339.12, 9288.22, 0.00, 0.00, 0.00, 0.00, 0.00, 0.00, 0.00
227, 15538.06, 35960.09, -3756.84, 14323.91, 1804.95, 2413.76, 9731.82, -40011.27, -25748.74, 28012.79, -1339.12, 9288.22, 0.00, 0.00, 0.00, 0.00, 0.00, 0.00, 0.00
228, 15538.06, 35960.09, -3756.84, 14323.91, 1804.95, 2413.76, 9731.82, -40011.27, -25739.33, 28013.20, -1339.45, 9281.67, 0.00, 0.00, 0.00, 0.00, 0.02, 0.32, 0.97
229, 15516.67, 35926.41, -3755.85, 14305.32, 1796.63, 2399.75, 9710.13, -40034.27, -25739.33, 28013.20, -1339.45, 9281.67, 0.00, 0.00, 0.00, 0.00, 0.00, 0.00, 0.00
230, 15516.67, 35926.41, -3755.85, 14305.32, 1796.63, 2399.75, 9710.13, -40034.27, -25738.14, 28019.21, -1347.52, 9281.72, 0.00, 0.00, 0.00, 0.00, 0.00, 0.00, 0.00
231, 15523.84, 35938.59, -3740.90, 14315.20, 1821.22, 2416.67, 9731.08, -40016.33, -25738.14, 28019.21, -1347.52, 9281.72, 0.00, 0.00, 0.00, 0.00, 0.00, 0.00, 0.00
232, 15523.84, 35938.59, -3740.90, 14315.20, 1821.22, 2416.67, 9731.08, -40016.33, -25736.02, 28029.20, -1343.00, 9281.92, 0.00, 0.00, 0.00, 0.00, 0.00, 0.00, 0.00
233, 15535.92, 35950.63, -3727.96, 14309.21, 1825.33, 2416.74, 9717.24, -40020.75, -25736.02, 28029.20, -1343.00, 9281.92, 0.00, 0.00, 0.00, 0.00, 0.00, 0.00, 0.00
234, 15535.92, 35950.63, -3727.96, 14309.21, 1825.33, 2416.74, 9717.24, -40020.75, -25723.59, 28027.90, -1345.73, 9273.67, 0.00, 0.00, 0.00, 0.00, 0.00, 0.00, 0.00
235, 15560.46, 35991.54, -3694.21, 14366.90, 1857.63, 2438.82, 9739.37, -40011.77, -25723.59, 28027.90, -1345.73, 9273.67, 0.00, 0.00, 0.00, 0.00, 0.00, 0.00, 0.00
236, 15560.46, 35991.54, -3694.21, 14366.90, 1857.63, 2438.82, 9739.37, -40011.77, -25728.87, 28047.68, -1312.54, 9285.92, 0.00, 0.00, 0.00, 0.00, 0.00, 0.00, 0.00
237, 15557.77, 35983.34, -3689.24, 14348.79, 1861.25, 2437.28, 9736.75, -40011.72, -25728.87, 28047.68, -1312.54, 9285.92, 0.00, 0.00, 0.00, 0.00, 0.00, 0.00, 0.00
238, 15557.77, 35983.34, -3689.24, 14348.79, 1861.25, 2437.28, 9736.75, -40011.72, -25719.73, 28051.60, -1361.91, 9284.42, 0.00, 0.00, 0.00, 0.00, 0.01, 0.33, 0.97
239, 15547.02, 35979.29, -3699.03, 14351.56, 1871.65, 2438.69, 9749.21, -40001.51, -25719.73, 28051.60, -1361.91, 9284.42, 0.00, 0.00, 0.00, 0.00, 0.00, 0.00, 0.00
240, 15547.02, 35979.29, -3699.03, 14351.56, 1871.65, 2438.69, 9749.21, -40001.51, -25725.02, 28056.15, -1375.19, 9284.07, 0.00, 0.00, 0.00, 0.00, 0.00, 0.00, 0.00
241, 15533.14, 35964.67, -3704.80, 14329.12, 1868.99, 2433.70, 9727.30, -40022.25, -25725.02, 28056.15, -1375.19, 9284.07, 0.00, 0.00, 0.00, 0.00, 0.00, 0.00, 0.00
242, 15533.14, 35964.67, -3704.80, 14329.12, 1868.99, 2433.70, 9727.30, -40022.25, -25716.22, 28049.07, -1352.64, 9278.37, 0.00, 0.00, 0.00, 0.00, 0.00, 0.00, 0.00
243, 15564.37, 36004.55, -3669.89, 14358.83, 1900.48, 2470.58, 9757.25, -39999.96, -25716.22, 28049.07, -1352.64, 9278.37, 0.00, 0.00, 0.00, 0.00, 0.00, 0.00, 0.00
244, 15564.37, 36004.55, -3669.89, 14358.83, 1900.48, 2470.58, 9757.25, -39999.96, -25709.15, 28070.01, -1346.51, 9282.43, 0.00, 0.00, 0.00, 0.00, 0.00, 0.00, 0.00
245, 15560.70, 35992.52, -3670.80, 14340.95, 1882.31, 2448.25, 9727.46, -40025.63, -25709.15, 28070.01, -1346.51, 9282.43, 0.00, 0.00, 0.00, 0.00, 0.00, 0.00, 0.00
246, 15560.70, 35992.52, -3670.80, 14340.95, 1882.31, 2448.25, 9727.46, -40025.63, -25725.63, 28053.36, -1352.28, 9271.53, 0.00, 0.00, 0.00, 0.00, 0.00, 0.00, 0.00
247, 15587.08, 36045.94, -3635.87, 14356.35, 1907.07, 2460.95, 9746.10, -40013.60, -25725.63, 28053.36, -1352.28, 9271.53, 0.00, 0.00, 0.00, 0.00, 0.00, 0.00, 0.00
248, 15587.08, 36045.94, -3635.87, 14356.35, 1907.07, 2460.95, 9746.10, -40013.60, -25713.98, 28086.91, -1303.22, 9295.67, 0.00, 0.00, 0.00, 0.00, 0.01, 0.33, 0.97
249, 15580.31, 36019.68, -3616.38, 14356.55, 1922.63, 2469.13, 9754.26, -39997.37, -25713.98, 28086.91, -1303.22, 9295.67, 0.00, 0.00, 0.00, 0.00, 0.00, 0.00, 0.00
250, 15580.31, 36019.68, -3616.38, 14356.55, 1922.63, 2469.13, 9754.26, -39997.37, -25665.41, 28090.71, -1322.33, 9289.34, 0.00, 0.00, 0.00, 0.00, 0.00, 0.00, 0.00
251, 15586.92, 36026.63, -3607.68, 14367.10, 1939.06, 2479.10, 9754.17, -40001.02, -25665.41, 28090.71, -1322.33, 9289.34, 0.00, 0.00, 0.00, 0.00, 0.00, 0.00, 0.00
252, 15586.92, 36026.63, -3607.68, 14367.10, 1939.06, 2479.10, 9754.17, -40001.02, -25674.49, 28100.84, -1315.76, 9295.24, 0.00, 0.00, 0.00, 0.00, 0.00, 0.00, 0.00
253, 15585.47, 36042.63, -3592.98, 14365.15, 1945.47, 2469.40, 9756.49, -39998.69, -25674.49, 28100.84, -1315.76, 9295.24, 0.00, 0.00, 0.00, 0.00, 0.00, 0.00, 0.00
254, 15585.47, 36042.63, -3592.98, 14365.15, 1945.47, 2469.40, 9756.49, -39998.69, -25701.58, 28085.81, -1320.72, 9299.20, 0.00, 0.00, 0.00, 0.00, 0.00, 0.00, 0.00
255, 15588.75, 36051.53, -3590.70, 14365.20, 1957.39, 2475.32, 9754.77, -40009.44, -25701.58, 28085.81, -1320.72, 9299.20, 0.00, 0.00, 0.00, 0.00, 0.00, 0.00, 0.00
0, 15588.75, 36051.53, -3590.70, 14365.20, 1957.39, 2475.32, 9754.77, -40009.44, -25704.53, 28105.19, -1337.93, 9295.11, 0.00, 0.00, 0.00, 0.00, 0.00, 0.00, 0.00
1, 15582.05, 36053.59, -3591.99, 14357.69, 1957.12, 2478.90, 9751.46, -40003.32, -25704.53, 28105.19, -1337.93, 9295.11, 0.00, 0.00, 0.00, 0.00, 0.00, 0.00, 0.00
2, 15582.05, 36053.59, -3591.99, 14357.69, 1957.12, 2478.90, 9751.46, -40003.32, -25678.31, 28099.63, -1338.27, 9287.10, 0.00, 0.00, 0.00, 0.00, 0.01, 0.33, 0.97
3, 15612.96, 36097.91, -3560.92, 14377.51, 1973.21, 2487.41, 9752.09, -40013.20, -25678.31, 28099.63, -1338.27, 9287.10, 0.00, 0.00, 0.00, 0.00, 0.00, 0.00, 0.00
4, 15612.96, 36097.91, -3560.92, 14377.51, 1973.21, 2487.41, 9752.09, -40013.20, -25692.81, 28096.81, -1310.28, 9292.07, 0.00, 0.00, 0.00, 0.00, 0.00, 0.00, 0.00
5, 15614.86, 36073.50, -3549.32, 14376.37, 1986.35, 2484.02, 9759.96, -40000.73, -25692.81, 28096.81, -1310.28, 9292.07, 0.00, 0.00, 0.00, 0.00, 0.00, 0.00, 0.00
6, 15614.86, 36073.50, -3549.32, 14376.37, 1986.35, 2484.02, 9759.96, -40000.73, -25620.04, 28145.94, -1308.58, 9316.99, 0.00, 0.00, 0.00, 0.00, 0.00, 0.00, 0.00
7, 15583.28, 36065.01, -3544.47, 14367.34, 1988.28, 2480.86, 9760.16, -39989.41, -25620.04, 28145.94, -1308.58, 9316.99, 0.00, 0.00, 0.00, 0.00, 0.00, 0.00, 0.00
8, 15583.28, 36065.01, -3544.47, 14367.34, 1988.28, 2480.86, 9760.16, -39989.41, -25615.19, 28150.19, -1318.44, 9311.25, 0.00, 0.00, 0.00, 0.00, 0.00, 0.00, 0.00
9, 15575.83, 36067.00, -3539.56, 14370.90, 1994.89, 2483.90, 9745.20, -40015.14, -25615.19, 28150.19, -1318.44, 9311.25, 0.00, 0.00, 0.00, 0.00, 0.00, 0.00, 0.00
10, 15575.83, 36067.00, -3539.56, 14370.90, 1994.89, 2483.90, 9745.20, -40015.14, -25675.18, 28108.01, -1310.28, 9280.98, 0.00, 0.00, 0.00, 0.00, 0.00, 0.00, 0.00
11, 15590.90, 36083.43, -3528.04, 14367.63, 1996.64, 2491.15, 9741.54, -40014.02, -25675.18, 28108.01, -1310.28, 9280.98, 0.00, 0.00, 0.00, 0.00, 0.02, 0.33, 0.97
12, 15590.90, 36083.43, -3528.04, 14367.63, 1996.64, 2491.15, 9741.54, -40014.02, -25629.20, 28147.26, -1323.02, 9306.28, 0.00, 0.00, 0.00, 0.00, 0.00, 0.00, 0.00
13, 15577.96, 36087.88, -3522.37, 14374.70, 2002.87, 2479.90, 9735.82, -40019.34, -25629.20, 28147.26, -1323.02, 9306.28, 0.00, 0.00, 0.00, 0.00, 0.00, 0.00, 0.00
14, 15577.96, 36087.88, -3522.37, 14374.70, 2002.87, 2479.90, 9735.82, -40019.34, -25686.42, 28110.92, -1324.97, 9288.80, 0.00, 0.00, 0.00, 0.00, 0.00, 0.00, 0.00
15, 15593.83, 36089.64, -3519.73, 14354.16, 1999.99, 2467.39, 9724.89, -40024.98, -25686.42, 28110.92, -1324.97, 9288.80, 0.00, 0.00, 0.00, 0.00, 0.00, 0.00, 0.00
16, 15593.83, 36089.64, -3519.73, 14354.16, 1999.99, 2467.39, 9724.89, -40024.98, -25660.47, 28138.97, -1314.73, 9298.68, 0.00, 0.00, 0.00, 0.00, 0.00, 0.00, 0.00
17, 15604.47, 36112.64, -3500.44, 14366.70, 2024.17, 2485.67, 9742.10, -40009.62, -25660.47, 28138.97, -1314.73, 9298.68, 0.00, 0.00, 0.00, 0.00, 0.00, 0.00, 0.00
18, 15604.47, 36112.64, -3500.44, 14366.70, 2024.17, 2485.67, 9742.10, -40009.62, -25647.87, 28154.01, -1311.22, 9310.15, 0.00, 0.00, 0.00, 0.00, 0.00, 0.00, 0.00
19, 15567.45, 36093.64, -3510.39, 14344.77, 2003.14, 2472.44, 9710.02, -40041.45, -25647.87, 28154.01, -1311.22, 9310.15, 0.00, 0.00, 0.00, 0.00, 0.00, 0.00, 0.00
20, 15567.45, 36093.64, -3510.39, 14344.77, 2003.14, 2472.44, 9710.02, -40041.45, -25703.01, 28119.46, -1319.40, 9282.77, 0.00, 0.00, 0.00, 0.00, 0.00, 0.00, 0.00
21, 15603.71, 36108.64, -3492.39, 14359.27, 2017.38, 2465.17, 9713.91, -40039.02, -25703.01, 28119.46, -1319.40, 9282.77, 0.00, 0.00, 0.00, 0.00, 0.01, 0.33, 0.96
22, 15603.71, 36108.64, -3492.39, 14359.27, 2017.38, 2465.17, 9713.91, -40039.02, -25750.15, 28124.93, -1302.35, 9288.80, 0.00, 0.00, 0.00, 0.00, 0.00, 0.00, 0.00
23, 15614.48, 36130.97, -3482.02, 14346.69, 2014.36, 2467.34, 9705.37, -40040.09, -25750.15, 28124.93, -1302.35, 9288.80, 0.00, 0.00, 0.00, 0.00, 0.00, 0.00, 0.00
24, 15614.48, 36130.97, -3482.02, 14346.69, 2014.36, 2467.34, 9705.37, -40040.09, -25700.24, 28152.94, -1291.89, 9311.11, 0.00, 0.00, 0.00, 0.00, 0.00, 0.00, 0.00
25, 15610.37, 36106.80, -3476.43, 14349.95, 2018.16, 2467.03, 9715.95, -40019.97, -25700.24, 28152.94, -1291.89, 9311.11, 0.00, 0.00, 0.00, 0.00, 0.00, 0.00, 0.00
26, 15610.37, 36106.80, -3476.43, 14349.95, 2018.16, 2467.03, 9715.95, -40019.97, -25618.83, 28193.15, -1323.27, 9333.28, 0.00, 0.00, 0.00, 0.00, 0.00, 0.00, 0.00
27, 15586.68, 36108.77, -3469.15, 14343.45, 2038.21, 2482.21, 9709.69, -40029.89, -25618.83, 28193.15, -1323.27, 9333.28, 0.00, 0.00, 0.00, 0.00, 0.00, 0.00, 0.00
28, 15586.68, 36108.77, -3469.15, 14343.45, 2038.21, 2482.21, 9709.69, -40029.89, -25745.59, 28146.23, -1296.80, 9312.32, 0.00, 0.00, 0.00, 0.00, 0.00, 0.00, 0.00
29, 15651.63, 36153.77, -3448.23, 14358.78, 2033.72, 2477.04, 9704.52, -40037.61, -25745.59, 28146.23, -1296.80, 9312.32, 0.00, 0.00, 0.00, 0.00, 0.00, 0.00, 0.00
30, 15651.63, 36153.77, -3448.23, 14358.78, 2033.72, 2477.04, 9704.52, -40037.61, -25703.86, 28175.20, -1276.60, 9329.71, 0.00, 0.00, 0.00, 0.00, 0.00, 0.00, 0.00
31, 15675.08, 36171.16, -3426.77, 14350.49, 2038.05, 2475.21, 9699.09, -40030.43, -25703.86, 28175.20, -1276.60, 9329.71, 0.00, 0.00, 0.00, 0.00, 0.01, 0.33, 0.96
32, 15675.08, 36171.16, -3426.77, 14350.49, 2038.05, 2475.21, 9699.09, -40030.43, -25647.26, 28191.54, -1314.15, 9329.98, 0.00, 0.00, 0.00, 0.00, 0.00, 0.00, 0.00
33, 15590.81, 36130.25, -3453.23, 14341.39, 2027.55, 2467.54, 9694.62, -40028.26, -25647.26, 28191.54, -1314.15, 9329.98, 0.00, 0.00, 0.00, 0.00, 0.00, 0.00, 0.00
34, 15590.81, 36130.25, -3453.23, 14341.39, 2027.55, 2467.54, 9694.62, -40028.26, -25685.60, 28216.24, -1267.70, 9363.37, 0.00, 0.00, 0.00, 0.00, 0.00, 0.00, 0.00
35, 15686.27, 36198.27, -3392.84, 14369.91, 2067.16, 2497.83, 9711.16, -40014.36, -25685.60, 28216.24, -1267.70, 9363.37, 0.00, 0.00, 0.00, 0.00, 0.00, 0.00, 0.00
36, 15686.27, 36198.27, -3392.84, 14369.91, 2067.16, 2497.83, 9711.16, -40014.36, -25651.58, 28215.43, -1266.34, 9363.12, 0.00, 0.00, 0.00, 0.00, 0.00, 0.00, 0.00
37, 15679.64, 36193.35, -3398.14, 14355.70, 2060.20, 2480.24, 9703.96, -40023.10, -25651.58, 28215.43, -1266.34, 9363.12, 0.00, 0.00, 0.00, 0.00, 0.00, 0.00, 0.00
38, 15679.64, 36193.35, -3398.14, 14355.70, 2060.20, 2480.24, 9703.96, -40023.10, -25688.05, 28226.97, -1263.90, 9367.59, 0.00, 0.00, 0.00, 0.00, 0.00, 0.00, 0.00
39, 15699.57, 36203.41, -3377.75, 14367.75, 2060.99, 2501.23, 9703.72, -40009.71, -25688.05, 28226.97, -1263.90, 9367.59, 0.00, 0.00, 0.00, 0.00, 0.00, 0.00, 0.00
40, 15699.57, 36203.41, -3377.75, 14367.75, 2060.99, 2501.23, 9703.72, -40009.71, -25666.28, 28234.37, -1247.63, 9377.00, 0.00, 0.00, 0.00, 0.00, 0.00, 0.00, 0.00
41, 15712.47, 36231.95, -3359.11, 14370.67, 2086.60, 2500.42, 9715.63, -40002.60, -25666.28, 28234.37, -1247.63, 9377.00, 0.00, 0.00, 0.00, 0.00, 0.01, 0.33, 0.96
42, 15712.47, 36231.95, -3359.11, 14370.67, 2086.60, 2500.42, 9715.63, -40002.60, -25611.99, 28269.17, -1249.66, 9390.48, 0.00, 0.00, 0.00, 0.00, 0.00, 0.00, 0.00
43, 15717.41, 36236.63, -3354.24, 14371.48, 2086.78, 2511.37, 9710.71, -40001.57, -25611.99, 28269.17, -1249.66, 9390.48, 0.00, 0.00, 0.00, 0.00, 0.00, 0.00, 0.00
44, 15717.41, 36236.63, -3354.24, 14371.48, 2086.78, 2511.37, 9710.71, -40001.57, -25632.69, 28247.66, -1249.80, 9385.74, 0.00, 0.00, 0.00, 0.00, 0.00, 0.00, 0.00
45, 15686.27, 36218.59, -3364.54, 14357.11, 2078.80, 2494.77, 9700.68, -40009.35, -25632.69, 28247.66, -1249.80, 9385.74, 0.00, 0.00, 0.00, 0.00, 0.00, 0.00, 0.00
46, 15686.27, 36218.59, -3364.54, 14357.11, 2078.80, 2494.77, 9700.68, -40009.35, -25622.45, 28272.25, -1255.03, 9393.99, 0.00, 0.00, 0.00, 0.00, 0.00, 0.00, 0.00
47, 15700.69, 36244.87, -3343.35, 14363.59, 2090.27, 2497.36, 9699.67, -40006.43, -25622.45, 28272.25, -1255.03, 9393.99, 0.00, 0.00, 0.00, 0.00, 0.00, 0.00, 0.00
48, 15700.69, 36244.87, -3343.35, 14363.59, 2090.27, 2497.36, 9699.67, -40006.43, -25623.10, 28267.27, -1238.76, 9395.04, 0.00, 0.00, 0.00, 0.00, 0.00, 0.00, 0.00
49, 15674.79, 36212.89, -3353.66, 14345.66, 2091.14, 2501.45, 9699.20, -39997.82, -25623.10, 28267.27, -1238.76, 9395.04, 0.00, 0.00, 0.00, 0.00, 0.00, 0.00, 0.00
50, 15674.79, 36212.89, -3353.66, 14345.66, 2091.14, 2501.45, 9699.20, -39997.82, -25641.56, 28289.60, -1248.17, 9412.21, 0.00, 0.00, 0.00, 0.00, 0.00, 0.00, 0.00
51, 15714.53, 36243.69, -3318.92, 14366.40, 2105.94, 2515.67, 9696.95, -40016.55, -25641.56, 28289.60, -1248.17, 9412.21, 0.00, 0.00, 0.00, 0.00, 0.01, 0.32, 0.96
52, 15714.53, 36243.69, -3318.92, 14366.40, 2105.94, 2515.67, 9696.95, -40016.55, -25686.67, 28243.98, -1247.45, 9379.02, 0.00, 0.00, 0.00, 0.00, 0.00, 0.00, 0.00
53, 15716.16, 36251.85, -3316.22, 14363.34, 2105.00, 2510.10, 9693.71, -40011.23, -25686.67, 28243.98, -1247.45, 9379.02, 0.00, 0.00, 0.00, 0.00, 0.00, 0.00, 0.00
54, 15716.16, 36251.85, -3316.22, 14363.34, 2105.00, 2510.10, 9693.71, -40011.23, -25601.17, 28311.63, -1221.97, 9417.30, 0.00, 0.00, 0.00, 0.00, 0.00, 0.00, 0.00
55, 15727.80, 36272.34, -3301.38, 14373.42, 2112.78, 2520.74, 9701.48, -39997.11, -25601.17, 28311.63, -1221.97, 9417.30, 0.00, 0.00, 0.00, 0.00, 0.00, 0.00, 0.00
56, 15727.80, 36272.34, -3301.38, 14373.42, 2112.78, 2520.74, 9701.48, -39997.11, -25605.13, 28290.94, -1238.38, 9411.38, 0.00, 0.00, 0.00, 0.00, 0.00, 0.00, 0.00
57, 15720.63, 36266.62, -3300.23, 14361.89, 2124.02, 2509.63, 9704.70, -39990.96, -25605.13, 28290.94, -1238.38, 9411.38, 0.00, 0.00, 0.00, 0.00, 0.00, 0.00, 0.00
58, 15720.63, 36266.62, -3300.23, 14361.89, 2124.02, 2509.63, 9704.70, -39990.96, -25624.91, 28303.30, -1237.68, 9423.70, 0.00, 0.00, 0.00, 0.00, 0.00, 0.00, 0.00
59, 15729.24, 36268.90, -3298.20, 14364.77, 2122.21, 2515.20, 9698.73, -40006.34, -25624.91, 28303.30, -1237.68, 9423.70, 0.00, 0.00, 0.00, 0.00, 0.00, 0.00, 0.00
60, 15729.24, 36268.90, -3298.20, 14364.77, 2122.21, 2515.20, 9698.73, -40006.34, -25629.58, 28300.17, -1238.22, 9416.01, 0.00, 0.00, 0.00, 0.00, 0.01, 0.32, 0.95
61, 15720.00, 36266.40, -3293.66, 14357.53, 2126.30, 2520.18, 9693.64, -40000.68, -25629.58, 28300.17, -1238.22, 9416.01, 0.00, 0.00, 0.00, 0.00, 0.00, 0.00, 0.00
62, 15720.00, 36266.40, -3293.66, 14357.53, 2126.30, 2520.18, 9693.64, -40000.68, -25599.34, 28320.78, -1234.62, 9425.13, 0.00, 0.00, 0.00, 0.00, 0.00, 0.00, 0.00
63, 15735.09, 36293.00, -3273.28, 14366.87, 2134.95, 2520.63, 9700.17, -39994.29, -25599.34, 28320.78, -1234.62, 9425.13, 0.00, 0.00, 0.00, 0.00, 0.00, 0.00, 0.00
64, 15735.09, 36293.00, -3273.28, 14366.87, 2134.95, 2520.63, 9700.17, -39994.29, -25608.64, 28316.73, -1211.02, 9430.36, 0.00, 0.00, 0.00, 0.00, 0.00, 0.00, 0.00
65, 15743.16, 36295.52, -3263.69, 14353.53, 2138.84, 2520.43, 9696.32, -39997.39, -25608.64, 28316.73, -1211.02, 9430.36, 0.00, 0.00, 0.00, 0.00, 0.00, 0.00, 0.00
66, 15743.16, 36295.52, -3263.69, 14353.53, 2138.84, 2520.43, 9696.32, -39997.39, -25605.53, 28323.53, -1223.67, 9432.59, 0.00, 0.00, 0.00, 0.00, 0.00, 0.00, 0.00
67, 15736.25, 36314.30, -3245.52, 14378.79, 2161.10, 2536.61, 9709.64, -39985.14, -25605.53, 28323.53, -1223.67, 9432.59, 0.00, 0.00, 0.00, 0.00, 0.00, 0.00, 0.00
68, 15736.25, 36314.30, -3245.52, 14378.79, 2161.10, 2536.61, 9709.64, -39985.14, -25605.15, 28334.50, -1212.63, 9440.88, 0.00, 0.00, 0.00, 0.00, 0.00, 0.00, 0.00
69, 15720.14, 36294.23, -3261.25, 14346.56, 2146.21, 2523.53, 9692.63, -39993.89, -25605.15, 28334.50, -1212.63, 9440.88, 0.00, 0.00, 0.00, 0.00, 0.00, 0.00, 0.00
70, 15720.14, 36294.23, -3261.25, 14346.56, 2146.21, 2523.53, 9692.63, -39993.89, -25589.62, 28351.51, -1232.88, 9444.91, 0.00, 0.00, 0.00, 0.00, 0.01, 0.32, 0.96
71, 15718.95, 36296.57, -3253.99, 14361.89, 2159.20, 2535.05, 9699.52, -39989.48, -25589.62, 28351.51, -1232.88, 9444.91, 0.00, 0.00, 0.00, 0.00, 0.00, 0.00, 0.00
72, 15718.95, 36296.57, -3253.99, 14361.89, 2159.20, 2535.05, 9699.52, -39989.48, -25607.52, 28327.95, -1229.46, 9427.27, 0.00, 0.00, 0.00, 0.00, 0.00, 0.00, 0.00
73, 15751.30, 36309.13, -3241.47, 14345.13, 2150.22, 2515.47, 9682.95, -40008.55, -25607.52, 28327.95, -1229.46, 9427.27, 0.00, 0.00, 0.00, 0.00, 0.00, 0.00, 0.00
74, 15751.30, 36309.13, -3241.47, 14345.13, 2150.22, 2515.47, 9682.95, -40008.55, -25573.01, 28348.61, -1221.66, 9447.01, 0.00, 0.00, 0.00, 0.00, 0.00, 0.00, 0.00
75, 15746.98, 36314.63, -3230.72, 14369.96, 2179.27, 2542.73, 9708.66, -39984.25, -25573.01, 28348.61, -1221.66, 9447.01, 0.00, 0.00, 0.00, 0.00, 0.00, 0.00, 0.00
76, 15746.98, 36314.63, -3230.72, 14369.96, 2179.27, 2542.73, 9708.66, -39984.25, -25608.84, 28351.55, -1215.22, 9445.09, 0.00, 0.00, 0.00, 0.00, 0.00, 0.00, 0.00
77, 15731.87, 36307.03, -3229.98, 14354.20, 2170.76, 2531.16, 9691.76, -39991.36, -25608.84, 28351.55, -1215.22, 9445.09, 0.00, 0.00, 0.00, 0.00, 0.00, 0.00, 0.00
78, 15731.87, 36307.03, -3229.98, 14354.20, 2170.76, 2531.16, 9691.76, -39991.36, -25595.03, 28356.25, -1227.56, 9448.31, 0.00, 0.00, 0.00, 0.00, 0.00, 0.00, 0.00
79, 15750.31, 36337.68, -3209.33, 14372.42, 2185.31, 2548.19, 9705.62, -39975.09, -25595.03, 28356.25, -1227.56, 9448.31, 0.00, 0.00, 0.00, 0.00, 0.00, 0.00, 0.00
80, 15750.31, 36337.68, -3209.33, 14372.42, 2185.31, 2548.19, 9705.62, -39975.09, -25570.60, 28390.67, -1198.50, 9469.43, 0.00, 0.00, 0.00, 0.00, 0.01, 0.32, 0.97
81, 15745.51, 36335.64, -3214.34, 14341.10, 2174.27, 2532.18, 9689.68, -39989.59, -25570.60, 28390.67, -1198.50, 9469.43, 0.00, 0.00, 0.00, 0.00, 0.00, 0.00, 0.00
82, 15745.51, 36335.64, -3214.34, 14341.10, 2174.27, 2532.18, 9689.68, -39989.59, -25546.52, 28375.18, -1223.29, 9461.83, 0.00, 0.00, 0.00, 0.00, 0.00, 0.00, 0.00
83, 15753.17, 36353.32, -3196.12, 14361.84, 2202.54, 2545.06, 9710.42, -39973.66, -25546.52, 28375.18, -1223.29, 9461.83, 0.00, 0.00, 0.00, 0.00, 0.00, 0.00, 0.00
84, 15753.17, 36353.32, -3196.12, 14361.84, 2202.54, 2545.06, 9710.42, -39973.66, -25575.09, 28387.29, -1198.39, 9476.29, 0.00, 0.00, 0.00, 0.00, 0.00, 0.00, 0.00
85, 15763.86, 36353.30, -3188.43, 14366.78, 2199.90, 2547.90, 9698.78, -39982.08, -25575.09, 28387.29, -1198.39, 9476.29, 0.00, 0.00, 0.00, 0.00, 0.00, 0.00, 0.00
86, 15763.86, 36353.30, -3188.43, 14366.78, 2199.90, 2547.90, 9698.78, -39982.08, -25549.94, 28388.59, -1213.70, 9471.84, 0.00, 0.00, 0.00, 0.00, 0.00, 0.00, 0.00
87, 15752.35, 36359.52, -3190.60, 14359.65, 2202.70, 2546.24, 9700.41, -39972.81, -25549.94, 28388.59, -1213.70, 9471.84, 0.00, 0.00, 0.00, 0.00, 0.00, 0.00, 0.00
88, 15752.35, 36359.52, -3190.60, 14359.65, 2202.70, 2546.24, 9700.41, -39972.81, -25586.46, 28392.19, -1199.26, 9472.60, 0.00, 0.00, 0.00, 0.00, 0.00, 0.00, 0.00
89, 15762.76, 36363.52, -3177.57, 14368.97, 2206.59, 2550.54, 9701.89, -39983.02, -25586.46, 28392.19, -1199.26, 9472.60, 0.00, 0.00, 0.00, 0.00, 0.00, 0.00, 0.00
90, 15762.76, 36363.52, -3177.57, 14368.97, 2206.59, 2550.54, 9701.89, -39983.02, -25584.01, 28391.39, -1210.12, 9477.72, 0.00, 0.00, 0.00, 0.00, 0.01, 0.33, 0.96
91, 15749.69, 36351.07, -3181.12, 14351.41, 2213.45, 2552.39, 9699.45, -39981.73, -25584.01, 28391.39, -1210.12, 9477.72, 0.00, 0.00, 0.00, 0.00, 0.00, 0.00, 0.00
92, 15749.69, 36351.07, -3181.12, 14351.41, 2213.45, 2552.39, 9699.45, -39981.73, -25543.73, 28428.00, -1203.80, 9496.67, 0.00, 0.00, 0.00, 0.00, 0.00, 0.00, 0.00
93, 15771.35, 36374.42, -3159.55, 14369.71, 2225.61, 2559.41, 9702.31, -39970.91, -25543.73, 28428.00, -1203.80, 9496.67, 0.00, 0.00, 0.00, 0.00, 0.00, 0.00, 0.00
94, 15771.35, 36374.42, -3159.55, 14369.71, 2225.61, 2559.41, 9702.31, -39970.91, -25532.46, 28401.53, -1198.05, 9477.74, 0.00, 0.00, 0.00, 0.00, 0.00, 0.00, 0.00
95, 15757.73, 36371.11, -3160.36, 14362.27, 2227.87, 2555.25, 9704.97, -39979.13, -25532.46, 28401.53, -1198.05, 9477.74, 0.00, 0.00, 0.00, 0.00, 0.00, 0.00, 0.00
96, 15757.73, 36371.11, -3160.36, 14362.27, 2227.87, 2555.25, 9704.97, -39979.13, -25569.48, 28421.36, -1206.41, 9489.59, 0.00, 0.00, 0.00, 0.00, 0.00, 0.00, 0.00
97, 15771.64, 36381.22, -3152.20, 14365.38, 2228.67, 2557.06, 9703.96, -39970.42, -25569.48, 28421.36, -1206.41, 9489.59, 0.00, 0.00, 0.00, 0.00, 0.00, 0.00, 0.00
98, 15771.64, 36381.22, -3152.20, 14365.38, 2228.67, 2557.06, 9703.96, -39970.42, -25576.92, 28397.80, -1200.62, 9477.30, 0.00, 0.00, 0.00, 0.00, 0.00, 0.00, 0.00
99, 15752.37, 36380.75, -3157.43, 14344.19, 2228.22, 2545.35, 9692.90, -39986.00, -25576.92, 28397.80, -1200.62, 9477.30, 0.00, 0.00, 0.00, 0.00, 0.01, 0.32, 0.96
100, 15752.37, 36380.75, -3157.43, 14344.19, 2228.22, 2545.35, 9692.90, -39986.00, -25540.40, 28426.01, -1213.36, 9495.51, 0.00, 0.00, 0.00, 0.00, 0.00, 0.00, 0.00
101, 15772.87, 36387.25, -3140.62, 14374.16, 2240.85, 2578.97, 9695.05, -39978.08, -25540.40, 28426.01, -1213.36, 9495.51, 0.00, 0.00, 0.00, 0.00, 0.00, 0.00, 0.00
102, 15772.87, 36387.25, -3140.62, 14374.16, 2240.85, 2578.97, 9695.05, -39978.08, -25544.65, 28419.53, -1207.51, 9492.96, 0.00, 0.00, 0.00, 0.00, 0.00, 0.00, 0.00
103, 15773.00, 36393.20, -3135.44, 14356.91, 2242.91, 2548.70, 9700.63, -39975.96, -25544.65, 28419.53, -1207.51, 9492.96, 0.00, 0.00, 0.00, 0.00, 0.00, 0.00, 0.00
104, 15773.00, 36393.20, -3135.44, 14356.91, 2242.91, 2548.70, 9700.63, -39975.96, -25557.54, 28430.88, -1198.25, 9501.88, 0.00, 0.00, 0.00, 0.00, 0.00, 0.00, 0.00
105, 15771.10, 36397.91, -3133.76, 14356.39, 2244.76, 2554.33, 9703.72, -39974.82, -25557.54, 28430.88, -1198.25, 9501.88, 0.00, 0.00, 0.00, 0.00, 0.00, 0.00, 0.00
106, 15771.10, 36397.91, -3133.76, 14356.39, 2244.76, 2554.33, 9703.72, -39974.82, -25541.63, 28431.89, -1210.48, 9498.91, 0.00, 0.00, 0.00, 0.00, 0.00, 0.00, 0.00
107, 15765.51, 36404.22, -3135.66, 14351.52, 2244.58, 2556.26, 9693.68, -39978.35, -25541.63, 28431.89, -1210.48, 9498.91, 0.00, 0.00, 0.00, 0.00, 0.00, 0.00, 0.00
108, 15765.51, 36404.22, -3135.66, 14351.52, 2244.58, 2556.26, 9693.68, -39978.35, -25545.72, 28451.49, -1217.05, 9511.90, 0.00, 0.00, 0.00, 0.00, 0.00, 0.00, 0.00
109, 15773.27, 36412.82, -3127.32, 14358.09, 2255.51, 2568.22, 9694.98, -39980.12, -25545.72, 28451.49, -1217.05, 9511.90, 0.00, 0.00, 0.00, 0.00, 0.01, 0.33, 0.97
110, 15773.27, 36412.82, -3127.32, 14358.09, 2255.51, 2568.22, 9694.98, -39980.12, -25538.14, 28436.11, -1217.23, 9493.39, 0.00, 0.00, 0.00, 0.00, 0.00, 0.00, 0.00
111, 15774.41, 36401.80, -3124.26, 14346.51, 2249.68, 2557.02, 9683.04, -39985.62, -25538.14, 28436.11, -1217.23, 9493.39, 0.00, 0.00, 0.00, 0.00, 0.00, 0.00, 0.00
112, 15774.41, 36401.80, -3124.26, 14346.51, 2249.68, 2557.02, 9683.04, -39985.62, -25526.52, 28453.30, -1206.95, 9504.32, 0.00, 0.00, 0.00, 0.00, 0.00, 0.00, 0.00
113, 15769.60, 36391.50, -3119.12, 14359.83, 2258.11, 2570.29, 9694.08, -39975.71, -25526.52, 28453.30, -1206.95, 9504.32, 0.00, 0.00, 0.00, 0.00, 0.00, 0.00, 0.00
114, 15769.60, 36391.50, -3119.12, 14359.83, 2258.11, 2570.29, 9694.08, -39975.71, -25519.25, 28443.13, -1200.60, 9495.04, 0.00, 0.00, 0.00, 0.00, 0.00, 0.00, 0.00
115, 15762.72, 36412.71, -3112.46, 14340.97, 2261.71, 2553.42, 9686.78, -39983.71, -25519.25, 28443.13, -1200.60, 9495.04, 0.00, 0.00, 0.00, 0.00, 0.00, 0.00, 0.00
116, 15762.72, 36412.71, -3112.46, 14340.97, 2261.71, 2553.42, 9686.78, -39983.71, -25542.10, 28453.86, -1222.06, 9506.82, 0.00, 0.00, 0.00, 0.00, 0.00, 0.00, 0.00
117, 15750.76, 36399.61, -3116.66, 14347.72, 2266.78, 2566.67, 9690.71, -39974.98, -25542.10, 28453.86, -1222.06, 9506.82, 0.00, 0.00, 0.00, 0.00, 0.00, 0.00, 0.00
118, 15750.76, 36399.61, -3116.66, 14347.72, 2266.78, 2566.67, 9690.71, -39974.98, -25545.09, 28470.56, -1211.17, 9515.09, 0.00, 0.00, 0.00, 0.00, 0.00, 0.00, 0.00
119, 15767.61, 36398.34, -3106.62, 14339.25, 2257.59, 2556.17, 9676.45, -39987.27, -25545.09, 28470.56, -1211.17, 9515.09, 0.00, 0.00, 0.00, 0.00, 0.01, 0.33, 0.96
120, 15767.61, 36398.34, -3106.62, 14339.25, 2257.59, 2556.17, 9676.45, -39987.27, -25522.36, 28448.40, -1210.97, 9505.26, 0.00, 0.00, 0.00, 0.00, 0.00, 0.00, 0.00
121, 15775.06, 36422.59, -3092.39, 14353.35, 2274.33, 2564.35, 9686.13, -39983.36, -25522.36, 28448.40, -1210.97, 9505.26, 0.00, 0.00, 0.00, 0.00, 0.00, 0.00, 0.00
122, 15775.06, 36422.59, -3092.39, 14353.35, 2274.33, 2564.35, 9686.13, -39983.36, -25524.22, 28455.92, -1213.99, 9501.64, 0.00, 0.00, 0.00, 0.00, 0.00, 0.00, 0.00
123, 15769.33, 36417.52, -3100.77, 14336.77, 2267.43, 2550.85, 9671.60, -39991.27, -25524.22, 28455.92, -1213.99, 9501.64, 0.00, 0.00, 0.00, 0.00, 0.00, 0.00, 0.00
124, 15769.33, 36417.52, -3100.77, 14336.77, 2267.43, 2550.85, 9671.60, -39991.27, -25546.41, 28455.18, -1214.01, 9506.33, 0.00, 0.00, 0.00, 0.00, 0.00, 0.00, 0.00
125, 15781.36, 36436.58, -3083.11, 14360.62, 2291.30, 2577.63, 9694.93, -39973.84, -25546.41, 28455.18, -1214.01, 9506.33, 0.00, 0.00, 0.00, 0.00, 0.00, 0.00, 0.00
126, 15781.36, 36436.58, -3083.11, 14360.62, 2291.30, 2577.63, 9694.93, -39973.84, -25525.83, 28481.98, -1209.68, 9518.98, 0.00, 0.00, 0.00, 0.00, 0.00, 0.00, 0.00
127, 15767.41, 36426.32, -3082.08, 14339.78, 2284.15, 2562.40, 9685.37, -39972.96, -25525.83, 28481.98, -1209.68, 9518.98, 0.00, 0.00, 0.00, 0.00, 0.00, 0.00, 0.00
128, 15767.41, 36426.32, -3082.08, 14339.78, 2284.15, 2562.40, 9685.37, -39972.96, -25521.11, 28472.59, -1202.37, 9523.52, 0.00, 0.00, 0.00, 0.00, 0.00, 0.00, 0.00
129, 15784.82, 36470.85, -3074.66, 14351.05, 2293.56, 2571.37, 9689.15, -39974.66, -25521.11, 28472.59, -1202.37, 9523.52, 0.00, 0.00, 0.00, 0.00, 0.01, 0.33, 0.97
130, 15784.82, 36470.85, -3074.66, 14351.05, 2293.56, 2571.37, 9689.15, -39974.66, -25487.02, 28486.52, -1207.66, 9521.46, 0.00, 0.00, 0.00, 0.00, 0.00, 0.00, 0.00
131, 15757.38, 36421.18, -3091.00, 14320.00, 2273.66, 2551.65, 9668.00, -39987.92, -25487.02, 28486.52, -1207.66, 9521.46, 0.00, 0.00, 0.00, 0.00, 0.00, 0.00, 0.00
132, 15757.38, 36421.18, -3091.00, 14320.00, 2273.66, 2551.65, 9668.00, -39987.92, -25540.04, 28468.32, -1210.59, 9516.95, 0.00, 0.00, 0.00, 0.00, 0.00, 0.00, 0.00
133, 15774.23, 36429.25, -3064.78, 14343.29, 2305.00, 2570.54, 9686.51, -39976.74, -25540.04, 28468.32, -1210.59, 9516.95, 0.00, 0.00, 0.00, 0.00, 0.00, 0.00, 0.00
134, 15774.23, 36429.25, -3064.78, 14343.29, 2305.00, 2570.54, 9686.51, -39976.74, -25518.25, 28489.76, -1201.67, 9521.62, 0.00, 0.00, 0.00, 0.00, 0.00, 0.00, 0.00
135, 15774.23, 36432.25, -3058.52, 14348.46, 2295.23, 2568.73, 9672.02, -39991.00, -25518.25, 28489.76, -1201.67, 9521.62, 0.00, 0.00, 0.00, 0.00, 0.00, 0.00, 0.00
136, 15774.23, 36432.25, -3058.52, 14348.46, 2295.23, 2568.73, 9672.02, -39991.00, -25520.77, 28473.33, -1197.79, 9517.93, 0.00, 0.00, 0.00, 0.00, 0.00, 0.00, 0.00
137, 15779.91, 36465.57, -3049.76, 14331.38, 2310.43, 2562.43, 9685.84, -39973.90, -25520.77, 28473.33, -1197.79, 9517.93, 0.00, 0.00, 0.00, 0.00, 0.00, 0.00, 0.00
138, 15779.91, 36465.57, -3049.76, 14331.38, 2310.43, 2562.43, 9685.84, -39973.90, -25511.92, 28509.02, -1188.04, 9539.03, 0.00, 0.00, 0.00, 0.00, 0.01, 0.33, 0.96
139, 15770.14, 36458.89, -3056.80, 14343.05, 2302.10, 2570.32, 9673.48, -39982.66, -25511.92, 28509.02, -1188.04, 9539.03, 0.00, 0.00, 0.00, 0.00, 0.00, 0.00, 0.00
140, 15770.14, 36458.89, -3056.80, 14343.05, 2302.10, 2570.32, 9673.48, -39982.66, -25509.33, 28488.62, -1198.63, 9522.63, 0.00, 0.00, 0.00, 0.00, 0.00, 0.00, 0.00
141, 15797.74, 36475.63, -3032.80, 14350.65, 2321.81, 2579.28, 9694.44, -39960.67, -25509.33, 28488.62, -1198.63, 9522.63, 0.00, 0.00, 0.00, 0.00, 0.00, 0.00, 0.00
142, 15797.74, 36475.63, -3032.80, 14350.65, 2321.81, 2579.28, 9694.44, -39960.67, -25521.20, 28505.58, -1195.15, 9539.30, 0.00, 0.00, 0.00, 0.00, 0.00, 0.00, 0.00
143, 15764.19, 36451.09, -3045.92, 14324.38, 2308.06, 2555.83, 9672.47, -39985.86, -25521.20, 28505.58, -1195.15, 9539.30, 0.00, 0.00, 0.00, 0.00, 0.00, 0.00, 0.00
144, 15764.19, 36451.09, -3045.92, 14324.38, 2308.06, 2555.83, 9672.47, -39985.86, -25498.06, 28497.40, -1189.87, 9533.89, 0.00, 0.00, 0.00, 0.00, 0.00, 0.00, 0.00
145, 15789.99, 36468.30, -3029.71, 14350.80, 2319.19, 2573.24, 9682.95, -39969.14, -25498.06, 28497.40, -1189.87, 9533.89, 0.00, 0.00, 0.00, 0.00, 0.00, 0.00, 0.00
146, 15789.99, 36468.30, -3029.71, 14350.80, 2319.19, 2573.24, 9682.95, -39969.14, -25526.12, 28505.67, -1199.33, 9534.92, 0.00, 0.00, 0.00, 0.00, 0.00, 0.00, 0.00
147, 15789.05, 36486.59, -3028.84, 14336.79, 2319.66, 2571.81, 9674.95, -39985.01, -25526.12, 28505.67, -1199.33, 9534.92, 0.00, 0.00, 0.00, 0.00, 0.00, 0.00, 0.00
148, 15789.05, 36486.59, -3028.84, 14336.79, 2319.66, 2571.81, 9674.95, -39985.01, -25496.34, 28509.76, -1197.99, 9543.12, 0.00, 0.00, 0.00, 0.00, 0.01, 0.33, 0.97
149, 15779.95, 36462.20, -3023.54, 14346.40, 2323.37, 2574.81, 9680.25, -39967.69, -25496.34, 28509.76, -1197.99, 9543.12, 0.00, 0.00, 0.00, 0.00, 0.00, 0.00, 0.00
150, 15779.95, 36462.20, -3023.54, 14346.40, 2323.37, 2574.81, 9680.25, -39967.69, -25515.01, 28514.50, -1202.99, 9533.73, 0.00, 0.00, 0.00, 0.00, 0.00, 0.00, 0.00
151, 15780.31, 36465.75, -3019.25, 14345.01, 2324.78, 2573.33, 9674.50, -39977.28, -25515.01, 28514.50, -1202.99, 9533.73, 0.00, 0.00, 0.00, 0.00, 0.00, 0.00, 0.00
152, 15780.31, 36465.75, -3019.25, 14345.01, 2324.78, 2573.33, 9674.50, -39977.28, -25492.34, 28512.71, -1201.94, 9539.14, 0.00, 0.00, 0.00, 0.00, 0.00, 0.00, 0.00
153, 15778.81, 36477.42, -3020.08, 14331.40, 2326.59, 2574.03, 9677.08, -39977.90, -25492.34, 28512.71, -1201.94, 9539.14, 0.00, 0.00, 0.00, 0.00, 0.00, 0.00, 0.00
154, 15778.81, 36477.42, -3020.08, 14331.40, 2326.59, 2574.03, 9677.08, -39977.90, -25509.67, 28529.56, -1194.01, 9555.68, 0.00, 0.00, 0.00, 0.00, 0.00, 0.00, 0.00
155, 15801.45, 36510.16, -2998.17, 14352.79, 2342.78, 2585.45, 9684.61, -39968.11, -25509.67, 28529.56, -1194.01, 9555.68, 0.00, 0.00, 0.00, 0.00, 0.00, 0.00, 0.00
156, 15801.45, 36510.16, -2998.17, 14352.79, 2342.78, 2585.45, 9684.61, -39968.11, -25519.46, 28510.25, -1190.48, 9537.15, 0.00, 0.00, 0.00, 0.00, 0.00, 0.00, 0.00
157, 15780.20, 36488.24, -3008.19, 14332.16, 2326.64, 2569.20, 9665.34, -39985.21, -25519.46, 28510.25, -1190.48, 9537.15, 0.00, 0.00, 0.00, 0.00, 0.00, 0.00, 0.00
158, 15780.20, 36488.24, -3008.19, 14332.16, 2326.64, 2569.20, 9665.34, -39985.21, -25506.27, 28530.55, -1192.04, 9551.79, 0.00, 0.00, 0.00, 0.00, 0.01, 0.33, 0.97
159, 15791.60, 36483.52, -2994.46, 14341.75, 2348.10, 2579.66, 9684.25, -39965.75, -25506.27, 28530.55, -1192.04, 9551.79, 0.00, 0.00, 0.00, 0.00, 0.00, 0.00, 0.00
160, 15791.60, 36483.52, -2994.46, 14341.75, 2348.10, 2579.66, 9684.25, -39965.75, -25465.34, 28544.99, -1187.41, 9561.14, 0.00, 0.00, 0.00, 0.00, 0.00, 0.00, 0.00
161, 15782.48, 36483.54, -2996.68, 14331.76, 2341.52, 2575.93, 9674.35, -39965.30, -25465.34, 28544.99, -1187.41, 9561.14, 0.00, 0.00, 0.00, 0.00, 0.00, 0.00, 0.00
162, 15782.48, 36483.54, -2996.68, 14331.76, 2341.52, 2575.93, 9674.35, -39965.30, -25493.64, 28534.08, -1192.67, 9550.63, 0.00, 0.00, 0.00, 0.00, 0.00, 0.00, 0.00
163, 15804.22, 36516.45, -2981.14, 14349.51, 2356.21, 2589.43, 9679.07, -39974.53, -25493.64, 28534.08, -1192.67, 9550.63, 0.00, 0.00, 0.00, 0.00, 0.00, 0.00, 0.00
164, 15804.22, 36516.45, -2981.14, 14349.51, 2356.21, 2589.43, 9679.07, -39974.53, -25511.83, 28530.32, -1199.71, 9552.84, 0.00, 0.00, 0.00, 0.00, 0.00, 0.00, 0.00
165, 15795.53, 36513.61, -2983.56, 14335.38, 2344.83, 2582.90, 9668.25, -39978.80, -25511.83, 28530.32, -1199.71, 9552.84, 0.00, 0.00, 0.00, 0.00, 0.00, 0.00, 0.00
166, 15795.53, 36513.61, -2983.56, 14335.38, 2344.83, 2582.90, 9668.25, -39978.80, -25481.19, 28552.16, -1188.51, 9563.37, 0.00, 0.00, 0.00, 0.00, 0.00, 0.00, 0.00
167, 15795.11, 36520.83, -2972.47, 14344.66, 2359.72, 2584.55, 9683.20, -39968.58, -25481.19, 28552.16, -1188.51, 9563.37, 0.00, 0.00, 0.00, 0.00, 0.00, 0.00, 0.00
168, 15795.11, 36520.83, -2972.47, 14344.66, 2359.72, 2584.55, 9683.20, -39968.58, -25519.03, 28531.42, -1186.68, 9552.73, 0.00, 0.00, 0.00, 0.00, 0.02, 0.33, 0.96
169, 15787.26, 36492.62, -2973.36, 14333.99, 2355.05, 2573.38, 9669.83, -39979.11, -25519.03, 28531.42, -1186.68, 9552.73, 0.00, 0.00, 0.00, 0.00, 0.00, 0.00, 0.00
170, 15787.26, 36492.62, -2973.36, 14333.99, 2355.05, 2573.38, 9669.83, -39979.11, -25487.29, 28550.44, -1185.96, 9562.19, 0.00, 0.00, 0.00, 0.00, 0.00, 0.00, 0.00
171, 15797.59, 36522.10, -2957.20, 14350.38, 2372.91, 2597.43, 9684.07, -39961.81, -25487.29, 28550.44, -1185.96, 9562.19, 0.00, 0.00, 0.00, 0.00, 0.00, 0.00, 0.00
172, 15797.59, 36522.10, -2957.20, 14350.38, 2372.91, 2597.43, 9684.07, -39961.81, -25477.68, 28551.63, -1181.09, 9560.67, 0.00, 0.00, 0.00, 0.00, 0.00, 0.00, 0.00
173, 15792.96, 36518.12, -2960.38, 14335.34, 2360.59, 2584.38, 9665.97, -39983.83, -25477.68, 28551.63, -1181.09, 9560.67, 0.00, 0.00, 0.00, 0.00, 0.00, 0.00, 0.00
174, 15792.96, 36518.12, -2960.38, 14335.34, 2360.59, 2584.38, 9665.97, -39983.83, -25489.17, 28553.82, -1187.97, 9567.64, 0.00, 0.00, 0.00, 0.00, 0.00, 0.00, 0.00
175, 15801.12, 36543.11, -2950.50, 14349.37, 2381.33, 2595.84, 9686.55, -39962.17, -25489.17, 28553.82, -1187.97, 9567.64, 0.00, 0.00, 0.00, 0.00, 0.00, 0.00, 0.00
176, 15801.12, 36543.11, -2950.50, 14349.37, 2381.33, 2595.84, 9686.55, -39962.17, -25472.81, 28573.64, -1174.34, 9570.88, 0.00, 0.00, 0.00, 0.00, 0.00, 0.00, 0.00
177, 15797.72, 36526.95, -2950.85, 14334.08, 2369.06, 2582.54, 9665.97, -39979.98, -25472.81, 28573.64, -1174.34, 9570.88, 0.00, 0.00, 0.00, 0.00, 0.01, 0.32, 0.96
178, 15797.72, 36526.95, -2950.85, 14334.08, 2369.06, 2582.54, 9665.97, -39979.98, -25482.44, 28561.24, -1184.71, 9572.87, 0.00, 0.00, 0.00, 0.00, 0.00, 0.00, 0.00
179, 15817.55, 36533.32, -2943.26, 14340.83, 2383.03, 2588.73, 9682.66, -39961.43, -25482.44, 28561.24, -1184.71, 9572.87, 0.00, 0.00, 0.00, 0.00, 0.00, 0.00, 0.00
180, 15817.55, 36533.32, -2943.26, 14340.83, 2383.03, 2588.73, 9682.66, -39961.43, -25480.16, 28569.78, -1173.78, 9577.01, 0.00, 0.00, 0.00, 0.00, 0.00, 0.00, 0.00
181, 15805.32, 36540.32, -2936.19, 14350.89, 2378.67, 2599.26, 9675.40, -39971.04, -25480.16, 28569.78, -1173.78, 9577.01, 0.00, 0.00, 0.00, 0.00, 0.00, 0.00, 0.00
182, 15805.32, 36540.32, -2936.19, 14350.89, 2378.67, 2599.26, 9675.40, -39971.04, -25477.77, 28564.52, -1179.55, 9573.39, 0.00, 0.00, 0.00, 0.00, 0.00, 0.00, 0.00
183, 15807.22, 36550.20, -2928.26, 14349.42, 2395.70, 2595.89, 9686.53, -39961.59, -25477.77, 28564.52, -1179.55, 9573.39, 0.00, 0.00, 0.00, 0.00, 0.00, 0.00, 0.00
184, 15807.22, 36550.20, -2928.26, 14349.42, 2395.70, 2595.89, 9686.53, -39961.59, -25478.66, 28591.86, -1180.48, 9588.58, 0.00, 0.00, 0.00, 0.00, 0.00, 0.00, 0.00
185, 15807.87, 36539.40, -2927.47, 14349.62, 2388.08, 2598.28, 9673.43, -39966.13, -25478.66, 28591.86, -1180.48, 9588.58, 0.00, 0.00, 0.00, 0.00, 0.00, 0.00, 0.00
186, 15807.87, 36539.40, -2927.47, 14349.62, 2388.08, 2598.28, 9673.43, -39966.13, -25473.43, 28578.56, -1192.33, 9576.63, 0.00, 0.00, 0.00, 0.00, 0.00, 0.00, 0.00
187, 15801.77, 36546.96, -2926.83, 14343.52, 2392.49, 2594.97, 9676.63, -39967.93, -25473.43, 28578.56, -1192.33, 9576.63, 0.00, 0.00, 0.00, 0.00, 0.01, 0.32, 0.97
188, 15801.77, 36546.96, -2926.83, 14343.52, 2392.49, 2594.97, 9676.63, -39967.93, -25485.30, 28585.60, -1182.59, 9582.26, 0.00, 0.00, 0.00, 0.00, 0.00, 0.00, 0.00
189, 15807.98, 36552.61, -2920.28, 14340.74, 2394.23, 2598.17, 9669.07, -39977.46, -25485.30, 28585.60, -1182.59, 9582.26, 0.00, 0.00, 0.00, 0.00, 0.00, 0.00, 0.00
190, 15807.98, 36552.61, -2920.28, 14340.74, 2394.23, 2598.17, 9669.07, -39977.46, -25486.71, 28566.54, -1182.12, 9569.61, 0.00, 0.00, 0.00, 0.00, 0.00, 0.00, 0.00
191, 15814.62, 36554.27, -2910.76, 14350.62, 2402.92, 2604.11, 9677.19, -39968.52, -25486.71, 28566.54, -1182.12, 9569.61, 0.00, 0.00, 0.00, 0.00, 0.00, 0.00, 0.00
192, 15814.62, 36554.27, -2910.76, 14350.62, 2402.92, 2604.11, 9677.19, -39968.52, -25479.04, 28599.77, -1170.47, 9593.19, 0.00, 0.00, 0.00, 0.00, 0.00, 0.00, 0.00
193, 15810.93, 36563.47, -2910.02, 14344.72, 2400.96, 2598.08, 9674.21, -39965.27, -25479.04, 28599.77, -1170.47, 9593.19, 0.00, 0.00, 0.00, 0.00, 0.00, 0.00, 0.00
194, 15810.93, 36563.47, -2910.02, 14344.72, 2400.96, 2598.08, 9674.21, -39965.27, -25477.72, 28580.08, -1191.35, 9582.21, 0.00, 0.00, 0.00, 0.00, 0.00, 0.00, 0.00
195, 15830.98, 36582.29, -2906.46, 14338.20, 2397.74, 2593.27, 9668.13, -39976.00, -25477.72, 28580.08, -1191.35, 9582.21, 0.00, 0.00, 0.00, 0.00, 0.00, 0.00, 0.00
196, 15830.98, 36582.29, -2906.46, 14338.20, 2397.74, 2593.27, 9668.13, -39976.00, -25489.30, 28593.74, -1177.83, 9586.13, 0.00, 0.00, 0.00, 0.00, 0.00, 0.00, 0.00
197, 15815.33, 36557.93, -2895.09, 14338.17, 2407.57, 2597.23, 9670.93, -39972.32, -25489.30, 28593.74, -1177.83, 9586.13, 0.00, 0.00, 0.00, 0.00, 0.01, 0.32, 0.97
198, 15815.33, 36557.93, -2895.09, 14338.17, 2407.57, 2597.23, 9670.93, -39972.32, -25474.80, 28580.57, -1181.00, 9575.58, 0.00, 0.00, 0.00, 0.00, 0.00, 0.00, 0.00
199, 15804.43, 36552.36, -2898.37, 14340.39, 2404.20, 2599.24, 9666.17, -39976.23, -25474.80, 28580.57, -1181.00, 9575.58, 0.00, 0.00, 0.00, 0.00, 0.00, 0.00, 0.00
200, 15804.43, 36552.36, -2898.37, 14340.39, 2404.20, 2599.24, 9666.17, -39976.23, -25473.57, 28601.13, -1178.61, 9584.00, 0.00, 0.00, 0.00, 0.00, 0.00, 0.00, 0.00
201, 15809.14, 36560.41, -2890.55, 14341.06, 2414.26, 2604.13, 9672.18, -39968.11, -25473.57, 28601.13, -1178.61, 9584.00, 0.00, 0.00, 0.00, 0.00, 0.00, 0.00, 0.00
202, 15809.14, 36560.41, -2890.55, 14341.06, 2414.26, 2604.13, 9672.18, -39968.11, -25464.45, 28596.46, -1190.90, 9586.06, 0.00, 0.00, 0.00, 0.00, 0.00, 0.00, 0.00
203, 15801.21, 36571.12, -2894.77, 14329.59, 2403.26, 2592.11, 9661.14, -39974.51, -25464.45, 28596.46, -1190.90, 9586.06, 0.00, 0.00, 0.00, 0.00, 0.00, 0.00, 0.00
204, 15801.21, 36571.12, -2894.77, 14329.59, 2403.26, 2592.11, 9661.14, -39974.51, -25475.73, 28605.98, -1177.18, 9579.40, 0.00, 0.00, 0.00, 0.00, 0.00, 0.00, 0.00
205, 15818.96, 36580.73, -2883.89, 14339.96, 2422.73, 2600.94, 9675.18, -39966.41, -25475.73, 28605.98, -1177.18, 9579.40, 0.00, 0.00, 0.00, 0.00, 0.00, 0.00, 0.00
206, 15818.96, 36580.73, -2883.89, 14339.96, 2422.73, 2600.94, 9675.18, -39966.41, -25459.91, 28607.13, -1182.74, 9594.82, 0.00, 0.00, 0.00, 0.00, 0.00, 0.00, 0.00
207, 15808.87, 36563.09, -2887.13, 14330.78, 2413.38, 2597.09, 9666.84, -39970.66, -25459.91, 28607.13, -1182.74, 9594.82, 0.00, 0.00, 0.00, 0.00, 0.01, 0.32, 0.96
208, 15808.87, 36563.09, -2887.13, 14330.78, 2413.38, 2597.09, 9666.84, -39970.66, -25476.61, 28608.51, -1184.26, 9597.86, 0.00, 0.00, 0.00, 0.00, 0.00, 0.00, 0.00
209, 15810.57, 36575.48, -2881.27, 14337.37, 2420.18, 2604.67, 9672.76, -39964.52, -25476.61, 28608.51, -1184.26, 9597.86, 0.00, 0.00, 0.00, 0.00, 0.00, 0.00, 0.00
210, 15810.57, 36575.48, -2881.27, 14337.37, 2420.18, 2604.67, 9672.76, -39964.52, -25457.12, 28615.04, -1181.38, 9596.77, 0.00, 0.00, 0.00, 0.00, 0.00, 0.00, 0.00
211, 15817.50, 36571.25, -2876.98, 14332.18, 2418.75, 2600.58, 9662.03, -39974.93, -25457.12, 28615.04, -1181.38, 9596.77, 0.00, 0.00, 0.00, 0.00, 0.00, 0.00, 0.00
212, 15817.50, 36571.25, -2876.98, 14332.18, 2418.75, 2600.58, 9662.03, -39974.93, -25456.65, 28617.23, -1176.17, 9594.96, 0.00, 0.00, 0.00, 0.00, 0.00, 0.00, 0.00
213, 15818.91, 36589.43, -2863.86, 14346.74, 2435.29, 2616.09, 9677.57, -39962.44, -25456.65, 28617.23, -1176.17, 9594.96, 0.00, 0.00, 0.00, 0.00, 0.00, 0.00, 0.00
214, 15818.91, 36589.43, -2863.86, 14346.74, 2435.29, 2616.09, 9677.57, -39962.44, -25449.79, 28620.42, -1168.91, 9597.64, 0.00, 0.00, 0.00, 0.00, 0.00, 0.00, 0.00
215, 15821.28, 36621.23, -2855.06, 14337.57, 2439.54, 2607.06, 9673.01, -39964.63, -25449.79, 28620.42, -1168.91, 9597.64, 0.00, 0.00, 0.00, 0.00, 0.00, 0.00, 0.00
216, 15821.28, 36621.23, -2855.06, 14337.57, 2439.54, 2607.06, 9673.01, -39964.63, -25446.30, 28634.35, -1160.77, 9606.42, 0.00, 0.00, 0.00, 0.00, 0.01, 0.32, 0.96
217, 15838.31, 36604.02, -2846.61, 14350.04, 2450.65, 2613.72, 9684.99, -39950.75, -25446.30, 28634.35, -1160.77, 9606.42, 0.00, 0.00, 0.00, 0.00, 0.00, 0.00, 0.00
218, 15838.31, 36604.02, -2846.61, 14350.04, 2450.65, 2613.72, 9684.99, -39950.75, -25441.38, 28635.36, -1152.12, 9605.97, 0.00, 0.00, 0.00, 0.00, 0.00, 0.00, 0.00
219, 15818.75, 36580.98, -2849.09, 14329.86, 2439.00, 2604.45, 9670.48, -39961.83, -25441.38, 28635.36, -1152.12, 9605.97, 0.00, 0.00, 0.00, 0.00, 0.00, 0.00, 0.00
220, 15818.75, 36580.98, -2849.09, 14329.86, 2439.00, 2604.45, 9670.48, -39961.83, -25429.60, 28638.60, -1165.11, 9607.92, 0.00, 0.00, 0.00, 0.00, 0.00, 0.00, 0.00
