%OpenBCI Raw EEG Data
%
%Sample Rate = 250.0 Hz
%First Column = SampleIndex
%Other Columns = EEG data in microvolts followed by Accel Data (in G) interleaved with Aux Data
0, 0.00, 0.00, 0.00, 0.00, 0.00, 0.00, 0.00, 0.00, -27291.61, 28806.19, 648.63, 13793.46, 0.00, 0.00, 0.00, 0.00, -0.03, 0.34, 0.96
1, 13458.95, 38171.41, 35.76, 16068.53, 102.80, -283.06, 8498.31, -36389.20, -27291.61, 28806.19, 648.63, 13793.46, 0.00, 0.00, 0.00, 0.00, 0.00, 0.00, 0.00
2, 13458.95, 38171.41, 35.76, 16068.53, 102.80, -283.06, 8498.31, -36389.20, -27237.21, 28873.16, 755.94, 14283.61, 0.00, 0.00, 0.00, 0.00, 0.00, 0.00, 0.00
3, 13443.48, 38153.64, 29.84, 16058.72, 90.50, -291.71, 8483.98, -36393.38, -27237.21, 28873.16, 755.94, 14283.61, 0.00, 0.00, 0.00, 0.00, 0.00, 0.00, 0.00
4, 13443.48, 38153.64, 29.84, 16058.72, 90.50, -291.71, 8483.98, -36393.38, -27234.26, 28849.75, 757.21, 14273.18, 0.00, 0.00, 0.00, 0.00, 0.00, 0.00, 0.00
5, 13459.71, 38163.14, 35.70, 16071.64, 102.19, -283.13, 8497.93, -36387.34, -27234.26, 28849.75, 757.21, 14273.18, 0.00, 0.00, 0.00, 0.00, 0.00, 0.00, 0.00
6, 13459.71, 38163.14, 35.70, 16071.64, 102.19, -283.13, 8497.93, -36387.34, -27235.58, 28874.27, 761.30, 14282.90, 0.00, 0.00, 0.00, 0.00, -0.03, 0.33, 0.95
7, 13455.28, 38164.95, 33.04, 16063.33, 99.26, -288.72, 8492.32, -36388.59, -27235.58, 28874.27, 761.30, 14282.90, 0.00, 0.00, 0.00, 0.00, 0.00, 0.00, 0.00
8, 13455.28, 38164.95, 33.04, 16063.33, 99.26, -288.72, 8492.32, -36388.59, -27223.82, 28854.07, 756.49, 14274.74, 0.00, 0.00, 0.00, 0.00, 0.00, 0.00, 0.00
9, 13455.57, 38169.16, 32.59, 16070.37, 100.16, -283.76, 8498.92, -36385.73, -27223.82, 28854.07, 756.49, 14274.74, 0.00, 0.00, 0.00, 0.00, 0.00, 0.00, 0.00
10, 13455.57, 38169.16, 32.59, 16070.37, 100.16, -283.76, 8498.92, -36385.73, -27232.04, 28880.69, 760.34, 14288.49, 0.00, 0.00, 0.00, 0.00, 0.00, 0.00, 0.00
11, 13452.93, 38155.25, 29.82, 16065.14, 96.58, -287.44, 8493.82, -36391.30, -27232.04, 28880.69, 760.34, 14288.49, 0.00, 0.00, 0.00, 0.00, 0.00, 0.00, 0.00
12, 13452.93, 38155.25, 29.82, 16065.14, 96.58, -287.44, 8493.82, -36391.30, -27232.72, 28846.91, 752.38, 14266.04, 0.00, 0.00, 0.00, 0.00, 0.00, 0.00, 0.00
13, 13444.57, 38156.97, 26.64, 16064.44, 91.64, -290.66, 8490.38, -36396.48, -27232.72, 28846.91, 752.38, 14266.04, 0.00, 0.00, 0.00, 0.00, 0.00, 0.00, 0.00
14, 13444.57, 38156.97, 26.64, 16064.44, 91.64, -290.66, 8490.38, -36396.48, -27238.01, 28874.47, 750.95, 14280.48, 0.00, 0.00, 0.00, 0.00, 0.00, 0.00, 0.00
15, 13450.05, 38154.88, 28.70, 16066.28, 96.74, -287.62, 8492.66, -36393.63, -27238.01, 28874.47, 750.95, 14280.48, 0.00, 0.00, 0.00, 0.00, 0.00, 0.00, 0.00
16, 13450.05, 38154.88, 28.70, 16066.28, 96.74, -287.62, 8492.66, -36393.63, -27235.46, 28843.85, 753.86, 14265.67, 0.00, 0.00, 0.00, 0.00, -0.03, 0.33, 0.94
17, 13452.75, 38157.22, 28.45, 16060.80, 93.16, -291.33, 8488.63, -36396.33, -27235.46, 28843.85, 753.86, 14265.67, 0.00, 0.00, 0.00, 0.00, 0.00, 0.00, 0.00
18, 13452.75, 38157.22, 28.45, 16060.80, 93.16, -291.33, 8488.63, -36396.33, -27235.40, 28868.17, 749.72, 14278.83, 0.00, 0.00, 0.00, 0.00, 0.00, 0.00, 0.00
19, 13464.36, 38186.52, 38.15, 16071.66, 104.32, -285.10, 8498.60, -36389.82, -27235.40, 28868.17, 749.72, 14278.83, 0.00, 0.00, 0.00, 0.00, 0.00, 0.00, 0.00
20, 13464.36, 38186.52, 38.15, 16071.66, 104.32, -285.10, 8498.60, -36389.82, -27230.73, 28847.41, 762.62, 14267.23, 0.00, 0.00, 0.00, 0.00, 0.00, 0.00, 0.00
21, 13445.71, 38149.26, 28.23, 16063.06, 92.94, -291.18, 8489.24, -36397.73, -27230.73, 28847.41, 762.62, 14267.23, 0.00, 0.00, 0.00, 0.00, 0.00, 0.00, 0.00
22, 13445.71, 38149.26, 28.23, 16063.06, 92.94, -291.18, 8489.24, -36397.73, -27237.25, 28868.10, 750.06, 14280.60, 0.00, 0.00, 0.00, 0.00, 0.00, 0.00, 0.00
23, 13458.70, 38161.63, 33.97, 16077.27, 103.09, -282.01, 8501.71, -36392.08, -27237.25, 28868.10, 750.06, 14280.60, 0.00, 0.00, 0.00, 0.00, 0.00, 0.00, 0.00
24, 13458.70, 38161.63, 33.97, 16077.27, 103.09, -282.01, 8501.71, -36392.08, -27239.78, 28844.90, 755.29, 14261.22, 0.00, 0.00, 0.00, 0.00, 0.00, 0.00, 0.00
25, 13441.78, 38147.30, 22.78, 16057.11, 86.79, -298.60, 8481.30, -36406.34, -27239.78, 28844.90, 755.29, 14261.22, 0.00, 0.00, 0.00, 0.00, 0.00, 0.00, 0.00
26, 13441.78, 38147.30, 22.78, 16057.11, 86.79, -298.60, 8481.30, -36406.34, -27245.77, 28858.83, 740.51, 14268.73, 0.00, 0.00, 0.00, 0.00, -0.02, 0.34, 0.95
27, 13458.28, 38162.83, 29.24, 16070.32, 97.41, -287.85, 8494.69, -36397.78, -27245.77, 28858.83, 740.51, 14268.73, 0.00, 0.00, 0.00, 0.00, 0.00, 0.00, 0.00
28, 13458.28, 38162.83, 29.24, 16070.32, 97.41, -287.85, 8494.69, -36397.78, -27240.67, 28842.51, 750.86, 14260.05, 0.00, 0.00, 0.00, 0.00, 0.00, 0.00, 0.00
29, 13442.83, 38164.51, 25.59, 16056.53, 87.13, -297.12, 8481.53, -36405.13, -27240.67, 28842.51, 750.86, 14260.05, 0.00, 0.00, 0.00, 0.00, 0.00, 0.00, 0.00
30, 13442.83, 38164.51, 25.59, 16056.53, 87.13, -297.12, 8481.53, -36405.13, -27236.90, 28858.58, 748.90, 14273.31, 0.00, 0.00, 0.00, 0.00, 0.00, 0.00, 0.00
31, 13461.34, 38171.55, 37.84, 16077.65, 106.75, -282.37, 8504.48, -36390.58, -27236.90, 28858.58, 748.90, 14273.31, 0.00, 0.00, 0.00, 0.00, 0.00, 0.00, 0.00
32, 13461.34, 38171.55, 37.84, 16077.65, 106.75, -282.37, 8504.48, -36390.58, -27235.89, 28858.04, 754.26, 14272.53, 0.00, 0.00, 0.00, 0.00, 0.00, 0.00, 0.00
33, 13440.15, 38144.17, 21.93, 16054.39, 88.65, -295.29, 8483.83, -36402.70, -27235.89, 28858.04, 754.26, 14272.53, 0.00, 0.00, 0.00, 0.00, 0.00, 0.00, 0.00
34, 13440.15, 38144.17, 21.93, 16054.39, 88.65, -295.29, 8483.83, -36402.70, -27242.82, 28852.61, 741.81, 14270.11, 0.00, 0.00, 0.00, 0.00, 0.00, 0.00, 0.00
35, 13459.39, 38170.16, 36.99, 16082.66, 107.18, -279.49, 8503.99, -36393.82, -27242.82, 28852.61, 741.81, 14270.11, 0.00, 0.00, 0.00, 0.00, 0.00, 0.00, 0.00
36, 13459.39, 38170.16, 36.99, 16082.66, 107.18, -279.49, 8503.99, -36393.82, -27237.79, 28859.43, 759.96, 14270.27, 0.00, 0.00, 0.00, 0.00, -0.02, 0.34, 0.95
37, 13450.30, 38159.34, 30.98, 16058.70, 92.18, -295.56, 8483.22, -36404.51, -27237.79, 28859.43, 759.96, 14270.27, 0.00, 0.00, 0.00, 0.00, 0.00, 0.00, 0.00
38, 13450.30, 38159.34, 30.98, 16058.70, 92.18, -295.56, 8483.22, -36404.51, -27234.93, 28849.15, 748.78, 14269.93, 0.00, 0.00, 0.00, 0.00, 0.00, 0.00, 0.00
39, 13460.78, 38176.20, 39.38, 16086.33, 110.53, -279.26, 8506.29, -36392.59, -27234.93, 28849.15, 748.78, 14269.93, 0.00, 0.00, 0.00, 0.00, 0.00, 0.00, 0.00
40, 13460.78, 38176.20, 39.38, 16086.33, 110.53, -279.26, 8506.29, -36392.59, -27234.41, 28861.15, 761.35, 14272.82, 0.00, 0.00, 0.00, 0.00, 0.00, 0.00, 0.00
41, 13454.99, 38176.55, 33.68, 16062.21, 94.70, -294.10, 8485.19, -36404.42, -27234.41, 28861.15, 761.35, 14272.82, 0.00, 0.00, 0.00, 0.00, 0.00, 0.00, 0.00
42, 13454.99, 38176.55, 33.68, 16062.21, 94.70, -294.10, 8485.19, -36404.42, -27235.80, 28845.15, 752.25, 14266.38, 0.00, 0.00, 0.00, 0.00, 0.00, 0.00, 0.00
43, 13460.15, 38168.57, 37.86, 16079.62, 103.51, -282.84, 8501.96, -36401.22, -27235.80, 28845.15, 752.25, 14266.38, 0.00, 0.00, 0.00, 0.00, 0.00, 0.00, 0.00
44, 13460.15, 38168.57, 37.86, 16079.62, 103.51, -282.84, 8501.96, -36401.22, -27245.12, 28859.65, 751.71, 14270.78, 0.00, 0.00, 0.00, 0.00, 0.00, 0.00, 0.00
45, 13446.14, 38149.04, 26.24, 16064.20, 89.56, -294.93, 8482.53, -36410.45, -27245.12, 28859.65, 751.71, 14270.78, 0.00, 0.00, 0.00, 0.00, 0.00, 0.00, 0.00
46, 13446.14, 38149.04, 26.24, 16064.20, 89.56, -294.93, 8482.53, -36410.45, -27237.79, 28844.79, 748.29, 14266.89, 0.00, 0.00, 0.00, 0.00, -0.02, 0.34, 0.95
47, 13458.68, 38168.71, 29.71, 16072.09, 100.11, -285.95, 8497.98, -36401.94, -27237.79, 28844.79, 748.29, 14266.89, 0.00, 0.00, 0.00, 0.00, 0.00, 0.00, 0.00
48, 13458.68, 38168.71, 29.71, 16072.09, 100.11, -285.95, 8497.98, -36401.94, -27244.54, 28860.48, 743.73, 14270.74, 0.00, 0.00, 0.00, 0.00, 0.00, 0.00, 0.00
49, 13453.47, 38163.50, 27.92, 16060.93, 89.90, -294.71, 8482.78, -36409.98, -27244.54, 28860.48, 743.73, 14270.74, 0.00, 0.00, 0.00, 0.00, 0.00, 0.00, 0.00
50, 13453.47, 38163.50, 27.92, 16060.93, 89.90, -294.71, 8482.78, -36409.98, -27238.57, 28839.34, 747.26, 14261.02, 0.00, 0.00, 0.00, 0.00, 0.00, 0.00, 0.00
51, 13454.39, 38170.05, 33.10, 16073.72, 102.21, -285.23, 8498.27, -36401.45, -27238.57, 28839.34, 747.26, 14261.02, 0.00, 0.00, 0.00, 0.00, 0.00, 0.00, 0.00
52, 13454.39, 38170.05, 33.10, 16073.72, 102.21, -285.23, 8498.27, -36401.45, -27236.45, 28866.58, 760.65, 14277.69, 0.00, 0.00, 0.00, 0.00, 0.00, 0.00, 0.00
53, 13454.95, 38173.85, 37.24, 16070.68, 100.85, -288.76, 8493.39, -36400.84, -27236.45, 28866.58, 760.65, 14277.69, 0.00, 0.00, 0.00, 0.00, 0.00, 0.00, 0.00
54, 13454.95, 38173.85, 37.24, 16070.68, 100.85, -288.76, 8493.39, -36400.84, -27230.50, 28841.68, 753.14, 14266.11, 0.00, 0.00, 0.00, 0.00, 0.00, 0.00, 0.00
55, 13456.44, 38174.03, 33.28, 16069.21, 102.33, -285.74, 8500.06, -36399.39, -27230.50, 28841.68, 753.14, 14266.11, 0.00, 0.00, 0.00, 0.00, -0.03, 0.34, 0.96
56, 13456.44, 38174.03, 33.28, 16069.21, 102.33, -285.74, 8500.06, -36399.39, -27237.12, 28873.09, 752.11, 14283.05, 0.00, 0.00, 0.00, 0.00, 0.00, 0.00, 0.00
57, 13453.96, 38153.42, 31.78, 16069.47, 96.38, -288.81, 8491.45, -36404.51, -27237.12, 28873.09, 752.11, 14283.05, 0.00, 0.00, 0.00, 0.00, 0.00, 0.00, 0.00
58, 13453.96, 38153.42, 31.78, 16069.47, 96.38, -288.81, 8491.45, -36404.51, -27235.53, 28836.54, 756.03, 14260.41, 0.00, 0.00, 0.00, 0.00, 0.00, 0.00, 0.00
59, 13453.76, 38163.50, 34.73, 16072.04, 99.93, -287.87, 8494.47, -36404.75, -27235.53, 28836.54, 756.03, 14260.41, 0.00, 0.00, 0.00, 0.00, 0.00, 0.00, 0.00
60, 13453.76, 38163.50, 34.73, 16072.04, 99.93, -287.87, 8494.47, -36404.75, -27238.95, 28860.77, 750.10, 14275.86, 0.00, 0.00, 0.00, 0.00, 0.00, 0.00, 0.00
61, 13445.74, 38160.35, 27.43, 16066.39, 95.13, -293.19, 8489.10, -36407.70, -27238.95, 28860.77, 750.10, 14275.86, 0.00, 0.00, 0.00, 0.00, 0.00, 0.00, 0.00
62, 13445.74, 38160.35, 27.43, 16066.39, 95.13, -293.19, 8489.10, -36407.70, -27236.27, 28836.21, 746.66, 14261.53, 0.00, 0.00, 0.00, 0.00, 0.00, 0.00, 0.00
63, 13445.96, 38159.03, 24.54, 16062.79, 93.12, -293.59, 8490.02, -36407.84, -27236.27, 28836.21, 746.66, 14261.53, 0.00, 0.00, 0.00, 0.00, 0.00, 0.00, 0.00
64, 13445.96, 38159.03, 24.54, 16062.79, 93.12, -293.59, 8490.02, -36407.84, -27234.46, 28866.96, 746.75, 14283.28, 0.00, 0.00, 0.00, 0.00, 0.00, 0.00, 0.00
65, 13459.77, 38173.78, 32.92, 16073.36, 102.51, -284.83, 8497.60, -36399.68, -27234.46, 28866.96, 746.75, 14283.28, 0.00, 0.00, 0.00, 0.00, -0.02, 0.34, 0.95
66, 13459.77, 38173.78, 32.92, 16073.36, 102.51, -284.83, 8497.60, -36399.68, -27233.63, 28840.88, 747.82, 14265.62, 0.00, 0.00, 0.00, 0.00, 0.00, 0.00, 0.00
67, 13445.07, 38160.68, 23.31, 16060.53, 89.97, -297.17, 8482.69, -36414.66, -27233.63, 28840.88, 747.82, 14265.62, 0.00, 0.00, 0.00, 0.00, 0.00, 0.00, 0.00
68, 13445.07, 38160.68, 23.31, 16060.53, 89.97, -297.17, 8482.69, -36414.66, -27241.68, 28852.35, 744.09, 14270.16, 0.00, 0.00, 0.00, 0.00, 0.00, 0.00, 0.00
69, 13451.57, 38158.27, 32.81, 16071.80, 101.75, -286.55, 8496.93, -36406.34, -27241.68, 28852.35, 744.09, 14270.16, 0.00, 0.00, 0.00, 0.00, 0.00, 0.00, 0.00
70, 13451.57, 38158.27, 32.81, 16071.80, 101.75, -286.55, 8496.93, -36406.34, -27233.03, 28844.66, 754.44, 14267.90, 0.00, 0.00, 0.00, 0.00, 0.00, 0.00, 0.00
71, 13445.74, 38155.66, 28.34, 16063.57, 93.99, -294.98, 8487.07, -36411.68, -27233.03, 28844.66, 754.44, 14267.90, 0.00, 0.00, 0.00, 0.00, 0.00, 0.00, 0.00
72, 13445.74, 38155.66, 28.34, 16063.57, 93.99, -294.98, 8487.07, -36411.68, -27233.92, 28858.94, 748.65, 14277.09, 0.00, 0.00, 0.00, 0.00, 0.00, 0.00, 0.00
73, 13462.81, 38176.02, 39.18, 16079.33, 107.98, -283.31, 8500.28, -36405.54, -27233.92, 28858.94, 748.65, 14277.09, 0.00, 0.00, 0.00, 0.00, 0.00, 0.00, 0.00
74, 13462.81, 38176.02, 39.18, 16079.33, 107.98, -283.31, 8500.28, -36405.54, -27233.88, 28842.22, 750.86, 14264.48, 0.00, 0.00, 0.00, 0.00, 0.00, 0.00, 0.00
75, 13452.46, 38159.10, 31.09, 16067.53, 92.38, -293.99, 8484.81, -36414.59, -27233.88, 28842.22, 750.86, 14264.48, 0.00, 0.00, 0.00, 0.00, -0.02, 0.34, 0.95
76, 13452.46, 38159.10, 31.09, 16067.53, 92.38, -293.99, 8484.81, -36414.59, -27227.51, 28862.00, 751.15, 14278.85, 0.00, 0.00, 0.00, 0.00, 0.00, 0.00, 0.00
77, 13463.71, 38176.78, 39.92, 16082.64, 107.42, -280.60, 8504.26, -36402.21, -27227.51, 28862.00, 751.15, 14278.85, 0.00, 0.00, 0.00, 0.00, 0.00, 0.00, 0.00
78, 13463.71, 38176.78, 39.92, 16082.64, 107.42, -280.60, 8504.26, -36402.21, -27233.16, 28845.15, 754.95, 14271.25, 0.00, 0.00, 0.00, 0.00, 0.00, 0.00, 0.00
79, 13441.42, 38158.11, 23.87, 16058.16, 85.50, -301.30, 8478.67, -36421.54, -27233.16, 28845.15, 754.95, 14271.25, 0.00, 0.00, 0.00, 0.00, 0.00, 0.00, 0.00
80, 13441.42, 38158.11, 23.87, 16058.16, 85.50, -301.30, 8478.67, -36421.54, -27234.24, 28849.08, 737.67, 14271.57, 0.00, 0.00, 0.00, 0.00, 0.00, 0.00, 0.00
81, 13446.27, 38154.58, 25.10, 16074.23, 98.48, -289.08, 8494.87, -36414.79, -27234.24, 28849.08, 737.67, 14271.57, 0.00, 0.00, 0.00, 0.00, 0.00, 0.00, 0.00
82, 13446.27, 38154.58, 25.10, 16074.23, 98.48, -289.08, 8494.87, -36414.79, -27239.78, 28840.10, 742.46, 14262.83, 0.00, 0.00, 0.00, 0.00, 0.00, 0.00, 0.00
83, 13433.73, 38145.78, 16.45, 16055.35, 80.33, -303.80, 8473.88, -36427.22, -27239.78, 28840.10, 742.46, 14262.83, 0.00, 0.00, 0.00, 0.00, 0.00, 0.00, 0.00
84, 13433.73, 38145.78, 16.45, 16055.35, 80.33, -303.80, 8473.88, -36427.22, -27234.84, 28842.22, 732.80, 14267.21, 0.00, 0.00, 0.00, 0.00, 0.00, 0.00, 0.00
85, 13445.51, 38154.43, 23.56, 16072.83, 95.73, -288.25, 8495.27, -36416.38, -27234.84, 28842.22, 732.80, 14267.21, 0.00, 0.00, 0.00, 0.00, -0.02, 0.34, 0.95
86, 13445.51, 38154.43, 23.56, 16072.83, 95.73, -288.25, 8495.27, -36416.38, -27242.24, 28847.18, 739.57, 14267.88, 0.00, 0.00, 0.00, 0.00, 0.00, 0.00, 0.00
87, 13435.25, 38139.12, 17.90, 16057.87, 82.21, -301.99, 8477.48, -36423.91, -27242.24, 28847.18, 739.57, 14267.88, 0.00, 0.00, 0.00, 0.00, 0.00, 0.00, 0.00
88, 13435.25, 38139.12, 17.90, 16057.87, 82.21, -301.99, 8477.48, -36423.91, -27234.75, 28842.64, 730.83, 14265.98, 0.00, 0.00, 0.00, 0.00, 0.00, 0.00, 0.00
89, 13445.29, 38162.45, 22.06, 16075.69, 97.45, -288.16, 8496.21, -36416.96, -27234.75, 28842.64, 730.83, 14265.98, 0.00, 0.00, 0.00, 0.00, 0.00, 0.00, 0.00
90, 13445.29, 38162.45, 22.06, 16075.69, 97.45, -288.16, 8496.21, -36416.96, -27236.99, 28854.13, 742.41, 14271.30, 0.00, 0.00, 0.00, 0.00, 0.00, 0.00, 0.00
91, 13433.49, 38152.01, 17.14, 16060.51, 86.99, -298.78, 8481.03, -36423.13, -27236.99, 28854.13, 742.41, 14271.30, 0.00, 0.00, 0.00, 0.00, 0.00, 0.00, 0.00
92, 13433.49, 38152.01, 17.14, 16060.51, 86.99, -298.78, 8481.03, -36423.13, -27228.71, 28845.19, 734.10, 14270.49, 0.00, 0.00, 0.00, 0.00, 0.00, 0.00, 0.00
93, 13444.93, 38148.64, 20.52, 16077.70, 99.40, -284.85, 8498.78, -36415.10, -27228.71, 28845.19, 734.10, 14270.49, 0.00, 0.00, 0.00, 0.00, 0.00, 0.00, 0.00
94, 13444.93, 38148.64, 20.52, 16077.70, 99.40, -284.85, 8498.78, -36415.10, -27240.05, 28854.07, 737.65, 14269.00, 0.00, 0.00, 0.00, 0.00, -0.02, 0.34, 0.95
95, 13434.20, 38140.95, 17.10, 16064.91, 85.34, -297.17, 8481.12, -36425.32, -27240.05, 28854.07, 737.65, 14269.00, 0.00, 0.00, 0.00, 0.00, 0.00, 0.00, 0.00
96, 13434.20, 38140.95, 17.10, 16064.91, 85.34, -297.17, 8481.12, -36425.32, -27232.58, 28834.24, 735.06, 14262.83, 0.00, 0.00, 0.00, 0.00, 0.00, 0.00, 0.00
97, 13445.71, 38156.28, 23.98, 16080.40, 98.68, -286.77, 8497.62, -36415.08, -27232.58, 28834.24, 735.06, 14262.83, 0.00, 0.00, 0.00, 0.00, 0.00, 0.00, 0.00
98, 13445.71, 38156.28, 23.98, 16080.40, 98.68, -286.77, 8497.62, -36415.08, -27237.43, 28858.00, 735.91, 14275.01, 0.00, 0.00, 0.00, 0.00, 0.00, 0.00, 0.00
99, 13431.99, 38139.56, 13.59, 16064.09, 89.30, -296.45, 8483.38, -36421.77, -27237.43, 28858.00, 735.91, 14275.01, 0.00, 0.00, 0.00, 0.00, 0.00, 0.00, 0.00
100, 13431.99, 38139.56, 13.59, 16064.09, 89.30, -296.45, 8483.38, -36421.77, -27231.87, 28836.03, 727.77, 14263.61, 0.00, 0.00, 0.00, 0.00, 0.00, 0.00, 0.00
101, 13437.51, 38149.35, 14.91, 16075.33, 94.32, -288.40, 8493.80, -36417.29, -27231.87, 28836.03, 727.77, 14263.61, 0.00, 0.00, 0.00, 0.00, 0.00, 0.00, 0.00
102, 13437.51, 38149.35, 14.91, 16075.33, 94.32, -288.40, 8493.80, -36417.29, -27237.95, 28863.03, 728.26, 14277.31, 0.00, 0.00, 0.00, 0.00, 0.00, 0.00, 0.00
103, 13430.67, 38149.13, 15.69, 16071.60, 89.30, -292.41, 8487.02, -36421.38, -27237.95, 28863.03, 728.26, 14277.31, 0.00, 0.00, 0.00, 0.00, 0.00, 0.00, 0.00
104, 13430.67, 38149.13, 15.69, 16071.60, 89.30, -292.41, 8487.02, -36421.38, -27230.62, 28831.96, 730.30, 14262.20, 0.00, 0.00, 0.00, 0.00, -0.03, 0.34, 0.96
105, 13436.08, 38149.73, 15.04, 16071.62, 93.47, -292.43, 8490.98, -36419.68, -27230.62, 28831.96, 730.30, 14262.20, 0.00, 0.00, 0.00, 0.00, 0.00, 0.00, 0.00
106, 13436.08, 38149.73, 15.04, 16071.62, 93.47, -292.43, 8490.98, -36419.68, -27235.22, 28854.92, 731.97, 14273.58, 0.00, 0.00, 0.00, 0.00, 0.00, 0.00, 0.00
107, 13436.88, 38143.30, 21.23, 16073.70, 97.57, -290.39, 8491.41, -36419.51, -27235.22, 28854.92, 731.97, 14273.58, 0.00, 0.00, 0.00, 0.00, 0.00, 0.00, 0.00
108, 13436.88, 38143.30, 21.23, 16073.70, 97.57, -290.39, 8491.41, -36419.51, -27224.54, 28834.49, 739.26, 14264.17, 0.00, 0.00, 0.00, 0.00, 0.00, 0.00, 0.00
109, 13437.26, 38146.40, 20.63, 16072.27, 96.76, -291.49, 8492.23, -36421.79, -27224.54, 28834.49, 739.26, 14264.17, 0.00, 0.00, 0.00, 0.00, 0.00, 0.00, 0.00
110, 13437.26, 38146.40, 20.63, 16072.27, 96.76, -291.49, 8492.23, -36421.79, -27230.53, 28855.56, 734.25, 14275.30, 0.00, 0.00, 0.00, 0.00, 0.00, 0.00, 0.00
111, 13431.01, 38148.14, 18.46, 16072.92, 94.48, -291.89, 8490.35, -36423.71, -27230.53, 28855.56, 734.25, 14275.30, 0.00, 0.00, 0.00, 0.00, 0.00, 0.00, 0.00
112, 13431.01, 38148.14, 18.46, 16072.92, 94.48, -291.89, 8490.35, -36423.71, -27227.91, 28833.88, 736.04, 14268.28, 0.00, 0.00, 0.00, 0.00, 0.00, 0.00, 0.00
113, 13430.36, 38154.43, 19.62, 16068.47, 93.85, -294.26, 8488.25, -36424.40, -27227.91, 28833.88, 736.04, 14268.28, 0.00, 0.00, 0.00, 0.00, 0.00, 0.00, 0.00
114, 13430.36, 38154.43, 19.62, 16068.47, 93.85, -294.26, 8488.25, -36424.40, -27231.06, 28857.26, 735.95, 14278.76, 0.00, 0.00, 0.00, 0.00, -0.02, 0.34, 0.96
115, 13440.53, 38150.09, 22.60, 16074.12, 99.17, -291.20, 8493.71, -36422.01, -27231.06, 28857.26, 735.95, 14278.76, 0.00, 0.00, 0.00, 0.00, 0.00, 0.00, 0.00
116, 13440.53, 38150.09, 22.60, 16074.12, 99.17, -291.20, 8493.71, -36422.01, -27232.29, 28828.70, 736.96, 14259.81, 0.00, 0.00, 0.00, 0.00, 0.00, 0.00, 0.00
117, 13431.77, 38147.48, 17.08, 16066.30, 88.02, -298.80, 8483.47, -36430.04, -27232.29, 28828.70, 736.96, 14259.81, 0.00, 0.00, 0.00, 0.00, 0.00, 0.00, 0.00
118, 13431.77, 38147.48, 17.08, 16066.30, 88.02, -298.80, 8483.47, -36430.04, -27230.35, 28854.02, 734.84, 14277.74, 0.00, 0.00, 0.00, 0.00, 0.00, 0.00, 0.00
119, 13434.20, 38152.13, 23.69, 16078.12, 101.39, -287.80, 8496.97, -36419.24, -27230.35, 28854.02, 734.84, 14277.74, 0.00, 0.00, 0.00, 0.00, 0.00, 0.00, 0.00
120, 13434.20, 38152.13, 23.69, 16078.12, 101.39, -287.80, 8496.97, -36419.24, -27224.47, 28835.40, 739.73, 14266.67, 0.00, 0.00, 0.00, 0.00, 0.00, 0.00, 0.00
121, 13434.45, 38146.69, 17.17, 16062.37, 88.78, -299.18, 8483.49, -36428.71, -27224.47, 28835.40, 739.73, 14266.67, 0.00, 0.00, 0.00, 0.00, 0.00, 0.00, 0.00
122, 13434.45, 38146.69, 17.17, 16062.37, 88.78, -299.18, 8483.49, -36428.71, -27227.51, 28850.92, 731.91, 14276.91, 0.00, 0.00, 0.00, 0.00, 0.00, 0.00, 0.00
123, 13436.95, 38163.16, 24.54, 16080.54, 102.13, -285.05, 8500.99, -36420.24, -27227.51, 28850.92, 731.91, 14276.91, 0.00, 0.00, 0.00, 0.00, 0.00, 0.00, 0.00
124, 13436.95, 38163.16, 24.54, 16080.54, 102.13, -285.05, 8500.99, -36420.24, -27225.54, 28842.22, 745.65, 14272.77, 0.00, 0.00, 0.00, 0.00, -0.02, 0.34, 0.96
125, 13430.80, 38138.00, 17.52, 16067.71, 89.38, -297.99, 8486.06, -36429.36, -27225.54, 28842.22, 745.65, 14272.77, 0.00, 0.00, 0.00, 0.00, 0.00, 0.00, 0.00
126, 13430.80, 38138.00, 17.52, 16067.71, 89.38, -297.99, 8486.06, -36429.36, -27224.18, 28853.35, 732.24, 14280.98, 0.00, 0.00, 0.00, 0.00, 0.00, 0.00, 0.00
127, 13443.21, 38161.29, 30.42, 16086.82, 106.66, -281.56, 8505.87, -36417.43, -27224.18, 28853.35, 732.24, 14280.98, 0.00, 0.00, 0.00, 0.00, 0.00, 0.00, 0.00
128, 13443.21, 38161.29, 30.42, 16086.82, 106.66, -281.56, 8505.87, -36417.43, -27222.79, 28848.55, 747.00, 14279.34, 0.00, 0.00, 0.00, 0.00, 0.00, 0.00, 0.00
129, 13431.65, 38144.70, 19.29, 16064.76, 90.55, -296.52, 8484.57, -36430.23, -27222.79, 28848.55, 747.00, 14279.34, 0.00, 0.00, 0.00, 0.00, 0.00, 0.00, 0.00
130, 13431.65, 38144.70, 19.29, 16064.76, 90.55, -296.52, 8484.57, -36430.23, -27221.63, 28849.46, 738.48, 14282.45, 0.00, 0.00, 0.00, 0.00, 0.00, 0.00, 0.00
131, 13447.75, 38170.63, 28.95, 16085.46, 104.36, -284.49, 8502.49, -36420.33, -27221.63, 28849.46, 738.48, 14282.45, 0.00, 0.00, 0.00, 0.00, 0.00, 0.00, 0.00
132, 13447.75, 38170.63, 28.95, 16085.46, 104.36, -284.49, 8502.49, -36420.33, -27225.09, 28849.71, 741.65, 14275.54, 0.00, 0.00, 0.00, 0.00, 0.00, 0.00, 0.00
133, 13435.43, 38146.65, 20.23, 16065.88, 87.89, -299.85, 8480.59, -36434.15, -27225.09, 28849.71, 741.65, 14275.54, 0.00, 0.00, 0.00, 0.00, -0.02, 0.34, 0.96
134, 13435.43, 38146.65, 20.23, 16065.88, 87.89, -299.85, 8480.59, -36434.15, -27222.21, 28840.68, 734.81, 14274.32, 0.00, 0.00, 0.00, 0.00, 0.00, 0.00, 0.00
135, 13439.52, 38154.38, 28.63, 16085.05, 101.97, -285.45, 8501.58, -36424.78, -27222.21, 28840.68, 734.81, 14274.32, 0.00, 0.00, 0.00, 0.00, 0.00, 0.00, 0.00
136, 13439.52, 38154.38, 28.63, 16085.05, 101.97, -285.45, 8501.58, -36424.78, -27225.92, 28848.86, 745.10, 14276.17, 0.00, 0.00, 0.00, 0.00, 0.00, 0.00, 0.00
137, 13435.23, 38150.36, 25.93, 16072.11, 93.07, -296.03, 8487.00, -36429.68, -27225.92, 28848.86, 745.10, 14276.17, 0.00, 0.00, 0.00, 0.00, 0.00, 0.00, 0.00
138, 13435.23, 38150.36, 25.93, 16072.11, 93.07, -296.03, 8487.00, -36429.68, -27216.15, 28842.98, 743.20, 14275.41, 0.00, 0.00, 0.00, 0.00, 0.00, 0.00, 0.00
139, 13444.15, 38164.42, 29.91, 16083.53, 102.91, -286.08, 8500.66, -36424.31, -27216.15, 28842.98, 743.20, 14275.41, 0.00, 0.00, 0.00, 0.00, 0.00, 0.00, 0.00
140, 13444.15, 38164.42, 29.91, 16083.53, 102.91, -286.08, 8500.66, -36424.31, -27231.06, 28844.48, 740.85, 14277.56, 0.00, 0.00, 0.00, 0.00, 0.00, 0.00, 0.00
141, 13437.00, 38157.33, 26.13, 16069.14, 92.02, -298.08, 8484.45, -36432.89, -27231.06, 28844.48, 740.85, 14277.56, 0.00, 0.00, 0.00, 0.00, 0.00, 0.00, 0.00
142, 13437.00, 38157.33, 26.13, 16069.14, 92.02, -298.08, 8484.45, -36432.89, -27222.61, 28832.54, 739.60, 14272.97, 0.00, 0.00, 0.00, 0.00, 0.00, 0.00, 0.00
143, 13442.38, 38171.10, 28.88, 16082.15, 100.05, -288.92, 8497.62, -36430.19, -27222.61, 28832.54, 739.60, 14272.97, 0.00, 0.00, 0.00, 0.00, -0.02, 0.34, 0.96
144, 13442.38, 38171.10, 28.88, 16082.15, 100.05, -288.92, 8497.62, -36430.19, -27228.47, 28852.50, 742.57, 14280.39, 0.00, 0.00, 0.00, 0.00, 0.00, 0.00, 0.00
145, 13437.35, 38147.96, 25.84, 16069.67, 90.66, -296.59, 8484.12, -36436.49, -27228.47, 28852.50, 742.57, 14280.39, 0.00, 0.00, 0.00, 0.00, 0.00, 0.00, 0.00
146, 13437.35, 38147.96, 25.84, 16069.67, 90.66, -296.59, 8484.12, -36436.49, -27222.01, 28830.13, 740.51, 14271.95, 0.00, 0.00, 0.00, 0.00, 0.00, 0.00, 0.00
147, 13440.21, 38157.64, 27.51, 16079.33, 97.97, -292.81, 8495.18, -36430.39, -27222.01, 28830.13, 740.51, 14271.95, 0.00, 0.00, 0.00, 0.00, 0.00, 0.00, 0.00
148, 13440.21, 38157.64, 27.51, 16079.33, 97.97, -292.81, 8495.18, -36430.39, -27232.34, 28851.99, 735.55, 14278.45, 0.00, 0.00, 0.00, 0.00, 0.00, 0.00, 0.00
149, 13428.84, 38144.35, 17.64, 16067.51, 85.90, -302.22, 8480.32, -36439.87, -27232.34, 28851.99, 735.55, 14278.45, 0.00, 0.00, 0.00, 0.00, 0.00, 0.00, 0.00
150, 13428.84, 38144.35, 17.64, 16067.51, 85.90, -302.22, 8480.32, -36439.87, -27225.61, 28826.02, 732.58, 14265.80, 0.00, 0.00, 0.00, 0.00, 0.00, 0.00, 0.00
151, 13435.43, 38155.10, 23.98, 16075.46, 91.33, -293.17, 8492.21, -36433.03, -27225.61, 28826.02, 732.58, 14265.80, 0.00, 0.00, 0.00, 0.00, 0.00, 0.00, 0.00
152, 13435.43, 38155.10, 23.98, 16075.46, 91.33, -293.17, 8492.21, -36433.03, -27226.66, 28858.09, 733.87, 14287.37, 0.00, 0.00, 0.00, 0.00, 0.00, 0.00, 0.00
153, 13429.11, 38149.17, 19.85, 16069.96, 90.48, -296.05, 8487.58, -36430.39, -27226.66, 28858.09, 733.87, 14287.37, 0.00, 0.00, 0.00, 0.00, -0.03, 0.34, 0.95
154, 13429.11, 38149.17, 19.85, 16069.96, 90.48, -296.05, 8487.58, -36430.39, -27218.46, 28829.77, 732.13, 14274.72, 0.00, 0.00, 0.00, 0.00, 0.00, 0.00, 0.00
155, 13428.44, 38144.59, 16.07, 16071.87, 89.85, -297.46, 8488.07, -36434.82, -27218.46, 28829.77, 732.13, 14274.72, 0.00, 0.00, 0.00, 0.00, 0.00, 0.00, 0.00
156, 13428.44, 38144.59, 16.07, 16071.87, 89.85, -297.46, 8488.07, -36434.82, -27229.99, 28849.60, 729.67, 14281.85, 0.00, 0.00, 0.00, 0.00, 0.00, 0.00, 0.00
157, 13424.99, 38137.51, 15.24, 16069.00, 86.08, -299.16, 8484.81, -36437.14, -27229.99, 28849.60, 729.67, 14281.85, 0.00, 0.00, 0.00, 0.00, 0.00, 0.00, 0.00
158, 13424.99, 38137.51, 15.24, 16069.00, 86.08, -299.16, 8484.81, -36437.14, -27222.30, 28821.28, 727.73, 14265.35, 0.00, 0.00, 0.00, 0.00, 0.00, 0.00, 0.00
159, 13421.17, 38137.26, 11.38, 16065.18, 78.86, -302.93, 8480.50, -36442.57, -27222.30, 28821.28, 727.73, 14265.35, 0.00, 0.00, 0.00, 0.00, 0.00, 0.00, 0.00
160, 13421.17, 38137.26, 11.38, 16065.18, 78.86, -302.93, 8480.50, -36442.57, -27229.32, 28846.45, 719.50, 14280.28, 0.00, 0.00, 0.00, 0.00, 0.00, 0.00, 0.00
161, 13426.87, 38147.77, 19.04, 16074.99, 90.52, -293.63, 8488.99, -36433.52, -27229.32, 28846.45, 719.50, 14280.28, 0.00, 0.00, 0.00, 0.00, 0.00, 0.00, 0.00
162, 13426.87, 38147.77, 19.04, 16074.99, 90.52, -293.63, 8488.99, -36433.52, -27218.68, 28826.26, 732.71, 14273.60, 0.00, 0.00, 0.00, 0.00, 0.00, 0.00, 0.00
163, 13424.46, 38136.30, 15.60, 16065.20, 82.77, -302.75, 8479.74, -36441.88, -27218.68, 28826.26, 732.71, 14273.60, 0.00, 0.00, 0.00, 0.00, -0.02, 0.34, 0.95
164, 13424.46, 38136.30, 15.60, 16065.20, 82.77, -302.75, 8479.74, -36441.88, -27229.14, 28843.32, 718.85, 14279.81, 0.00, 0.00, 0.00, 0.00, 0.00, 0.00, 0.00
165, 13434.65, 38150.09, 21.64, 16076.65, 91.66, -292.90, 8490.62, -36435.82, -27229.14, 28843.32, 718.85, 14279.81, 0.00, 0.00, 0.00, 0.00, 0.00, 0.00, 0.00
166, 13434.65, 38150.09, 21.64, 16076.65, 91.66, -292.90, 8490.62, -36435.82, -27221.88, 28828.88, 735.73, 14272.33, 0.00, 0.00, 0.00, 0.00, 0.00, 0.00, 0.00
167, 13426.13, 38148.57, 22.49, 16068.40, 86.48, -299.07, 8482.42, -36439.69, -27221.88, 28828.88, 735.73, 14272.33, 0.00, 0.00, 0.00, 0.00, 0.00, 0.00, 0.00
168, 13426.13, 38148.57, 22.49, 16068.40, 86.48, -299.07, 8482.42, -36439.69, -27224.02, 28845.01, 732.85, 14282.07, 0.00, 0.00, 0.00, 0.00, 0.00, 0.00, 0.00
169, 13441.24, 38162.12, 29.03, 16084.56, 99.93, -287.00, 8497.02, -36431.82, -27224.02, 28845.01, 732.85, 14282.07, 0.00, 0.00, 0.00, 0.00, 0.00, 0.00, 0.00
170, 13441.24, 38162.12, 29.03, 16084.56, 99.93, -287.00, 8497.02, -36431.82, -27220.09, 28834.06, 741.74, 14275.66, 0.00, 0.00, 0.00, 0.00, 0.00, 0.00, 0.00
171, 13426.13, 38145.39, 21.39, 16066.54, 86.26, -299.09, 8481.64, -36441.07, -27220.09, 28834.06, 741.74, 14275.66, 0.00, 0.00, 0.00, 0.00, 0.00, 0.00, 0.00
172, 13426.13, 38145.39, 21.39, 16066.54, 86.26, -299.09, 8481.64, -36441.07, -27220.47, 28842.78, 737.05, 14283.17, 0.00, 0.00, 0.00, 0.00, -0.03, 0.35, 0.95
173, 13440.21, 38161.51, 34.65, 16087.89, 104.87, -284.20, 8502.07, -36428.22, -27220.47, 28842.78, 737.05, 14283.17, 0.00, 0.00, 0.00, 0.00, 0.00, 0.00, 0.00
174, 13440.21, 38161.51, 34.65, 16087.89, 104.87, -284.20, 8502.07, -36428.22, -27219.89, 28837.39, 746.19, 14279.21, 0.00, 0.00, 0.00, 0.00, 0.00, 0.00, 0.00
175, 13418.49, 38146.38, 24.88, 16064.80, 89.09, -299.60, 8484.05, -36437.39, -27219.89, 28837.39, 746.19, 14279.21, 0.00, 0.00, 0.00, 0.00, 0.00, 0.00, 0.00
176, 13418.49, 38146.38, 24.88, 16064.80, 89.09, -299.60, 8484.05, -36437.39, -27212.67, 28850.56, 740.51, 14294.07, 0.00, 0.00, 0.00, 0.00, 0.00, 0.00, 0.00
177, 13438.27, 38163.43, 34.00, 16088.03, 107.02, -282.48, 8507.95, -36421.54, -27212.67, 28850.56, 740.51, 14294.07, 0.00, 0.00, 0.00, 0.00, 0.00, 0.00, 0.00
178, 13438.27, 38163.43, 34.00, 16088.03, 107.02, -282.48, 8507.95, -36421.54, -27214.68, 28844.63, 746.19, 14285.74, 0.00, 0.00, 0.00, 0.00, 0.00, 0.00, 0.00
179, 13421.93, 38145.91, 20.52, 16065.74, 89.12, -299.78, 8482.89, -36436.52, -27214.68, 28844.63, 746.19, 14285.74, 0.00, 0.00, 0.00, 0.00, 0.00, 0.00, 0.00
180, 13421.93, 38145.91, 20.52, 16065.74, 89.12, -299.78, 8482.89, -36436.52, -27215.51, 28837.79, 729.18, 14283.35, 0.00, 0.00, 0.00, 0.00, 0.00, 0.00, 0.00
181, 13429.08, 38165.58, 28.07, 16086.06, 106.51, -284.47, 8504.01, -36425.54, -27215.51, 28837.79, 729.18, 14283.35, 0.00, 0.00, 0.00, 0.00, 0.00, 0.00, 0.00
182, 13429.08, 38165.58, 28.07, 16086.06, 106.51, -284.47, 8504.01, -36425.54, -27213.58, 28850.54, 746.24, 14287.53, 0.00, 0.00, 0.00, 0.00, -0.03, 0.35, 0.95
183, 13421.93, 38148.05, 23.22, 16070.66, 94.23, -296.43, 8489.24, -36430.95, -27213.58, 28850.54, 746.24, 14287.53, 0.00, 0.00, 0.00, 0.00, 0.00, 0.00, 0.00
184, 13421.93, 38148.05, 23.22, 16070.66, 94.23, -296.43, 8489.24, -36430.95, -27211.46, 28844.97, 732.18, 14288.49, 0.00, 0.00, 0.00, 0.00, 0.00, 0.00, 0.00
185, 13428.55, 38149.78, 27.83, 16087.89, 107.09, -283.44, 8506.76, -36424.98, -27211.46, 28844.97, 732.18, 14288.49, 0.00, 0.00, 0.00, 0.00, 0.00, 0.00, 0.00
186, 13428.55, 38149.78, 27.83, 16087.89, 107.09, -283.44, 8506.76, -36424.98, -27216.27, 28850.27, 741.56, 14288.20, 0.00, 0.00, 0.00, 0.00, 0.00, 0.00, 0.00
187, 13415.87, 38138.18, 18.51, 16067.04, 89.18, -298.02, 8483.98, -36437.90, -27216.27, 28850.27, 741.56, 14288.20, 0.00, 0.00, 0.00, 0.00, 0.00, 0.00, 0.00
188, 13415.87, 38138.18, 18.51, 16067.04, 89.18, -298.02, 8483.98, -36437.90, -27212.60, 28831.54, 730.32, 14280.17, 0.00, 0.00, 0.00, 0.00, 0.00, 0.00, 0.00
189, 13425.91, 38155.54, 31.90, 16088.18, 105.50, -282.44, 8504.86, -36425.59, -27212.60, 28831.54, 730.32, 14280.17, 0.00, 0.00, 0.00, 0.00, 0.00, 0.00, 0.00
190, 13425.91, 38155.54, 31.90, 16088.18, 105.50, -282.44, 8504.86, -36425.59, -27215.51, 28851.63, 742.39, 14287.75, 0.00, 0.00, 0.00, 0.00, 0.00, 0.00, 0.00
191, 13421.78, 38139.41, 20.27, 16072.13, 90.01, -297.03, 8486.26, -36437.93, -27215.51, 28851.63, 742.39, 14287.75, 0.00, 0.00, 0.00, 0.00, 0.00, 0.00, 0.00
192, 13421.78, 38139.41, 20.27, 16072.13, 90.01, -297.03, 8486.26, -36437.93, -27217.34, 28826.60, 729.05, 14276.42, 0.00, 0.00, 0.00, 0.00, -0.02, 0.34, 0.95
193, 13425.20, 38148.57, 23.42, 16083.11, 99.91, -287.98, 8500.97, -36432.65, -27217.34, 28826.60, 729.05, 14276.42, 0.00, 0.00, 0.00, 0.00, 0.00, 0.00, 0.00
194, 13425.20, 38148.57, 23.42, 16083.11, 99.91, -287.98, 8500.97, -36432.65, -27219.37, 28853.66, 736.76, 14288.53, 0.00, 0.00, 0.00, 0.00, 0.00, 0.00, 0.00
195, 13417.42, 38152.62, 20.85, 16071.60, 89.99, -296.90, 8486.71, -36438.26, -27219.37, 28853.66, 736.76, 14288.53, 0.00, 0.00, 0.00, 0.00, 0.00, 0.00, 0.00
196, 13417.42, 38152.62, 20.85, 16071.60, 89.99, -296.90, 8486.71, -36438.26, -27213.43, 28828.52, 736.02, 14279.17, 0.00, 0.00, 0.00, 0.00, 0.00, 0.00, 0.00
197, 13426.87, 38150.89, 25.46, 16083.40, 101.10, -287.85, 8499.29, -36433.23, -27213.43, 28828.52, 736.02, 14279.17, 0.00, 0.00, 0.00, 0.00, 0.00, 0.00, 0.00
198, 13426.87, 38150.89, 25.46, 16083.40, 101.10, -287.85, 8499.29, -36433.23, -27220.65, 28850.83, 739.08, 14282.45, 0.00, 0.00, 0.00, 0.00, 0.00, 0.00, 0.00
199, 13421.48, 38139.96, 20.32, 16075.82, 93.61, -295.38, 8488.32, -36440.88, -27220.65, 28850.83, 739.08, 14282.45, 0.00, 0.00, 0.00, 0.00, 0.00, 0.00, 0.00
200, 13421.48, 38139.96, 20.32, 16075.82, 93.61, -295.38, 8488.32, -36440.88, -27209.45, 28825.97, 735.89, 14275.92, 0.00, 0.00, 0.00, 0.00, 0.00, 0.00, 0.00
201, 13428.50, 38153.27, 26.53, 16082.68, 100.83, -289.95, 8498.51, -36436.61, -27209.45, 28825.97, 735.89, 14275.92, 0.00, 0.00, 0.00, 0.00, 0.00, 0.00, 0.00
202, 13428.50, 38153.27, 26.53, 16082.68, 100.83, -289.95, 8498.51, -36436.61, -27217.32, 28852.35, 738.05, 14291.06, 0.00, 0.00, 0.00, 0.00, -0.03, 0.34, 0.95
203, 13418.00, 38144.77, 25.53, 16084.69, 97.92, -290.17, 8495.27, -36435.27, -27217.32, 28852.35, 738.05, 14291.06, 0.00, 0.00, 0.00, 0.00, 0.00, 0.00, 0.00
204, 13418.00, 38144.77, 25.53, 16084.69, 97.92, -290.17, 8495.27, -36435.27, -27210.95, 28826.37, 734.01, 14274.43, 0.00, 0.00, 0.00, 0.00, 0.00, 0.00, 0.00
205, 13429.33, 38146.85, 24.14, 16084.43, 98.73, -291.15, 8496.12, -36436.20, -27210.95, 28826.37, 734.01, 14274.43, 0.00, 0.00, 0.00, 0.00, 0.00, 0.00, 0.00
206, 13429.33, 38146.85, 24.14, 16084.43, 98.73, -291.15, 8496.12, -36436.20, -27208.17, 28857.55, 740.29, 14294.66, 0.00, 0.00, 0.00, 0.00, 0.00, 0.00, 0.00
207, 13428.66, 38153.78, 27.98, 16086.55, 101.77, -287.67, 8499.36, -36433.27, -27208.17, 28857.55, 740.29, 14294.66, 0.00, 0.00, 0.00, 0.00, 0.00, 0.00, 0.00
208, 13428.66, 38153.78, 27.98, 16086.55, 101.77, -287.67, 8499.36, -36433.27, -27208.35, 28827.67, 737.54, 14277.56, 0.00, 0.00, 0.00, 0.00, 0.00, 0.00, 0.00
209, 13419.36, 38148.95, 23.96, 16079.93, 93.10, -294.01, 8490.58, -36442.68, -27208.35, 28827.67, 737.54, 14277.56, 0.00, 0.00, 0.00, 0.00, 0.00, 0.00, 0.00
210, 13419.36, 38148.95, 23.96, 16079.93, 93.10, -294.01, 8490.58, -36442.68, -27215.53, 28846.38, 733.20, 14288.08, 0.00, 0.00, 0.00, 0.00, 0.00, 0.00, 0.00
211, 13424.59, 38147.88, 28.54, 16086.42, 99.62, -290.42, 8496.48, -36439.31, -27215.53, 28846.38, 733.20, 14288.08, 0.00, 0.00, 0.00, 0.00, -0.03, 0.34, 0.95
212, 13424.59, 38147.88, 28.54, 16086.42, 99.62, -290.42, 8496.48, -36439.31, -27211.33, 28825.03, 743.02, 14277.56, 0.00, 0.00, 0.00, 0.00, 0.00, 0.00, 0.00
213, 13423.00, 38144.14, 22.73, 16078.46, 91.69, -296.65, 8487.40, -36444.79, -27211.33, 28825.03, 743.02, 14277.56, 0.00, 0.00, 0.00, 0.00, 0.00, 0.00, 0.00
214, 13423.00, 38144.14, 22.73, 16078.46, 91.69, -296.65, 8487.40, -36444.79, -27212.73, 28847.38, 731.93, 14292.17, 0.00, 0.00, 0.00, 0.00, 0.00, 0.00, 0.00
215, 13429.71, 38155.97, 29.08, 16088.45, 101.07, -287.67, 8498.38, -36435.89, -27212.73, 28847.38, 731.93, 14292.17, 0.00, 0.00, 0.00, 0.00, 0.00, 0.00, 0.00
216, 13429.71, 38155.97, 29.08, 16088.45, 101.07, -287.67, 8498.38, -36435.89, -27210.83, 28827.96, 736.45, 14274.25, 0.00, 0.00, 0.00, 0.00, 0.00, 0.00, 0.00
217, 13416.28, 38144.82, 18.71, 16071.71, 85.65, -302.11, 8481.82, -36447.56, -27210.83, 28827.96, 736.45, 14274.25, 0.00, 0.00, 0.00, 0.00, 0.00, 0.00, 0.00
218, 13416.28, 38144.82, 18.71, 16071.71, 85.65, -302.11, 8481.82, -36447.56, -27217.16, 28838.06, 729.76, 14284.24, 0.00, 0.00, 0.00, 0.00, 0.00, 0.00, 0.00
219, 13430.00, 38163.32, 28.74, 16089.86, 100.83, -287.56, 8498.76, -36439.38, -27217.16, 28838.06, 729.76, 14284.24, 0.00, 0.00, 0.00, 0.00, 0.00, 0.00, 0.00
220, 13430.00, 38163.32, 28.74, 16089.86, 100.83, -287.56, 8498.76, -36439.38, -27210.77, 28830.58, 743.24, 14280.01, 0.00, 0.00, 0.00, 0.00, 0.00, 0.00, 0.00
221, 13419.54, 38154.65, 24.03, 16076.38, 92.22, -298.84, 8485.15, -36445.23, -27210.77, 28830.58, 743.24, 14280.01, 0.00, 0.00, 0.00, 0.00, -0.02, 0.35, 0.95
222, 13419.54, 38154.65, 24.03, 16076.38, 92.22, -298.84, 8485.15, -36445.23, -27209.45, 28842.36, 742.55, 14291.39, 0.00, 0.00, 0.00, 0.00, 0.00, 0.00, 0.00
223, 13428.44, 38150.80, 30.51, 16091.45, 102.77, -285.77, 8501.08, -36437.68, -27209.45, 28842.36, 742.55, 14291.39, 0.00, 0.00, 0.00, 0.00, 0.00, 0.00, 0.00
224, 13428.44, 38150.80, 30.51, 16091.45, 102.77, -285.77, 8501.08, -36437.68, -27217.94, 28832.25, 741.65, 14279.95, 0.00, 0.00, 0.00, 0.00, 0.00, 0.00, 0.00
225, 13412.25, 38136.03, 19.56, 16071.22, 88.02, -301.88, 8482.26, -36446.75, -27217.94, 28832.25, 741.65, 14279.95, 0.00, 0.00, 0.00, 0.00, 0.00, 0.00, 0.00
226, 13412.25, 38136.03, 19.56, 16071.22, 88.02, -301.88, 8482.26, -36446.75, -27211.77, 28835.52, 729.61, 14281.38, 0.00, 0.00, 0.00, 0.00, 0.00, 0.00, 0.00
227, 13432.71, 38157.76, 27.58, 16091.76, 99.87, -287.15, 8499.81, -36439.29, -27211.77, 28835.52, 729.61, 14281.38, 0.00, 0.00, 0.00, 0.00, 0.00, 0.00, 0.00
228, 13432.71, 38157.76, 27.58, 16091.76, 99.87, -287.15, 8499.81, -36439.29, -27212.62, 28835.72, 744.34, 14282.03, 0.00, 0.00, 0.00, 0.00, 0.00, 0.00, 0.00
229, 13418.38, 38143.09, 26.64, 16077.34, 92.58, -297.77, 8486.11, -36443.69, -27212.62, 28835.72, 744.34, 14282.03, 0.00, 0.00, 0.00, 0.00, 0.00, 0.00, 0.00
230, 13418.38, 38143.09, 26.64, 16077.34, 92.58, -297.77, 8486.11, -36443.69, -27206.01, 28834.62, 737.83, 14285.07, 0.00, 0.00, 0.00, 0.00, 0.00, 0.00, 0.00
231, 13428.91, 38161.87, 34.67, 16094.57, 106.24, -283.82, 8505.64, -36433.57, -27206.01, 28834.62, 737.83, 14285.07, 0.00, 0.00, 0.00, 0.00, -0.02, 0.34, 0.96
232, 13428.91, 38161.87, 34.67, 16094.57, 106.24, -283.82, 8505.64, -36433.57, -27210.83, 28842.06, 746.50, 14285.94, 0.00, 0.00, 0.00, 0.00, 0.00, 0.00, 0.00
233, 13418.31, 38146.00, 23.54, 16075.80, 87.53, -299.40, 8482.20, -36449.55, -27210.83, 28842.06, 746.50, 14285.94, 0.00, 0.00, 0.00, 0.00, 0.00, 0.00, 0.00
234, 13418.31, 38146.00, 23.54, 16075.80, 87.53, -299.40, 8482.20, -36449.55, -27215.30, 28823.40, 732.27, 14278.12, 0.00, 0.00, 0.00, 0.00, 0.00, 0.00, 0.00
235, 13424.30, 38158.23, 24.92, 16088.41, 95.31, -289.70, 8498.25, -36443.16, -27215.30, 28823.40, 732.27, 14278.12, 0.00, 0.00, 0.00, 0.00, 0.00, 0.00, 0.00
236, 13424.30, 38158.23, 24.92, 16088.41, 95.31, -289.70, 8498.25, -36443.16, -27213.72, 28839.54, 745.21, 14282.18, 0.00, 0.00, 0.00, 0.00, 0.00, 0.00, 0.00
237, 13427.90, 38150.87, 28.68, 16076.18, 93.94, -297.14, 8485.97, -36445.39, -27213.72, 28839.54, 745.21, 14282.18, 0.00, 0.00, 0.00, 0.00, 0.00, 0.00, 0.00
238, 13427.90, 38150.87, 28.68, 16076.18, 93.94, -297.14, 8485.97, -36445.39, -27198.85, 28830.46, 746.26, 14284.28, 0.00, 0.00, 0.00, 0.00, 0.00, 0.00, 0.00
239, 13427.03, 38158.38, 33.08, 16094.53, 106.19, -282.84, 8504.46, -36433.27, -27198.85, 28830.46, 746.26, 14284.28, 0.00, 0.00, 0.00, 0.00, 0.00, 0.00, 0.00
240, 13427.03, 38158.38, 33.08, 16094.53, 106.19, -282.84, 8504.46, -36433.27, -27206.01, 28851.12, 745.56, 14292.91, 0.00, 0.00, 0.00, 0.00, 0.00, 0.00, 0.00
241, 13420.28, 38143.14, 24.43, 16077.39, 92.51, -295.29, 8485.77, -36446.71, -27206.01, 28851.12, 745.56, 14292.91, 0.00, 0.00, 0.00, 0.00, -0.03, 0.35, 0.96
242, 13420.28, 38143.14, 24.43, 16077.39, 92.51, -295.29, 8485.77, -36446.71, -27202.92, 28825.08, 736.96, 14280.28, 0.00, 0.00, 0.00, 0.00, 0.00, 0.00, 0.00
243, 13427.92, 38152.86, 24.86, 16086.10, 96.40, -290.35, 8495.58, -36441.41, -27202.92, 28825.08, 736.96, 14280.28, 0.00, 0.00, 0.00, 0.00, 0.00, 0.00, 0.00
244, 13427.92, 38152.86, 24.86, 16086.10, 96.40, -290.35, 8495.58, -36441.41, -27211.28, 28849.64, 739.26, 14291.66, 0.00, 0.00, 0.00, 0.00, 0.00, 0.00, 0.00
245, 13420.57, 38153.93, 22.40, 16074.82, 90.01, -298.19, 8486.20, -36445.77, -27211.28, 28849.64, 739.26, 14291.66, 0.00, 0.00, 0.00, 0.00, 0.00, 0.00, 0.00
246, 13420.57, 38153.93, 22.40, 16074.82, 90.01, -298.19, 8486.20, -36445.77, -27204.24, 28823.91, 736.40, 14278.74, 0.00, 0.00, 0.00, 0.00, 0.00, 0.00, 0.00
247, 13423.25, 38155.45, 24.92, 16084.94, 94.46, -291.96, 8494.06, -36444.36, -27204.24, 28823.91, 736.40, 14278.74, 0.00, 0.00, 0.00, 0.00, 0.00, 0.00, 0.00
248, 13423.25, 38155.45, 24.92, 16084.94, 94.46, -291.96, 8494.06, -36444.36, -27213.52, 28850.58, 734.28, 14292.62, 0.00, 0.00, 0.00, 0.00, 0.00, 0.00, 0.00
249, 13427.41, 38157.96, 24.36, 16080.43, 92.78, -292.99, 8490.73, -36444.16, -27213.52, 28850.58, 734.28, 14292.62, 0.00, 0.00, 0.00, 0.00, 0.00, 0.00, 0.00
250, 13427.41, 38157.96, 24.36, 16080.43, 92.78, -292.99, 8490.73, -36444.16, -27202.45, 28828.07, 743.87, 14282.47, 0.00, 0.00, 0.00, 0.00, -0.03, 0.34, 0.95
251, 13424.99, 38154.98, 28.07, 16081.30, 96.34, -293.32, 8494.91, -36441.84, -27202.45, 28828.07, 743.87, 14282.47, 0.00, 0.00, 0.00, 0.00, 0.00, 0.00, 0.00
252, 13424.99, 38154.98, 28.07, 16081.30, 96.34, -293.32, 8494.91, -36441.84, -27206.47, 28852.84, 742.03, 14293.36, 0.00, 0.00, 0.00, 0.00, 0.00, 0.00, 0.00
253, 13424.57, 38151.66, 28.36, 16083.00, 96.18, -293.03, 8492.88, -36444.23, -27206.47, 28852.84, 742.03, 14293.36, 0.00, 0.00, 0.00, 0.00, 0.00, 0.00, 0.00
254, 13424.57, 38151.66, 28.36, 16083.00, 96.18, -293.03, 8492.88, -36444.23, -27203.01, 28821.90, 745.43, 14274.36, 0.00, 0.00, 0.00, 0.00, 0.00, 0.00, 0.00
255, 13419.61, 38149.17, 24.86, 16079.84, 93.25, -294.57, 8491.58, -36446.80, -27203.01, 28821.90, 745.43, 14274.36, 0.00, 0.00, 0.00, 0.00, 0.00, 0.00, 0.00
0, 13419.61, 38149.17, 24.86, 16079.84, 93.25, -294.57, 8491.58, -36446.80, -27210.16, 28845.53, 736.31, 14292.15, 0.00, 0.00, 0.00, 0.00, 0.00, 0.00, 0.00
1, 13426.31, 38150.61, 25.10, 16083.58, 96.65, -289.12, 8495.65, -36444.81, -27210.16, 28845.53, 736.31, 14292.15, 0.00, 0.00, 0.00, 0.00, 0.00, 0.00, 0.00
2, 13426.31, 38150.61, 25.10, 16083.58, 96.65, -289.12, 8495.65, -36444.81, -27200.37, 28829.10, 743.20, 14284.49, 0.00, 0.00, 0.00, 0.00, 0.00, 0.00, 0.00
3, 13424.39, 38152.17, 23.38, 16078.86, 92.38, -295.51, 8489.44, -36446.20, -27200.37, 28829.10, 743.20, 14284.49, 0.00, 0.00, 0.00, 0.00, 0.00, 0.00, 0.00
4, 13424.39, 38152.17, 23.38, 16078.86, 92.38, -295.51, 8489.44, -36446.20, -27207.37, 28843.47, 737.59, 14286.52, 0.00, 0.00, 0.00, 0.00, -0.03, 0.34, 0.96
5, 13423.38, 38160.51, 25.88, 16084.07, 95.69, -291.22, 8493.35, -36445.86, -27207.37, 28843.47, 737.59, 14286.52, 0.00, 0.00, 0.00, 0.00, 0.00, 0.00, 0.00
6, 13423.38, 38160.51, 25.88, 16084.07, 95.69, -291.22, 8493.35, -36445.86, -27209.78, 28820.09, 738.39, 14273.78, 0.00, 0.00, 0.00, 0.00, 0.00, 0.00, 0.00
7, 13414.53, 38144.93, 22.60, 16077.90, 86.79, -296.70, 8485.26, -36450.44, -27209.78, 28820.09, 738.39, 14273.78, 0.00, 0.00, 0.00, 0.00, 0.00, 0.00, 0.00
8, 13414.53, 38144.93, 22.60, 16077.90, 86.79, -296.70, 8485.26, -36450.44, -27210.81, 28844.10, 732.78, 14291.10, 0.00, 0.00, 0.00, 0.00, 0.00, 0.00, 0.00
9, 13425.24, 38150.63, 26.35, 16087.15, 94.23, -289.28, 8494.62, -36446.24, -27210.81, 28844.10, 732.78, 14291.10, 0.00, 0.00, 0.00, 0.00, 0.00, 0.00, 0.00
10, 13425.24, 38150.63, 26.35, 16087.15, 94.23, -289.28, 8494.62, -36446.24, -27215.42, 28818.13, 736.80, 14270.02, 0.00, 0.00, 0.00, 0.00, 0.00, 0.00, 0.00
11, 13414.20, 38136.79, 16.85, 16071.17, 81.70, -302.60, 8477.90, -36457.28, -27215.42, 28818.13, 736.80, 14270.02, 0.00, 0.00, 0.00, 0.00, 0.00, 0.00, 0.00
12, 13414.20, 38136.79, 16.85, 16071.17, 81.70, -302.60, 8477.90, -36457.28, -27210.95, 28828.45, 730.14, 14282.65, 0.00, 0.00, 0.00, 0.00, 0.00, 0.00, 0.00
13, 13423.43, 38159.12, 29.03, 16091.71, 97.59, -286.82, 8498.60, -36442.71, -27210.95, 28828.45, 730.14, 14282.65, 0.00, 0.00, 0.00, 0.00, 0.00, 0.00, 0.00
14, 13423.43, 38159.12, 29.03, 16091.71, 97.59, -286.82, 8498.60, -36442.71, -27203.23, 28832.41, 740.38, 14284.51, 0.00, 0.00, 0.00, 0.00, -0.02, 0.34, 0.95
15, 13415.36, 38142.49, 21.08, 16073.09, 86.34, -298.13, 8483.00, -36448.83, -27203.23, 28832.41, 740.38, 14284.51, 0.00, 0.00, 0.00, 0.00, 0.00, 0.00, 0.00
16, 13415.36, 38142.49, 21.08, 16073.09, 86.34, -298.13, 8483.00, -36448.83, -27203.64, 28835.40, 733.34, 14285.16, 0.00, 0.00, 0.00, 0.00, 0.00, 0.00, 0.00
17, 13426.18, 38156.48, 28.97, 16091.18, 101.81, -283.55, 8501.75, -36439.89, -27203.64, 28835.40, 733.34, 14285.16, 0.00, 0.00, 0.00, 0.00, 0.00, 0.00, 0.00
18, 13426.18, 38156.48, 28.97, 16091.18, 101.81, -283.55, 8501.75, -36439.89, -27200.26, 28834.89, 742.75, 14281.54, 0.00, 0.00, 0.00, 0.00, 0.00, 0.00, 0.00
19, 13410.38, 38136.46, 19.83, 16074.17, 85.47, -298.28, 8480.61, -36451.07, -27200.26, 28834.89, 742.75, 14281.54, 0.00, 0.00, 0.00, 0.00, 0.00, 0.00, 0.00
20, 13410.38, 38136.46, 19.83, 16074.17, 85.47, -298.28, 8480.61, -36451.07, -27199.28, 28833.26, 738.05, 14287.99, 0.00, 0.00, 0.00, 0.00, 0.00, 0.00, 0.00
21, 13422.71, 38153.20, 29.33, 16092.12, 102.21, -281.68, 8502.18, -36439.51, -27199.28, 28833.26, 738.05, 14287.99, 0.00, 0.00, 0.00, 0.00, 0.00, 0.00, 0.00
22, 13422.71, 38153.20, 29.33, 16092.12, 102.21, -281.68, 8502.18, -36439.51, -27203.68, 28835.81, 743.42, 14283.30, 0.00, 0.00, 0.00, 0.00, 0.00, 0.00, 0.00
23, 13412.16, 38139.41, 18.82, 16073.99, 86.50, -296.70, 8483.11, -36449.17, -27203.68, 28835.81, 743.42, 14283.30, 0.00, 0.00, 0.00, 0.00, 0.00, 0.00, 0.00
24, 13412.16, 38139.41, 18.82, 16073.99, 86.50, -296.70, 8483.11, -36449.17, -27196.48, 28830.33, 735.55, 14284.33, 0.00, 0.00, 0.00, 0.00, -0.02, 0.34, 0.96
25, 13434.02, 38162.20, 30.73, 16094.46, 104.54, -282.03, 8502.98, -36439.67, -27196.48, 28830.33, 735.55, 14284.33, 0.00, 0.00, 0.00, 0.00, 0.00, 0.00, 0.00
26, 13434.02, 38162.20, 30.73, 16094.46, 104.54, -282.03, 8502.98, -36439.67, -27202.94, 28841.26, 749.01, 14285.42, 0.00, 0.00, 0.00, 0.00, 0.00, 0.00, 0.00
27, 13409.33, 38141.30, 21.48, 16073.65, 85.76, -299.11, 8479.80, -36452.30, -27202.94, 28841.26, 749.01, 14285.42, 0.00, 0.00, 0.00, 0.00, 0.00, 0.00, 0.00
28, 13409.33, 38141.30, 21.48, 16073.65, 85.76, -299.11, 8479.80, -36452.30, -27203.50, 28821.59, 733.43, 14278.92, 0.00, 0.00, 0.00, 0.00, 0.00, 0.00, 0.00
29, 13418.22, 38153.18, 23.98, 16089.61, 98.15, -284.69, 8498.67, -36445.48, -27203.50, 28821.59, 733.43, 14278.92, 0.00, 0.00, 0.00, 0.00, 0.00, 0.00, 0.00
30, 13418.22, 38153.18, 23.98, 16089.61, 98.15, -284.69, 8498.67, -36445.48, -27207.86, 28835.94, 742.70, 14285.16, 0.00, 0.00, 0.00, 0.00, 0.00, 0.00, 0.00
31, 13408.23, 38129.30, 18.04, 16075.13, 85.72, -296.23, 8480.99, -36454.29, -27207.86, 28835.94, 742.70, 14285.16, 0.00, 0.00, 0.00, 0.00, 0.00, 0.00, 0.00
32, 13408.23, 38129.30, 18.04, 16075.13, 85.72, -296.23, 8480.99, -36454.29, -27196.57, 28821.66, 739.28, 14282.36, 0.00, 0.00, 0.00, 0.00, 0.00, 0.00, 0.00
33, 13420.08, 38146.52, 24.03, 16089.37, 100.29, -286.37, 8499.03, -36440.56, -27196.57, 28821.66, 739.28, 14282.36, 0.00, 0.00, 0.00, 0.00, -0.02, 0.34, 0.96
34, 13420.08, 38146.52, 24.03, 16089.37, 100.29, -286.37, 8499.03, -36440.56, -27199.99, 28844.52, 740.02, 14291.62, 0.00, 0.00, 0.00, 0.00, 0.00, 0.00, 0.00
35, 13410.73, 38137.42, 17.48, 16079.62, 89.12, -293.43, 8484.97, -36447.96, -27199.99, 28844.52, 740.02, 14291.62, 0.00, 0.00, 0.00, 0.00, 0.00, 0.00, 0.00
36, 13410.73, 38137.42, 17.48, 16079.62, 89.12, -293.43, 8484.97, -36447.96, -27196.42, 28820.41, 741.47, 14281.24, 0.00, 0.00, 0.00, 0.00, 0.00, 0.00, 0.00
37, 13416.59, 38142.60, 25.50, 16089.01, 99.78, -286.28, 8497.44, -36440.23, -27196.42, 28820.41, 741.47, 14281.24, 0.00, 0.00, 0.00, 0.00, 0.00, 0.00, 0.00
38, 13416.59, 38142.60, 25.50, 16089.01, 99.78, -286.28, 8497.44, -36440.23, -27196.78, 28851.14, 742.12, 14298.77, 0.00, 0.00, 0.00, 0.00, 0.00, 0.00, 0.00
39, 13414.38, 38142.71, 23.09, 16083.53, 92.27, -289.61, 8490.69, -36443.54, -27196.78, 28851.14, 742.12, 14298.77, 0.00, 0.00, 0.00, 0.00, 0.00, 0.00, 0.00
40, 13414.38, 38142.71, 23.09, 16083.53, 92.27, -289.61, 8490.69, -36443.54, -27190.81, 28823.67, 740.94, 14285.29, 0.00, 0.00, 0.00, 0.00, 0.00, 0.00, 0.00
41, 13408.52, 38139.05, 22.66, 16085.52, 96.36, -287.24, 8496.05, -36441.19, -27190.81, 28823.67, 740.94, 14285.29, 0.00, 0.00, 0.00, 0.00, 0.00, 0.00, 0.00
42, 13408.52, 38139.05, 22.66, 16085.52, 96.36, -287.24, 8496.05, -36441.19, -27196.24, 28851.59, 738.90, 14303.08, 0.00, 0.00, 0.00, 0.00, 0.00, 0.00, 0.00
43, 13407.49, 38127.43, 20.30, 16084.96, 92.60, -288.09, 8491.56, -36442.95, -27196.24, 28851.59, 738.90, 14303.08, 0.00, 0.00, 0.00, 0.00, -0.02, 0.35, 0.96
44, 13407.49, 38127.43, 20.30, 16084.96, 92.60, -288.09, 8491.56, -36442.95, -27195.84, 28817.46, 737.50, 14282.43, 0.00, 0.00, 0.00, 0.00, 0.00, 0.00, 0.00
45, 13403.18, 38131.36, 16.56, 16080.58, 83.53, -293.77, 8486.91, -36453.01, -27195.84, 28817.46, 737.50, 14282.43, 0.00, 0.00, 0.00, 0.00, 0.00, 0.00, 0.00
46, 13403.18, 38131.36, 16.56, 16080.58, 83.53, -293.77, 8486.91, -36453.01, -27199.55, 28841.73, 737.18, 14292.64, 0.00, 0.00, 0.00, 0.00, 0.00, 0.00, 0.00
47, 13415.07, 38145.87, 23.49, 16086.71, 95.93, -288.20, 8493.89, -36444.14, -27199.55, 28841.73, 737.18, 14292.64, 0.00, 0.00, 0.00, 0.00, 0.00, 0.00, 0.00
48, 13415.07, 38145.87, 23.49, 16086.71, 95.93, -288.20, 8493.89, -36444.14, -27191.63, 28821.19, 740.98, 14281.09, 0.00, 0.00, 0.00, 0.00, 0.00, 0.00, 0.00
49, 13406.69, 38130.60, 18.35, 16083.33, 86.01, -293.86, 8485.93, -36451.58, -27191.63, 28821.19, 740.98, 14281.09, 0.00, 0.00, 0.00, 0.00, 0.00, 0.00, 0.00
50, 13406.69, 38130.60, 18.35, 16083.33, 86.01, -293.86, 8485.93, -36451.58, -27199.88, 28835.98, 739.57, 14289.58, 0.00, 0.00, 0.00, 0.00, 0.00, 0.00, 0.00
51, 13421.89, 38152.23, 28.65, 16091.85, 95.93, -285.59, 8495.70, -36444.63, -27199.88, 28835.98, 739.57, 14289.58, 0.00, 0.00, 0.00, 0.00, 0.00, 0.00, 0.00
52, 13421.89, 38152.23, 28.65, 16091.85, 95.93, -285.59, 8495.70, -36444.63, -27190.92, 28817.48, 751.53, 14278.56, 0.00, 0.00, 0.00, 0.00, 0.00, 0.00, 0.00
53, 13418.65, 38144.79, 29.73, 16084.11, 92.42, -291.02, 8490.33, -36447.00, -27190.92, 28817.48, 751.53, 14278.56, 0.00, 0.00, 0.00, 0.00, -0.02, 0.34, 0.96
54, 13418.65, 38144.79, 29.73, 16084.11, 92.42, -291.02, 8490.33, -36447.00, -27188.04, 28842.49, 747.73, 14296.40, 0.00, 0.00, 0.00, 0.00, 0.00, 0.00, 0.00
55, 13425.02, 38152.97, 34.47, 16094.26, 103.56, -282.30, 8503.09, -36438.57, -27188.04, 28842.49, 747.73, 14296.40, 0.00, 0.00, 0.00, 0.00, 0.00, 0.00, 0.00
56, 13425.02, 38152.97, 34.47, 16094.26, 103.56, -282.30, 8503.09, -36438.57, -27187.48, 28825.81, 755.58, 14284.49, 0.00, 0.00, 0.00, 0.00, 0.00, 0.00, 0.00
57, 13418.69, 38141.51, 28.74, 16084.74, 90.41, -292.99, 8486.73, -36449.61, -27187.48, 28825.81, 755.58, 14284.49, 0.00, 0.00, 0.00, 0.00, 0.00, 0.00, 0.00
58, 13418.69, 38141.51, 28.74, 16084.74, 90.41, -292.99, 8486.73, -36449.61, -27191.97, 28838.89, 749.32, 14291.84, 0.00, 0.00, 0.00, 0.00, 0.00, 0.00, 0.00
59, 13430.63, 38158.45, 37.22, 16097.61, 103.47, -280.00, 8502.85, -36441.52, -27191.97, 28838.89, 749.32, 14291.84, 0.00, 0.00, 0.00, 0.00, 0.00, 0.00, 0.00
60, 13430.63, 38158.45, 37.22, 16097.61, 103.47, -280.00, 8502.85, -36441.52, -27189.29, 28829.37, 759.45, 14285.04, 0.00, 0.00, 0.00, 0.00, 0.00, 0.00, 0.00
61, 13416.32, 38145.96, 30.24, 16082.82, 89.14, -293.17, 8485.84, -36449.64, -27189.29, 28829.37, 759.45, 14285.04, 0.00, 0.00, 0.00, 0.00, 0.00, 0.00, 0.00
62, 13416.32, 38145.96, 30.24, 16082.82, 89.14, -293.17, 8485.84, -36449.64, -27196.75, 28829.46, 740.58, 14286.72, 0.00, 0.00, 0.00, 0.00, 0.00, 0.00, 0.00
63, 13429.80, 38163.21, 30.96, 16095.51, 94.32, -284.00, 8497.93, -36450.15, -27196.75, 28829.46, 740.58, 14286.72, 0.00, 0.00, 0.00, 0.00, -0.02, 0.34, 0.96
64, 13429.80, 38163.21, 30.96, 16095.51, 94.32, -284.00, 8497.93, -36450.15, -27197.18, 28826.28, 748.49, 14286.05, 0.00, 0.00, 0.00, 0.00, 0.00, 0.00, 0.00
65, 13416.97, 38146.69, 24.59, 16076.33, 86.46, -296.43, 8483.81, -36451.63, -27197.18, 28826.28, 748.49, 14286.05, 0.00, 0.00, 0.00, 0.00, 0.00, 0.00, 0.00
66, 13416.97, 38146.69, 24.59, 16076.33, 86.46, -296.43, 8483.81, -36451.63, -27185.11, 28834.76, 747.46, 14294.92, 0.00, 0.00, 0.00, 0.00, 0.00, 0.00, 0.00
67, 13433.46, 38160.08, 41.37, 16101.06, 102.75, -277.72, 8505.17, -36442.57, -27185.11, 28834.76, 747.46, 14294.92, 0.00, 0.00, 0.00, 0.00, 0.00, 0.00, 0.00
68, 13433.46, 38160.08, 41.37, 16101.06, 102.75, -277.72, 8505.17, -36442.57, -27190.87, 28827.40, 763.36, 14287.82, 0.00, 0.00, 0.00, 0.00, 0.00, 0.00, 0.00
69, 13421.44, 38142.27, 31.25, 16081.23, 88.16, -294.08, 8483.87, -36453.66, -27190.87, 28827.40, 763.36, 14287.82, 0.00, 0.00, 0.00, 0.00, 0.00, 0.00, 0.00
70, 13421.44, 38142.27, 31.25, 16081.23, 88.16, -294.08, 8483.87, -36453.66, -27191.48, 28823.02, 747.04, 14285.13, 0.00, 0.00, 0.00, 0.00, 0.00, 0.00, 0.00
71, 13434.90, 38160.08, 38.13, 16098.31, 100.36, -280.74, 8503.21, -36443.45, -27191.48, 28823.02, 747.04, 14285.13, 0.00, 0.00, 0.00, 0.00, 0.00, 0.00, 0.00
72, 13434.90, 38160.08, 38.13, 16098.31, 100.36, -280.74, 8503.21, -36443.45, -27194.74, 28837.30, 756.03, 14293.43, 0.00, 0.00, 0.00, 0.00, -0.02, 0.34, 0.96
73, 13419.76, 38149.80, 29.30, 16079.58, 85.34, -294.17, 8483.54, -36453.23, -27194.74, 28837.30, 756.03, 14293.43, 0.00, 0.00, 0.00, 0.00, 0.00, 0.00, 0.00
74, 13419.76, 38149.80, 29.30, 16079.58, 85.34, -294.17, 8483.54, -36453.23, -27190.47, 28817.21, 745.54, 14283.28, 0.00, 0.00, 0.00, 0.00, 0.00, 0.00, 0.00
75, 13434.54, 38159.66, 36.01, 16096.14, 96.40, -283.44, 8497.55, -36448.70, -27190.47, 28817.21, 745.54, 14283.28, 0.00, 0.00, 0.00, 0.00, 0.00, 0.00, 0.00
76, 13434.54, 38159.66, 36.01, 16096.14, 96.40, -283.44, 8497.55, -36448.70, -27197.29, 28830.60, 753.95, 14290.07, 0.00, 0.00, 0.00, 0.00, 0.00, 0.00, 0.00
77, 13425.89, 38152.26, 29.97, 16080.81, 85.74, -292.99, 8484.34, -36452.77, -27197.29, 28830.60, 753.95, 14290.07, 0.00, 0.00, 0.00, 0.00, 0.00, 0.00, 0.00
78, 13425.89, 38152.26, 29.97, 16080.81, 85.74, -292.99, 8484.34, -36452.77, -27187.97, 28821.52, 742.01, 14289.76, 0.00, 0.00, 0.00, 0.00, 0.00, 0.00, 0.00
79, 13433.35, 38156.50, 34.20, 16100.09, 96.31, -280.25, 8499.99, -36446.35, -27187.97, 28821.52, 742.01, 14289.76, 0.00, 0.00, 0.00, 0.00, 0.00, 0.00, 0.00
80, 13433.35, 38156.50, 34.20, 16100.09, 96.31, -280.25, 8499.99, -36446.35, -27193.33, 28835.40, 750.44, 14293.76, 0.00, 0.00, 0.00, 0.00, 0.00, 0.00, 0.00
81, 13417.28, 38142.69, 28.21, 16082.48, 85.00, -292.96, 8484.39, -36454.73, -27193.33, 28835.40, 750.44, 14293.76, 0.00, 0.00, 0.00, 0.00, 0.00, 0.00, 0.00
82, 13417.28, 38142.69, 28.21, 16082.48, 85.00, -292.96, 8484.39, -36454.73, -27184.15, 28815.62, 745.81, 14286.45, 0.00, 0.00, 0.00, 0.00, -0.02, 0.34, 0.96
83, 13427.03, 38150.78, 33.13, 16093.97, 97.03, -282.21, 8499.05, -36444.18, -27184.15, 28815.62, 745.81, 14286.45, 0.00, 0.00, 0.00, 0.00, 0.00, 0.00, 0.00
84, 13427.03, 38150.78, 33.13, 16093.97, 97.03, -282.21, 8499.05, -36444.18, -27188.62, 28838.91, 754.66, 14295.79, 0.00, 0.00, 0.00, 0.00, 0.00, 0.00, 0.00
85, 13422.47, 38143.61, 28.52, 16083.64, 89.72, -291.02, 8488.66, -36450.08, -27188.62, 28838.91, 754.66, 14295.79, 0.00, 0.00, 0.00, 0.00, 0.00, 0.00, 0.00
86, 13422.47, 38143.61, 28.52, 16083.64, 89.72, -291.02, 8488.66, -36450.08, -27186.49, 28812.96, 745.97, 14283.93, 0.00, 0.00, 0.00, 0.00, 0.00, 0.00, 0.00
87, 13419.79, 38148.73, 28.36, 16090.51, 91.69, -285.79, 8494.85, -36448.68, -27186.49, 28812.96, 745.97, 14283.93, 0.00, 0.00, 0.00, 0.00, 0.00, 0.00, 0.00
88, 13419.79, 38148.73, 28.36, 16090.51, 91.69, -285.79, 8494.85, -36448.68, -27195.66, 28836.45, 743.60, 14294.70, 0.00, 0.00, 0.00, 0.00, 0.00, 0.00, 0.00
89, 13413.57, 38142.45, 26.02, 16086.93, 86.77, -289.16, 8489.30, -36451.61, -27195.66, 28836.45, 743.60, 14294.70, 0.00, 0.00, 0.00, 0.00, 0.00, 0.00, 0.00
90, 13413.57, 38142.45, 26.02, 16086.93, 86.77, -289.16, 8489.30, -36451.61, -27185.93, 28813.37, 741.74, 14288.84, 0.00, 0.00, 0.00, 0.00, 0.00, 0.00, 0.00
91, 13417.98, 38148.95, 26.67, 16086.24, 91.31, -287.35, 8494.56, -36449.48, -27185.93, 28813.37, 741.74, 14288.84, 0.00, 0.00, 0.00, 0.00, 0.00, 0.00, 0.00
92, 13417.98, 38148.95, 26.67, 16086.24, 91.31, -287.35, 8494.56, -36449.48, -27184.48, 28846.22, 746.95, 14309.05, 0.00, 0.00, 0.00, 0.00, -0.02, 0.34, 0.96
93, 13422.00, 38137.04, 30.55, 16090.35, 97.19, -283.04, 8498.76, -36442.46, -27184.48, 28846.22, 746.95, 14309.05, 0.00, 0.00, 0.00, 0.00, 0.00, 0.00, 0.00
94, 13422.00, 38137.04, 30.55, 16090.35, 97.19, -283.04, 8498.76, -36442.46, -27177.84, 28821.52, 748.83, 14291.57, 0.00, 0.00, 0.00, 0.00, 0.00, 0.00, 0.00
95, 13413.37, 38136.37, 24.12, 16082.64, 88.60, -290.55, 8491.20, -36450.11, -27177.84, 28821.52, 748.83, 14291.57, 0.00, 0.00, 0.00, 0.00, 0.00, 0.00, 0.00
96, 13413.37, 38136.37, 24.12, 16082.64, 88.60, -290.55, 8491.20, -36450.11, -27186.69, 28839.09, 743.08, 14297.70, 0.00, 0.00, 0.00, 0.00, 0.00, 0.00, 0.00
97, 13419.29, 38146.76, 29.64, 16089.99, 95.75, -284.45, 8498.92, -36443.54, -27186.69, 28839.09, 743.08, 14297.70, 0.00, 0.00, 0.00, 0.00, 0.00, 0.00, 0.00
98, 13419.29, 38146.76, 29.64, 16089.99, 95.75, -284.45, 8498.92, -36443.54, -27179.72, 28821.81, 748.85, 14291.97, 0.00, 0.00, 0.00, 0.00, 0.00, 0.00, 0.00
99, 13413.62, 38142.16, 25.39, 16085.77, 90.39, -288.20, 8492.43, -36447.60, -27179.72, 28821.81, 748.85, 14291.97, 0.00, 0.00, 0.00, 0.00, 0.00, 0.00, 0.00
100, 13413.62, 38142.16, 25.39, 16085.77, 90.39, -288.20, 8492.43, -36447.60, -27188.42, 28834.42, 737.47, 14299.35, 0.00, 0.00, 0.00, 0.00, 0.00, 0.00, 0.00
101, 13413.73, 38148.59, 26.24, 16089.72, 94.17, -283.46, 8497.78, -36445.70, -27188.42, 28834.42, 737.47, 14299.35, 0.00, 0.00, 0.00, 0.00, 0.00, 0.00, 0.00
102, 13413.73, 38148.59, 26.24, 16089.72, 94.17, -283.46, 8497.78, -36445.70, -27191.50, 28817.54, 739.73, 14289.51, 0.00, 0.00, 0.00, 0.00, -0.01, 0.34, 0.95
103, 13402.87, 38135.05, 16.67, 16076.67, 82.01, -294.95, 8484.99, -36453.64, -27191.50, 28817.54, 739.73, 14289.51, 0.00, 0.00, 0.00, 0.00, 0.00, 0.00, 0.00
104, 13402.87, 38135.05, 16.67, 16076.67, 82.01, -294.95, 8484.99, -36453.64, -27191.48, 28832.68, 738.21, 14295.53, 0.00, 0.00, 0.00, 0.00, 0.00, 0.00, 0.00
105, 13419.03, 38135.09, 27.40, 16092.79, 95.24, -282.64, 8500.57, -36444.27, -27191.48, 28832.68, 738.21, 14295.53, 0.00, 0.00, 0.00, 0.00, 0.00, 0.00, 0.00
106, 13419.03, 38135.09, 27.40, 16092.79, 95.24, -282.64, 8500.57, -36444.27, -27185.08, 28825.05, 748.76, 14288.58, 0.00, 0.00, 0.00, 0.00, 0.00, 0.00, 0.00
107, 13401.77, 38123.63, 18.51, 16076.07, 82.28, -297.93, 8482.73, -36455.34, -27185.08, 28825.05, 748.76, 14288.58, 0.00, 0.00, 0.00, 0.00, 0.00, 0.00, 0.00
108, 13401.77, 38123.63, 18.51, 16076.07, 82.28, -297.93, 8482.73, -36455.34, -27189.76, 28828.07, 732.73, 14291.55, 0.00, 0.00, 0.00, 0.00, 0.00, 0.00, 0.00
109, 13417.68, 38148.68, 29.46, 16095.56, 96.07, -281.92, 8500.97, -36445.61, -27189.76, 28828.07, 732.73, 14291.55, 0.00, 0.00, 0.00, 0.00, 0.00, 0.00, 0.00
110, 13417.68, 38148.68, 29.46, 16095.56, 96.07, -281.92, 8500.97, -36445.61, -27186.85, 28822.80, 748.49, 14291.57, 0.00, 0.00, 0.00, 0.00, 0.00, 0.00, 0.00
111, 13398.73, 38134.67, 19.24, 16076.83, 82.32, -296.07, 8481.30, -36456.92, -27186.85, 28822.80, 748.49, 14291.57, 0.00, 0.00, 0.00, 0.00, 0.00, 0.00, 0.00
112, 13398.73, 38134.67, 19.24, 16076.83, 82.32, -296.07, 8481.30, -36456.92, -27183.07, 28825.05, 739.87, 14294.07, 0.00, 0.00, 0.00, 0.00, -0.02, 0.34, 0.95
113, 13423.90, 38143.00, 27.78, 16095.45, 97.10, -280.76, 8502.38, -36443.82, -27183.07, 28825.05, 739.87, 14294.07, 0.00, 0.00, 0.00, 0.00, 0.00, 0.00, 0.00
114, 13423.90, 38143.00, 27.78, 16095.45, 97.10, -280.76, 8502.38, -36443.82, -27181.04, 28828.79, 751.11, 14294.16, 0.00, 0.00, 0.00, 0.00, 0.00, 0.00, 0.00
115, 13411.85, 38138.07, 24.94, 16079.02, 83.48, -295.45, 8482.64, -36453.95, -27181.04, 28828.79, 751.11, 14294.16, 0.00, 0.00, 0.00, 0.00, 0.00, 0.00, 0.00
116, 13411.85, 38138.07, 24.94, 16079.02, 83.48, -295.45, 8482.64, -36453.95, -27180.62, 28822.80, 744.54, 14295.48, 0.00, 0.00, 0.00, 0.00, 0.00, 0.00, 0.00
117, 13424.26, 38163.19, 37.75, 16103.89, 100.65, -277.83, 8505.53, -36441.70, -27180.62, 28822.80, 744.54, 14295.48, 0.00, 0.00, 0.00, 0.00, 0.00, 0.00, 0.00
118, 13424.26, 38163.19, 37.75, 16103.89, 100.65, -277.83, 8505.53, -36441.70, -27188.50, 28826.15, 749.59, 14289.96, 0.00, 0.00, 0.00, 0.00, 0.00, 0.00, 0.00
119, 13403.87, 38128.45, 21.95, 16078.86, 79.55, -297.64, 8479.18, -36460.79, -27188.50, 28826.15, 749.59, 14289.96, 0.00, 0.00, 0.00, 0.00, 0.00, 0.00, 0.00
120, 13403.87, 38128.45, 21.95, 16078.86, 79.55, -297.64, 8479.18, -36460.79, -27187.41, 28816.87, 738.08, 14291.68, 0.00, 0.00, 0.00, 0.00, 0.00, 0.00, 0.00
121, 13413.55, 38140.50, 26.78, 16096.79, 96.47, -279.58, 8503.07, -36443.96, -27187.41, 28816.87, 738.08, 14291.68, 0.00, 0.00, 0.00, 0.00, -0.02, 0.35, 0.96
122, 13413.55, 38140.50, 26.78, 16096.79, 96.47, -279.58, 8503.07, -36443.96, -27187.10, 28830.29, 743.69, 14296.64, 0.00, 0.00, 0.00, 0.00, 0.00, 0.00, 0.00
123, 13404.59, 38132.79, 21.73, 16077.39, 84.20, -294.55, 8483.47, -36453.41, -27187.10, 28830.29, 743.69, 14296.64, 0.00, 0.00, 0.00, 0.00, 0.00, 0.00, 0.00
124, 13404.59, 38132.79, 21.73, 16077.39, 84.20, -294.55, 8483.47, -36453.41, -27178.04, 28819.58, 740.47, 14293.07, 0.00, 0.00, 0.00, 0.00, 0.00, 0.00, 0.00
125, 13408.81, 38143.77, 27.83, 16094.10, 97.32, -282.19, 8501.46, -36443.69, -27178.04, 28819.58, 740.47, 14293.07, 0.00, 0.00, 0.00, 0.00, 0.00, 0.00, 0.00
126, 13408.81, 38143.77, 27.83, 16094.10, 97.32, -282.19, 8501.46, -36443.69, -27184.59, 28838.69, 744.04, 14301.52, 0.00, 0.00, 0.00, 0.00, 0.00, 0.00, 0.00
127, 13404.25, 38131.85, 20.74, 16080.65, 86.55, -293.50, 8485.73, -36451.76, -27184.59, 28838.69, 744.04, 14301.52, 0.00, 0.00, 0.00, 0.00, 0.00, 0.00, 0.00
128, 13404.25, 38131.85, 20.74, 16080.65, 86.55, -293.50, 8485.73, -36451.76, -27176.95, 28816.38, 736.51, 14292.17, 0.00, 0.00, 0.00, 0.00, 0.00, 0.00, 0.00
129, 13411.45, 38143.09, 23.45, 16090.55, 94.50, -285.43, 8498.51, -36445.37, -27176.95, 28816.38, 736.51, 14292.17, 0.00, 0.00, 0.00, 0.00, 0.00, 0.00, 0.00
130, 13411.45, 38143.09, 23.45, 16090.55, 94.50, -285.43, 8498.51, -36445.37, -27187.30, 28834.60, 748.11, 14299.73, 0.00, 0.00, 0.00, 0.00, 0.00, 0.00, 0.00
131, 13406.96, 38129.35, 25.26, 16083.49, 88.36, -291.58, 8487.87, -36451.61, -27187.30, 28834.60, 748.11, 14299.73, 0.00, 0.00, 0.00, 0.00, -0.02, 0.34, 0.96
132, 13406.96, 38129.35, 25.26, 16083.49, 88.36, -291.58, 8487.87, -36451.61, -27178.67, 28811.78, 742.99, 14289.09, 0.00, 0.00, 0.00, 0.00, 0.00, 0.00, 0.00
133, 13411.47, 38141.84, 25.91, 16090.91, 92.58, -285.74, 8496.10, -36448.77, -27178.67, 28811.78, 742.99, 14289.09, 0.00, 0.00, 0.00, 0.00, 0.00, 0.00, 0.00
134, 13411.47, 38141.84, 25.91, 16090.91, 92.58, -285.74, 8496.10, -36448.77, -27183.65, 28840.16, 747.20, 14303.48, 0.00, 0.00, 0.00, 0.00, 0.00, 0.00, 0.00
135, 13411.38, 38148.91, 27.83, 16088.83, 90.75, -287.58, 8492.54, -36447.80, -27183.65, 28840.16, 747.20, 14303.48, 0.00, 0.00, 0.00, 0.00, 0.00, 0.00, 0.00
136, 13411.38, 38148.91, 27.83, 16088.83, 90.75, -287.58, 8492.54, -36447.80, -27178.00, 28813.72, 744.47, 14292.71, 0.00, 0.00, 0.00, 0.00, 0.00, 0.00, 0.00
137, 13402.78, 38133.15, 20.14, 16082.57, 89.52, -289.84, 8493.77, -36447.09, -27178.00, 28813.72, 744.47, 14292.71, 0.00, 0.00, 0.00, 0.00, 0.00, 0.00, 0.00
138, 13402.78, 38133.15, 20.14, 16082.57, 89.52, -289.84, 8493.77, -36447.09, -27182.85, 28840.12, 743.17, 14304.56, 0.00, 0.00, 0.00, 0.00, 0.00, 0.00, 0.00
139, 13406.71, 38129.15, 19.47, 16084.27, 87.44, -291.60, 8486.08, -36454.82, -27182.85, 28840.12, 743.17, 14304.56, 0.00, 0.00, 0.00, 0.00, 0.00, 0.00, 0.00
140, 13406.71, 38129.15, 19.47, 16084.27, 87.44, -291.60, 8486.08, -36454.82, -27176.95, 28812.61, 743.64, 14289.89, 0.00, 0.00, 0.00, 0.00, 0.00, 0.00, 0.00
141, 13399.29, 38125.64, 14.86, 16080.34, 86.79, -292.63, 8488.81, -36451.65, -27176.95, 28812.61, 743.64, 14289.89, 0.00, 0.00, 0.00, 0.00, -0.02, 0.34, 0.96
142, 13399.29, 38125.64, 14.86, 16080.34, 86.79, -292.63, 8488.81, -36451.65, -27181.58, 28839.74, 734.08, 14303.95, 0.00, 0.00, 0.00, 0.00, 0.00, 0.00, 0.00
143, 13406.42, 38131.18, 19.98, 16088.94, 89.03, -288.18, 8491.29, -36451.83, -27181.58, 28839.74, 734.08, 14303.95, 0.00, 0.00, 0.00, 0.00, 0.00, 0.00, 0.00
144, 13406.42, 38131.18, 19.98, 16088.94, 89.03, -288.18, 8491.29, -36451.83, -27176.10, 28813.12, 742.14, 14294.32, 0.00, 0.00, 0.00, 0.00, 0.00, 0.00, 0.00
145, 13396.96, 38125.95, 16.23, 16081.97, 86.43, -294.64, 8486.53, -36456.10, -27176.10, 28813.12, 742.14, 14294.32, 0.00, 0.00, 0.00, 0.00, 0.00, 0.00, 0.00
146, 13396.96, 38125.95, 16.23, 16081.97, 86.43, -294.64, 8486.53, -36456.10, -27181.46, 28838.33, 729.70, 14306.39, 0.00, 0.00, 0.00, 0.00, 0.00, 0.00, 0.00
147, 13406.60, 38134.98, 18.53, 16092.79, 92.72, -285.10, 8495.65, -36455.45, -27181.46, 28838.33, 729.70, 14306.39, 0.00, 0.00, 0.00, 0.00, 0.00, 0.00, 0.00
148, 13406.60, 38134.98, 18.53, 16092.79, 92.72, -285.10, 8495.65, -36455.45, -27176.72, 28811.02, 738.50, 14287.68, 0.00, 0.00, 0.00, 0.00, 0.00, 0.00, 0.00
149, 13399.58, 38130.89, 15.49, 16082.50, 85.83, -294.28, 8484.92, -36462.58, -27176.72, 28811.02, 738.50, 14287.68, 0.00, 0.00, 0.00, 0.00, 0.00, 0.00, 0.00
150, 13399.58, 38130.89, 15.49, 16082.50, 85.83, -294.28, 8484.92, -36462.58, -27174.74, 28838.94, 736.07, 14305.32, 0.00, 0.00, 0.00, 0.00, 0.00, 0.00, 0.00
151, 13403.60, 38134.27, 28.12, 16096.59, 100.00, -281.34, 8501.75, -36452.14, -27174.74, 28838.94, 736.07, 14305.32, 0.00, 0.00, 0.00, 0.00, -0.03, 0.34, 0.95
152, 13403.60, 38134.27, 28.12, 16096.59, 100.00, -281.34, 8501.75, -36452.14, -27172.88, 28815.73, 745.43, 14291.88, 0.00, 0.00, 0.00, 0.00, 0.00, 0.00, 0.00
153, 13402.58, 38128.77, 20.54, 16082.77, 89.23, -296.21, 8484.81, -36465.37, -27172.88, 28815.73, 745.43, 14291.88, 0.00, 0.00, 0.00, 0.00, 0.00, 0.00, 0.00
154, 13402.58, 38128.77, 20.54, 16082.77, 89.23, -296.21, 8484.81, -36465.37, -27171.94, 28821.66, 737.41, 14293.87, 0.00, 0.00, 0.00, 0.00, 0.00, 0.00, 0.00
155, 13407.31, 38138.47, 30.73, 16096.21, 103.15, -282.03, 8501.98, -36455.05, -27171.94, 28821.66, 737.41, 14293.87, 0.00, 0.00, 0.00, 0.00, 0.00, 0.00, 0.00
156, 13407.31, 38138.47, 30.73, 16096.21, 103.15, -282.03, 8501.98, -36455.05, -27168.92, 28830.62, 746.15, 14293.63, 0.00, 0.00, 0.00, 0.00, 0.00, 0.00, 0.00
157, 13396.61, 38116.07, 18.24, 16082.91, 83.53, -293.93, 8482.58, -36471.32, -27168.92, 28830.62, 746.15, 14293.63, 0.00, 0.00, 0.00, 0.00, 0.00, 0.00, 0.00
158, 13396.61, 38116.07, 18.24, 16082.91, 83.53, -293.93, 8482.58, -36471.32, -27175.38, 28812.47, 735.42, 14287.46, 0.00, 0.00, 0.00, 0.00, 0.00, 0.00, 0.00
159, 13413.50, 38146.63, 32.66, 16103.85, 108.41, -278.61, 8506.74, -36456.25, -27175.38, 28812.47, 735.42, 14287.46, 0.00, 0.00, 0.00, 0.00, 0.00, 0.00, 0.00
160, 13413.50, 38146.63, 32.66, 16103.85, 108.41, -278.61, 8506.74, -36456.25, -27170.09, 28824.74, 742.12, 14295.62, 0.00, 0.00, 0.00, 0.00, -0.02, 0.34, 0.95
161, 13393.75, 38124.54, 14.15, 16075.51, 83.42, -299.38, 8479.94, -36475.36, -27170.09, 28824.74, 742.12, 14295.62, 0.00, 0.00, 0.00, 0.00, 0.00, 0.00, 0.00
162, 13393.75, 38124.54, 14.15, 16075.51, 83.42, -299.38, 8479.94, -36475.36, -27175.79, 28810.41, 731.33, 14283.32, 0.00, 0.00, 0.00, 0.00, 0.00, 0.00, 0.00
163, 13402.15, 38120.59, 21.12, 16093.26, 98.01, -288.52, 8497.35, -36469.24, -27175.79, 28810.41, 731.33, 14283.32, 0.00, 0.00, 0.00, 0.00, 0.00, 0.00, 0.00
164, 13402.15, 38120.59, 21.12, 16093.26, 98.01, -288.52, 8497.35, -36469.24, -27173.66, 28825.99, 743.08, 14292.38, 0.00, 0.00, 0.00, 0.00, 0.00, 0.00, 0.00
165, 13391.02, 38117.55, 14.69, 16075.93, 83.73, -302.17, 8475.89, -36484.93, -27173.66, 28825.99, 743.08, 14292.38, 0.00, 0.00, 0.00, 0.00, 0.00, 0.00, 0.00
166, 13391.02, 38117.55, 14.69, 16075.93, 83.73, -302.17, 8475.89, -36484.93, -27182.00, 28793.76, 733.43, 14270.74, 0.00, 0.00, 0.00, 0.00, 0.00, 0.00, 0.00
167, 13412.54, 38144.19, 27.65, 16100.14, 100.69, -282.95, 8497.91, -36475.57, -27182.00, 28793.76, 733.43, 14270.74, 0.00, 0.00, 0.00, 0.00, 0.00, 0.00, 0.00
168, 13412.54, 38144.19, 27.65, 16100.14, 100.69, -282.95, 8497.91, -36475.57, -27177.82, 28813.88, 749.81, 14286.70, 0.00, 0.00, 0.00, 0.00, 0.00, 0.00, 0.00
169, 13401.41, 38112.29, 19.04, 16082.26, 85.32, -299.33, 8476.09, -36489.42, -27177.82, 28813.88, 749.81, 14286.70, 0.00, 0.00, 0.00, 0.00, 0.00, 0.00, 0.00
170, 13401.41, 38112.29, 19.04, 16082.26, 85.32, -299.33, 8476.09, -36489.42, -27182.04, 28792.33, 731.64, 14272.57, 0.00, 0.00, 0.00, 0.00, -0.02, 0.34, 0.95
171, 13413.30, 38138.00, 28.92, 16105.75, 100.87, -282.66, 8497.17, -36480.19, -27182.04, 28792.33, 731.64, 14272.57, 0.00, 0.00, 0.00, 0.00, 0.00, 0.00, 0.00
172, 13413.30, 38138.00, 28.92, 16105.75, 100.87, -282.66, 8497.17, -36480.19, -27173.82, 28827.71, 741.45, 14287.50, 0.00, 0.00, 0.00, 0.00, 0.00, 0.00, 0.00
173, 13402.75, 38134.96, 24.43, 16086.42, 91.49, -296.07, 8480.86, -36484.13, -27173.82, 28827.71, 741.45, 14287.50, 0.00, 0.00, 0.00, 0.00, 0.00, 0.00, 0.00
174, 13402.75, 38134.96, 24.43, 16086.42, 91.49, -296.07, 8480.86, -36484.13, -27174.74, 28802.77, 732.35, 14282.61, 0.00, 0.00, 0.00, 0.00, 0.00, 0.00, 0.00
175, 13398.86, 38124.70, 23.02, 16094.71, 95.78, -288.49, 8491.70, -36482.43, -27174.74, 28802.77, 732.35, 14282.61, 0.00, 0.00, 0.00, 0.00, 0.00, 0.00, 0.00
176, 13398.86, 38124.70, 23.02, 16094.71, 95.78, -288.49, 8491.70, -36482.43, -27183.10, 28824.59, 740.40, 14294.61, 0.00, 0.00, 0.00, 0.00, 0.00, 0.00, 0.00
177, 13394.04, 38113.30, 16.85, 16078.50, 82.23, -299.98, 8474.53, -36493.91, -27183.10, 28824.59, 740.40, 14294.61, 0.00, 0.00, 0.00, 0.00, 0.00, 0.00, 0.00
178, 13394.04, 38113.30, 16.85, 16078.50, 82.23, -299.98, 8474.53, -36493.91, -27176.59, 28790.48, 741.14, 14271.34, 0.00, 0.00, 0.00, 0.00, 0.00, 0.00, 0.00
179, 13407.13, 38148.61, 28.57, 16096.21, 95.51, -290.28, 8489.57, -36483.23, -27176.59, 28790.48, 741.14, 14271.34, 0.00, 0.00, 0.00, 0.00, 0.00, 0.00, 0.00
180, 13407.13, 38148.61, 28.57, 16096.21, 95.51, -290.28, 8489.57, -36483.23, -27182.22, 28821.84, 735.48, 14268.68, 0.00, 0.00, 0.00, 0.00, -0.02, 0.34, 0.95
181, 13417.35, 38141.93, 23.92, 16085.77, 84.91, -299.27, 8472.50, -36498.34, -27182.22, 28821.84, 735.48, 14268.68, 0.00, 0.00, 0.00, 0.00, 0.00, 0.00, 0.00
182, 13417.35, 38141.93, 23.92, 16085.77, 84.91, -299.27, 8472.50, -36498.34, -27177.24, 28793.38, 742.19, 14245.15, 0.00, 0.00, 0.00, 0.00, 0.00, 0.00, 0.00
183, 13406.33, 38118.91, 21.86, 16090.13, 87.24, -293.28, 8483.43, -36490.90, -27177.24, 28793.38, 742.19, 14245.15, 0.00, 0.00, 0.00, 0.00, 0.00, 0.00, 0.00
184, 13406.33, 38118.91, 21.86, 16090.13, 87.24, -293.28, 8483.43, -36490.90, -27183.77, 28826.42, 743.98, 14259.50, 0.00, 0.00, 0.00, 0.00, 0.00, 0.00, 0.00
185, 13391.40, 38105.54, 16.41, 16074.66, 75.75, -305.46, 8470.10, -36506.39, -27183.77, 28826.42, 743.98, 14259.50, 0.00, 0.00, 0.00, 0.00, 0.00, 0.00, 0.00
186, 13391.40, 38105.54, 16.41, 16074.66, 75.75, -305.46, 8470.10, -36506.39, -27188.75, 28780.53, 740.71, 14205.70, 0.00, 0.00, 0.00, 0.00, 0.00, 0.00, 0.00
187, 13415.20, 38149.04, 31.02, 16087.40, 81.32, -299.87, 8473.84, -36512.94, -27188.75, 28780.53, 740.71, 14205.70, 0.00, 0.00, 0.00, 0.00, 0.00, 0.00, 0.00
188, 13415.20, 38149.04, 31.02, 16087.40, 81.32, -299.87, 8473.84, -36512.94, -27184.37, 28833.44, 748.43, 14243.56, 0.00, 0.00, 0.00, 0.00, 0.00, 0.00, 0.00
189, 13443.93, 38172.75, 45.42, 16089.50, 90.79, -294.35, 8476.38, -36500.40, -27184.37, 28833.44, 748.43, 14243.56, 0.00, 0.00, 0.00, 0.00, 0.00, 0.00, 0.00
190, 13443.93, 38172.75, 45.42, 16089.50, 90.79, -294.35, 8476.38, -36500.40, -27185.96, 28769.76, 757.43, 14250.33, 0.00, 0.00, 0.00, 0.00, -0.03, 0.34, 0.96
191, 13385.27, 38095.73, 8.63, 16065.63, 62.18, -315.83, 8446.17, -36543.36, -27185.96, 28769.76, 757.43, 14250.33, 0.00, 0.00, 0.00, 0.00, 0.00, 0.00, 0.00
192, 13385.27, 38095.73, 8.63, 16065.63, 62.18, -315.83, 8446.17, -36543.36, -27201.56, 28790.48, 749.28, 14163.61, 0.00, 0.00, 0.00, 0.00, 0.00, 0.00, 0.00
193, 13411.54, 38149.80, 35.92, 16075.89, 68.51, -307.00, 8446.92, -36547.02, -27201.56, 28790.48, 749.28, 14163.61, 0.00, 0.00, 0.00, 0.00, 0.00, 0.00, 0.00
194, 13411.54, 38149.80, 35.92, 16075.89, 68.51, -307.00, 8446.92, -36547.02, -27193.67, 28792.42, 771.09, 14129.92, 0.00, 0.00, 0.00, 0.00, 0.00, 0.00, 0.00
195, 13492.29, 38225.89, 53.62, 16067.73, 66.85, -309.66, 8456.33, -36550.73, -27193.67, 28792.42, 771.09, 14129.92, 0.00, 0.00, 0.00, 0.00, 0.00, 0.00, 0.00
196, 13492.29, 38225.89, 53.62, 16067.73, 66.85, -309.66, 8456.33, -36550.73, -27192.84, 28810.68, 785.57, 14395.44, 0.00, 0.00, 0.00, 0.00, 0.00, 0.00, 0.00
197, 13434.78, 38160.37, 48.97, 16067.62, 61.49, -309.33, 8434.21, -36555.50, -27192.84, 28810.68, 785.57, 14395.44, 0.00, 0.00, 0.00, 0.00, 0.00, 0.00, 0.00
198, 13434.78, 38160.37, 48.97, 16067.62, 61.49, -309.33, 8434.21, -36555.50, -27209.96, 28766.45, 793.29, 14180.35, 0.00, 0.00, 0.00, 0.00, 0.00, 0.00, 0.00
199, 13399.96, 38096.45, 33.26, 16040.10, 34.76, -333.49, 8398.11, -36600.51, -27209.96, 28766.45, 793.29, 14180.35, 0.00, 0.00, 0.00, 0.00, -0.02, 0.35, 0.96
200, 13399.96, 38096.45, 33.26, 16040.10, 34.76, -333.49, 8398.11, -36600.51, -27225.21, 28754.29, 784.43, 14046.39, 0.00, 0.00, 0.00, 0.00, 0.00, 0.00, 0.00
201, 13471.55, 38228.61, 70.14, 16051.99, 43.94, -328.01, 8396.03, -36610.91, -27225.21, 28754.29, 784.43, 14046.39, 0.00, 0.00, 0.00, 0.00, 0.00, 0.00, 0.00
202, 13471.55, 38228.61, 70.14, 16051.99, 43.94, -328.01, 8396.03, -36610.91, -27212.38, 28759.45, 824.02, 14102.52, 0.00, 0.00, 0.00, 0.00, 0.00, 0.00, 0.00
203, 13541.25, 38207.98, 71.97, 16033.04, 29.82, -334.85, 8392.12, -36605.79, -27212.38, 28759.45, 824.02, 14102.52, 0.00, 0.00, 0.00, 0.00, 0.00, 0.00, 0.00
204, 13541.25, 38207.98, 71.97, 16033.04, 29.82, -334.85, 8392.12, -36605.79, -27219.55, 28749.21, 822.21, 14368.95, 0.00, 0.00, 0.00, 0.00, 0.00, 0.00, 0.00
205, 13409.62, 38123.11, 53.38, 16028.06, 16.58, -340.71, 8369.25, -36637.95, -27219.55, 28749.21, 822.21, 14368.95, 0.00, 0.00, 0.00, 0.00, 0.00, 0.00, 0.00
206, 13409.62, 38123.11, 53.38, 16028.06, 16.58, -340.71, 8369.25, -36637.95, -27237.70, 28719.02, 822.75, 14013.58, 0.00, 0.00, 0.00, 0.00, 0.00, 0.00, 0.00
207, 13431.72, 38163.84, 57.96, 15996.65, -21.59, -372.22, 8301.50, -36688.67, -27237.70, 28719.02, 822.75, 14013.58, 0.00, 0.00, 0.00, 0.00, 0.00, 0.00, 0.00
208, 13431.72, 38163.84, 57.96, 15996.65, -21.59, -372.22, 8301.50, -36688.67, -27211.64, 28818.66, 836.13, 14255.61, 0.00, 0.00, 0.00, 0.00, 0.00, 0.00, 0.00
209, 13620.37, 38429.13, 129.39, 16022.91, 11.67, -361.49, 8294.67, -36662.83, -27211.64, 28818.66, 836.13, 14255.61, 0.00, 0.00, 0.00, 0.00, -0.02, 0.35, 0.96
210, 13620.37, 38429.13, 129.39, 16022.91, 11.67, -361.49, 8294.67, -36662.83, -27230.46, 28711.37, 866.04, 14144.32, 0.00, 0.00, 0.00, 0.00, 0.00, 0.00, 0.00
211, 13447.35, 38109.41, 59.37, 15979.89, -45.22, -387.67, 8227.12, -36717.37, -27230.46, 28711.37, 866.04, 14144.32, 0.00, 0.00, 0.00, 0.00, 0.00, 0.00, 0.00
212, 13447.35, 38109.41, 59.37, 15979.89, -45.22, -387.67, 8227.12, -36717.37, -27237.48, 28701.29, 857.37, 14220.40, 0.00, 0.00, 0.00, 0.00, 0.00, 0.00, 0.00
213, 13437.22, 38119.13, 72.84, 15980.11, -65.85, -401.12, 8193.46, -36758.74, -27237.48, 28701.29, 857.37, 14220.40, 0.00, 0.00, 0.00, 0.00, 0.00, 0.00, 0.00
214, 13437.22, 38119.13, 72.84, 15980.11, -65.85, -401.12, 8193.46, -36758.74, -27240.58, 28753.57, 863.81, 13899.57, 0.00, 0.00, 0.00, 0.00, 0.00, 0.00, 0.00
215, 13467.73, 38174.36, 71.35, 15943.66, -91.37, -442.01, 8129.80, -36805.12, -27240.58, 28753.57, 863.81, 13899.57, 0.00, 0.00, 0.00, 0.00, 0.00, 0.00, 0.00
216, 13467.73, 38174.36, 71.35, 15943.66, -91.37, -442.01, 8129.80, -36805.12, -27241.66, 28710.10, 862.67, 13808.88, 0.00, 0.00, 0.00, 0.00, 0.00, 0.00, 0.00
217, 13523.61, 38242.27, 96.36, 15967.64, -62.38, -425.62, 8139.66, -36818.57, -27241.66, 28710.10, 862.67, 13808.88, 0.00, 0.00, 0.00, 0.00, 0.00, 0.00, 0.00
218, 13523.61, 38242.27, 96.36, 15967.64, -62.38, -425.62, 8139.66, -36818.57, -27234.37, 28754.76, 886.96, 13716.39, 0.00, 0.00, 0.00, 0.00, 0.00, 0.00, 0.00
219, 13489.57, 38171.95, 64.75, 15927.27, -118.11, -459.24, 8096.47, -36861.47, -27234.37, 28754.76, 886.96, 13716.39, 0.00, 0.00, 0.00, 0.00, -0.02, 0.34, 0.95
220, 13489.57, 38171.95, 64.75, 15927.27, -118.11, -459.24, 8096.47, -36861.47, -27241.25, 28679.99, 872.72, 13640.71, 0.00, 0.00, 0.00, 0.00, 0.00, 0.00, 0.00
221, 13516.99, 38199.35, 74.12, 15947.12, -104.96, -448.33, 8097.72, -36896.45, -27241.25, 28679.99, 872.72, 13640.71, 0.00, 0.00, 0.00, 0.00, 0.00, 0.00, 0.00
222, 13516.99, 38199.35, 74.12, 15947.12, -104.96, -448.33, 8097.72, -36896.45, -27233.86, 28764.59, 886.38, 13409.33, 0.00, 0.00, 0.00, 0.00, 0.00, 0.00, 0.00
223, 13523.68, 38242.92, 84.06, 15936.75, -92.51, -456.62, 8119.56, -36907.58, -27233.86, 28764.59, 886.38, 13409.33, 0.00, 0.00, 0.00, 0.00, 0.00, 0.00, 0.00
224, 13523.68, 38242.92, 84.06, 15936.75, -92.51, -456.62, 8119.56, -36907.58, -27225.01, 28747.03, 895.86, 13330.45, 0.00, 0.00, 0.00, 0.00, 0.00, 0.00, 0.00
225, 13557.83, 38273.27, 93.90, 15953.11, -70.48, -431.90, 8174.86, -36944.23, -27225.01, 28747.03, 895.86, 13330.45, 0.00, 0.00, 0.00, 0.00, 0.00, 0.00, 0.00
226, 13557.83, 38273.27, 93.90, 15953.11, -70.48, -431.90, 8174.86, -36944.23, -27212.09, 28805.52, 908.51, 13206.04, 0.00, 0.00, 0.00, 0.00, 0.00, 0.00, 0.00
227, 13533.04, 38193.48, 86.14, 15940.88, -79.28, -430.76, 8171.04, -37004.79, -27212.09, 28805.52, 908.51, 13206.04, 0.00, 0.00, 0.00, 0.00, 0.00, 0.00, 0.00
228, 13533.04, 38193.48, 86.14, 15940.88, -79.28, -430.76, 8171.04, -37004.79, -27197.56, 28816.72, 905.13, 13095.04, 0.00, 0.00, 0.00, 0.00, 0.00, 0.00, 0.00
229, 13537.04, 38239.88, 94.66, 15949.53, -69.67, -426.76, 8190.19, -37075.11, -27197.56, 28816.72, 905.13, 13095.04, 0.00, 0.00, 0.00, 0.00, -0.02, 0.34, 0.96
230, 13537.04, 38239.88, 94.66, 15949.53, -69.67, -426.76, 8190.19, -37075.11, -27204.40, 28836.61, 899.66, 12955.29, 0.00, 0.00, 0.00, 0.00, 0.00, 0.00, 0.00
231, 13573.28, 38272.46, 99.29, 15947.08, -68.93, -427.07, 8194.04, -37127.86, -27204.40, 28836.61, 899.66, 12955.29, 0.00, 0.00, 0.00, 0.00, 0.00, 0.00, 0.00
232, 13573.28, 38272.46, 99.29, 15947.08, -68.93, -427.07, 8194.04, -37127.86, -27190.49, 28831.13, 914.34, 12898.03, 0.00, 0.00, 0.00, 0.00, 0.00, 0.00, 0.00
233, 13555.75, 38235.25, 93.50, 15945.82, -62.81, -427.32, 8211.02, -37153.43, -27190.49, 28831.13, 914.34, 12898.03, 0.00, 0.00, 0.00, 0.00, 0.00, 0.00, 0.00
234, 13555.75, 38235.25, 93.50, 15945.82, -62.81, -427.32, 8211.02, -37153.43, -27193.73, 28857.46, 906.36, 12850.26, 0.00, 0.00, 0.00, 0.00, 0.00, 0.00, 0.00
235, 13553.96, 38243.07, 96.13, 15947.10, -57.62, -424.93, 8223.81, -37168.49, -27193.73, 28857.46, 906.36, 12850.26, 0.00, 0.00, 0.00, 0.00, 0.00, 0.00, 0.00
236, 13553.96, 38243.07, 96.13, 15947.10, -57.62, -424.93, 8223.81, -37168.49, -27192.08, 28828.07, 906.03, 12817.43, 0.00, 0.00, 0.00, 0.00, 0.00, 0.00, 0.00
237, 13541.45, 38230.91, 87.86, 15939.68, -65.16, -430.67, 8226.94, -37195.92, -27192.08, 28828.07, 906.03, 12817.43, 0.00, 0.00, 0.00, 0.00, 0.00, 0.00, 0.00
238, 13541.45, 38230.91, 87.86, 15939.68, -65.16, -430.67, 8226.94, -37195.92, -27201.36, 28843.67, 895.84, 12839.09, 0.00, 0.00, 0.00, 0.00, -0.03, 0.34, 0.95
239, 13564.78, 38265.29, 100.16, 15950.79, -52.30, -419.23, 8248.26, -37197.26, -27201.36, 28843.67, 895.84, 12839.09, 0.00, 0.00, 0.00, 0.00, 0.00, 0.00, 0.00
240, 13564.78, 38265.29, 100.16, 15950.79, -52.30, -419.23, 8248.26, -37197.26, -27194.90, 28828.52, 909.81, 12876.21, 0.00, 0.00, 0.00, 0.00, 0.00, 0.00, 0.00
241, 13564.98, 38233.06, 90.88, 15944.73, -54.05, -419.92, 8257.58, -37196.63, -27194.90, 28828.52, 909.81, 12876.21, 0.00, 0.00, 0.00, 0.00, 0.00, 0.00, 0.00
242, 13564.98, 38233.06, 90.88, 15944.73, -54.05, -419.92, 8257.58, -37196.63, -27200.57, 28851.68, 901.96, 12972.19, 0.00, 0.00, 0.00, 0.00, 0.00, 0.00, 0.00
243, 13556.56, 38222.13, 95.29, 15953.22, -45.40, -410.49, 8280.90, -37182.55, -27200.57, 28851.68, 901.96, 12972.19, 0.00, 0.00, 0.00, 0.00, 0.00, 0.00, 0.00
244, 13556.56, 38222.13, 95.29, 15953.22, -45.40, -410.49, 8280.90, -37182.55, -27194.43, 28835.16, 908.40, 13041.33, 0.00, 0.00, 0.00, 0.00, 0.00, 0.00, 0.00
245, 13551.35, 38230.94, 96.22, 15944.66, -51.34, -419.25, 8275.69, -37179.84, -27194.43, 28835.16, 908.40, 13041.33, 0.00, 0.00, 0.00, 0.00, 0.00, 0.00, 0.00
246, 13551.35, 38230.94, 96.22, 15944.66, -51.34, -419.25, 8275.69, -37179.84, -27197.42, 28851.25, 898.38, 13132.36, 0.00, 0.00, 0.00, 0.00, 0.00, 0.00, 0.00
247, 13551.57, 38239.14, 96.25, 15956.28, -45.42, -408.01, 8292.23, -37163.55, -27197.42, 28851.25, 898.38, 13132.36, 0.00, 0.00, 0.00, 0.00, 0.00, 0.00, 0.00
248, 13551.57, 38239.14, 96.25, 15956.28, -45.42, -408.01, 8292.23, -37163.55, -27202.03, 28836.03, 901.58, 13204.36, 0.00, 0.00, 0.00, 0.00, -0.02, 0.35, 0.96
249, 13538.63, 38215.63, 85.65, 15939.65, -52.66, -415.99, 8286.26, -37151.39, -27202.03, 28836.03, 901.58, 13204.36, 0.00, 0.00, 0.00, 0.00, 0.00, 0.00, 0.00
250, 13538.63, 38215.63, 85.65, 15939.65, -52.66, -415.99, 8286.26, -37151.39, -27200.91, 28851.21, 895.48, 13262.92, 0.00, 0.00, 0.00, 0.00, 0.00, 0.00, 0.00
251, 13555.53, 38227.54, 99.64, 15963.33, -30.73, -396.56, 8317.98, -37113.57, -27200.91, 28851.21, 895.48, 13262.92, 0.00, 0.00, 0.00, 0.00, 0.00, 0.00, 0.00
252, 13555.53, 38227.54, 99.64, 15963.33, -30.73, -396.56, 8317.98, -37113.57, -27191.37, 28850.24, 908.64, 13310.04, 0.00, 0.00, 0.00, 0.00, 0.00, 0.00, 0.00
253, 13572.18, 38242.76, 106.42, 15960.40, -28.48, -394.42, 8321.60, -37091.42, -27191.37, 28850.24, 908.64, 13310.04, 0.00, 0.00, 0.00, 0.00, 0.00, 0.00, 0.00
254, 13572.18, 38242.76, 106.42, 15960.40, -28.48, -394.42, 8321.60, -37091.42, -27190.63, 28854.16, 909.07, 13404.14, 0.00, 0.00, 0.00, 0.00, 0.00, 0.00, 0.00
255, 13569.07, 38243.36, 110.06, 15974.41, -20.59, -385.55, 8336.75, -37069.45, -27190.63, 28854.16, 909.07, 13404.14, 0.00, 0.00, 0.00, 0.00, 0.00, 0.00, 0.00
0, 13569.07, 38243.36, 110.06, 15974.41, -20.59, -385.55, 8336.75, -37069.45, -27198.99, 28843.96, 910.27, 13386.26, 0.00, 0.00, 0.00, 0.00, 0.00, 0.00, 0.00
1, 13557.18, 38244.84, 95.84, 15950.58, -37.06, -401.88, 8319.61, -37063.64, -27198.99, 28843.96, 910.27, 13386.26, 0.00, 0.00, 0.00, 0.00, 0.00, 0.00, 0.00
2, 13557.18, 38244.84, 95.84, 15950.58, -37.06, -401.88, 8319.61, -37063.64, -27193.29, 28851.12, 904.22, 13416.99, 0.00, 0.00, 0.00, 0.00, -0.03, 0.34, 0.96
3, 13549.63, 38226.33, 108.00, 15978.55, -17.59, -380.52, 8348.17, -37026.89, -27193.29, 28851.12, 904.22, 13416.99, 0.00, 0.00, 0.00, 0.00, 0.00, 0.00, 0.00
4, 13549.63, 38226.33, 108.00, 15978.55, -17.59, -380.52, 8348.17, -37026.89, -27191.23, 28864.77, 915.37, 13463.17, 0.00, 0.00, 0.00, 0.00, 0.00, 0.00, 0.00
5, 13544.24, 38219.05, 115.87, 15973.70, -15.42, -381.79, 8346.72, -37009.23, -27191.23, 28864.77, 915.37, 13463.17, 0.00, 0.00, 0.00, 0.00, 0.00, 0.00, 0.00
6, 13544.24, 38219.05, 115.87, 15973.70, -15.42, -381.79, 8346.72, -37009.23, -27185.80, 28846.58, 922.21, 13509.06, 0.00, 0.00, 0.00, 0.00, 0.00, 0.00, 0.00
7, 13573.81, 38320.59, 122.85, 15994.17, -14.71, -368.00, 8361.52, -36994.50, -27185.80, 28846.58, 922.21, 13509.06, 0.00, 0.00, 0.00, 0.00, 0.00, 0.00, 0.00
8, 13573.81, 38320.59, 122.85, 15994.17, -14.71, -368.00, 8361.52, -36994.50, -27199.43, 28855.01, 902.47, 13484.43, 0.00, 0.00, 0.00, 0.00, 0.00, 0.00, 0.00
9, 13532.10, 38170.77, 90.84, 15965.13, -30.15, -387.15, 8341.22, -36989.72, -27199.43, 28855.01, 902.47, 13484.43, 0.00, 0.00, 0.00, 0.00, 0.00, 0.00, 0.00
10, 13532.10, 38170.77, 90.84, 15965.13, -30.15, -387.15, 8341.22, -36989.72, -27197.60, 28845.39, 892.44, 13555.55, 0.00, 0.00, 0.00, 0.00, 0.00, 0.00, 0.00
11, 13553.34, 38204.58, 102.21, 15982.93, -16.27, -369.21, 8365.63, -36965.58, -27197.60, 28845.39, 892.44, 13555.55, 0.00, 0.00, 0.00, 0.00, 0.00, 0.00, 0.00
12, 13553.34, 38204.58, 102.21, 15982.93, -16.27, -369.21, 8365.63, -36965.58, -27201.65, 28862.63, 901.16, 13565.74, 0.00, 0.00, 0.00, 0.00, -0.03, 0.34, 0.96
13, 13546.07, 38211.20, 92.74, 15962.92, -31.02, -383.38, 8348.67, -36967.17, -27201.65, 28862.63, 901.16, 13565.74, 0.00, 0.00, 0.00, 0.00, 0.00, 0.00, 0.00
14, 13546.07, 38211.20, 92.74, 15962.92, -31.02, -383.38, 8348.67, -36967.17, -27202.21, 28836.59, 884.75, 13544.84, 0.00, 0.00, 0.00, 0.00, 0.00, 0.00, 0.00
15, 13592.70, 38269.79, 113.95, 15985.79, -14.71, -367.15, 8370.21, -36949.40, -27202.21, 28836.59, 884.75, 13544.84, 0.00, 0.00, 0.00, 0.00, 0.00, 0.00, 0.00
16, 13592.70, 38269.79, 113.95, 15985.79, -14.71, -367.15, 8370.21, -36949.40, -27198.59, 28867.57, 911.86, 13558.25, 0.00, 0.00, 0.00, 0.00, 0.00, 0.00, 0.00
17, 13549.83, 38220.30, 98.17, 15968.47, -20.68, -376.31, 8360.47, -36943.83, -27198.59, 28867.57, 911.86, 13558.25, 0.00, 0.00, 0.00, 0.00, 0.00, 0.00, 0.00
18, 13549.83, 38220.30, 98.17, 15968.47, -20.68, -376.31, 8360.47, -36943.83, -27199.46, 28834.91, 899.37, 13596.88, 0.00, 0.00, 0.00, 0.00, 0.00, 0.00, 0.00
19, 13533.00, 38212.09, 103.27, 15977.90, -17.55, -369.92, 8372.67, -36932.70, -27199.46, 28834.91, 899.37, 13596.88, 0.00, 0.00, 0.00, 0.00, 0.00, 0.00, 0.00
20, 13533.00, 38212.09, 103.27, 15977.90, -17.55, -369.92, 8372.67, -36932.70, -27201.07, 28866.47, 910.12, 13604.30, 0.00, 0.00, 0.00, 0.00, 0.00, 0.00, 0.00
21, 13559.15, 38227.63, 111.47, 15981.21, -15.29, -362.75, 8377.59, -36920.97, -27201.07, 28866.47, 910.12, 13604.30, 0.00, 0.00, 0.00, 0.00, -0.03, 0.34, 0.95
22, 13559.15, 38227.63, 111.47, 15981.21, -15.29, -362.75, 8377.59, -36920.97, -27195.93, 28829.61, 903.52, 13591.31, 0.00, 0.00, 0.00, 0.00, 0.00, 0.00, 0.00
23, 13554.90, 38226.00, 111.36, 15984.02, -12.34, -360.98, 8384.81, -36911.00, -27195.93, 28829.61, 903.52, 13591.31, 0.00, 0.00, 0.00, 0.00, 0.00, 0.00, 0.00
24, 13554.90, 38226.00, 111.36, 15984.02, -12.34, -360.98, 8384.81, -36911.00, -27195.37, 28891.73, 910.14, 13619.57, 0.00, 0.00, 0.00, 0.00, 0.00, 0.00, 0.00
25, 13566.12, 38239.18, 117.53, 15981.41, -8.45, -363.13, 8387.85, -36894.44, -27195.37, 28891.73, 910.14, 13619.57, 0.00, 0.00, 0.00, 0.00, 0.00, 0.00, 0.00
26, 13566.12, 38239.18, 117.53, 15981.41, -8.45, -363.13, 8387.85, -36894.44, -27192.33, 28835.43, 914.03, 13752.09, 0.00, 0.00, 0.00, 0.00, 0.00, 0.00, 0.00
27, 13580.09, 38248.53, 117.82, 15981.83, -9.88, -358.59, 8392.28, -36895.04, -27192.33, 28835.43, 914.03, 13752.09, 0.00, 0.00, 0.00, 0.00, 0.00, 0.00, 0.00
28, 13580.09, 38248.53, 117.82, 15981.83, -9.88, -358.59, 8392.28, -36895.04, -27200.55, 28863.37, 915.13, 13707.47, 0.00, 0.00, 0.00, 0.00, 0.00, 0.00, 0.00
29, 13566.06, 38228.25, 117.79, 15983.29, -8.00, -355.93, 8398.44, -36890.30, -27200.55, 28863.37, 915.13, 13707.47, 0.00, 0.00, 0.00, 0.00, 0.00, 0.00, 0.00
30, 13566.06, 38228.25, 117.79, 15983.29, -8.00, -355.93, 8398.44, -36890.30, -27200.66, 28834.55, 915.89, 13680.23, 0.00, 0.00, 0.00, 0.00, 0.00, 0.00, 0.00
31, 13570.28, 38247.43, 125.73, 15986.30, -6.03, -356.40, 8400.03, -36886.75, -27200.66, 28834.55, 915.89, 13680.23, 0.00, 0.00, 0.00, 0.00, -0.02, 0.34, 0.96
32, 13570.28, 38247.43, 125.73, 15986.30, -6.03, -356.40, 8400.03, -36886.75, -27191.81, 28874.81, 925.25, 13691.52, 0.00, 0.00, 0.00, 0.00, 0.00, 0.00, 0.00
33, 13596.54, 38289.25, 144.91, 15994.97, 7.38, -346.18, 8414.25, -36871.48, -27191.81, 28874.81, 925.25, 13691.52, 0.00, 0.00, 0.00, 0.00, 0.00, 0.00, 0.00
34, 13596.54, 38289.25, 144.91, 15994.97, 7.38, -346.18, 8414.25, -36871.48, -27197.47, 28844.81, 924.76, 13687.40, 0.00, 0.00, 0.00, 0.00, 0.00, 0.00, 0.00
35, 13567.87, 38214.93, 114.60, 15972.31, -15.96, -362.52, 8397.28, -36882.39, -27197.47, 28844.81, 924.76, 13687.40, 0.00, 0.00, 0.00, 0.00, 0.00, 0.00, 0.00
36, 13567.87, 38214.93, 114.60, 15972.31, -15.96, -362.52, 8397.28, -36882.39, -27199.86, 28876.96, 913.56, 13685.59, 0.00, 0.00, 0.00, 0.00, 0.00, 0.00, 0.00
37, 13576.63, 38239.43, 128.46, 15996.45, 6.35, -342.83, 8423.54, -36861.24, -27199.86, 28876.96, 913.56, 13685.59, 0.00, 0.00, 0.00, 0.00, 0.00, 0.00, 0.00
38, 13576.63, 38239.43, 128.46, 15996.45, 6.35, -342.83, 8423.54, -36861.24, -27194.81, 28844.41, 922.90, 13773.17, 0.00, 0.00, 0.00, 0.00, 0.00, 0.00, 0.00
39, 13588.61, 38262.45, 125.51, 15984.25, 0.07, -347.03, 8419.50, -36856.66, -27194.81, 28844.41, 922.90, 13773.17, 0.00, 0.00, 0.00, 0.00, 0.00, 0.00, 0.00
40, 13588.61, 38262.45, 125.51, 15984.25, 0.07, -347.03, 8419.50, -36856.66, -27199.43, 28871.93, 914.41, 13766.53, 0.00, 0.00, 0.00, 0.00, 0.00, 0.00, 0.00
41, 13550.90, 38222.55, 123.07, 15994.51, 6.48, -340.82, 8431.23, -36852.30, -27199.43, 28871.93, 914.41, 13766.53, 0.00, 0.00, 0.00, 0.00, -0.02, 0.34, 0.95
42, 13550.90, 38222.55, 123.07, 15994.51, 6.48, -340.82, 8431.23, -36852.30, -27197.94, 28854.40, 920.04, 13735.71, 0.00, 0.00, 0.00, 0.00, 0.00, 0.00, 0.00
43, 13549.90, 38218.78, 117.39, 15976.02, -2.82, -352.78, 8422.47, -36846.18, -27197.94, 28854.40, 920.04, 13735.71, 0.00, 0.00, 0.00, 0.00, 0.00, 0.00, 0.00
44, 13549.90, 38218.78, 117.39, 15976.02, -2.82, -352.78, 8422.47, -36846.18, -27195.70, 28879.97, 913.02, 13745.03, 0.00, 0.00, 0.00, 0.00, 0.00, 0.00, 0.00
45, 13573.61, 38246.25, 130.02, 15999.02, 17.30, -332.35, 8449.07, -36824.72, -27195.70, 28879.97, 913.02, 13745.03, 0.00, 0.00, 0.00, 0.00, 0.00, 0.00, 0.00
46, 13573.61, 38246.25, 130.02, 15999.02, 17.30, -332.35, 8449.07, -36824.72, -27191.01, 28877.69, 919.68, 13769.75, 0.00, 0.00, 0.00, 0.00, 0.00, 0.00, 0.00
47, 13550.19, 38220.54, 116.27, 15979.35, 7.29, -343.59, 8436.96, -36821.14, -27191.01, 28877.69, 919.68, 13769.75, 0.00, 0.00, 0.00, 0.00, 0.00, 0.00, 0.00
48, 13550.19, 38220.54, 116.27, 15979.35, 7.29, -343.59, 8436.96, -36821.14, -27184.73, 28870.79, 915.35, 13854.88, 0.00, 0.00, 0.00, 0.00, 0.00, 0.00, 0.00
49, 13572.29, 38245.73, 131.83, 16006.69, 31.36, -320.46, 8470.53, -36792.58, -27184.73, 28870.79, 915.35, 13854.88, 0.00, 0.00, 0.00, 0.00, 0.00, 0.00, 0.00
50, 13572.29, 38245.73, 131.83, 16006.69, 31.36, -320.46, 8470.53, -36792.58, -27187.83, 28880.78, 922.14, 13819.84, 0.00, 0.00, 0.00, 0.00, 0.00, 0.00, 0.00
51, 13570.71, 38243.07, 125.89, 15993.23, 20.21, -330.38, 8458.32, -36794.19, -27187.83, 28880.78, 922.14, 13819.84, 0.00, 0.00, 0.00, 0.00, -0.02, 0.34, 0.95
52, 13570.71, 38243.07, 125.89, 15993.23, 20.21, -330.38, 8458.32, -36794.19, -27179.29, 28889.99, 926.19, 13822.74, 0.00, 0.00, 0.00, 0.00, 0.00, 0.00, 0.00
53, 13589.73, 38250.92, 138.67, 16016.05, 42.76, -312.30, 8486.98, -36769.38, -27179.29, 28889.99, 926.19, 13822.74, 0.00, 0.00, 0.00, 0.00, 0.00, 0.00, 0.00
54, 13589.73, 38250.92, 138.67, 16016.05, 42.76, -312.30, 8486.98, -36769.38, -27180.82, 28898.70, 932.11, 13844.11, 0.00, 0.00, 0.00, 0.00, 0.00, 0.00, 0.00
55, 13551.26, 38223.85, 127.85, 15997.19, 29.15, -325.58, 8472.45, -36769.42, -27180.82, 28898.70, 932.11, 13844.11, 0.00, 0.00, 0.00, 0.00, 0.00, 0.00, 0.00
56, 13551.26, 38223.85, 127.85, 15997.19, 29.15, -325.58, 8472.45, -36769.42, -27174.18, 28883.57, 923.98, 13871.45, 0.00, 0.00, 0.00, 0.00, 0.00, 0.00, 0.00
57, 13578.30, 38270.92, 147.25, 16020.92, 48.03, -306.80, 8498.42, -36749.20, -27174.18, 28883.57, 923.98, 13871.45, 0.00, 0.00, 0.00, 0.00, 0.00, 0.00, 0.00
58, 13578.30, 38270.92, 147.25, 16020.92, 48.03, -306.80, 8498.42, -36749.20, -27176.86, 28904.92, 935.80, 13860.34, 0.00, 0.00, 0.00, 0.00, 0.00, 0.00, 0.00
59, 13577.66, 38243.30, 134.13, 16003.36, 38.07, -319.29, 8483.67, -36750.91, -27176.86, 28904.92, 935.80, 13860.34, 0.00, 0.00, 0.00, 0.00, 0.00, 0.00, 0.00
60, 13577.66, 38243.30, 134.13, 16003.36, 38.07, -319.29, 8483.67, -36750.91, -27179.90, 28882.32, 927.06, 13842.41, 0.00, 0.00, 0.00, 0.00, -0.03, 0.34, 0.95
61, 13572.74, 38246.70, 137.37, 16015.02, 47.12, -313.15, 8497.26, -36743.09, -27179.90, 28882.32, 927.06, 13842.41, 0.00, 0.00, 0.00, 0.00, 0.00, 0.00, 0.00
62, 13572.74, 38246.70, 137.37, 16015.02, 47.12, -313.15, 8497.26, -36743.09, -27182.63, 28902.68, 934.01, 13875.36, 0.00, 0.00, 0.00, 0.00, 0.00, 0.00, 0.00
63, 13570.71, 38237.75, 135.23, 16004.52, 40.37, -315.99, 8490.22, -36743.99, -27182.63, 28902.68, 934.01, 13875.36, 0.00, 0.00, 0.00, 0.00, 0.00, 0.00, 0.00
64, 13570.71, 38237.75, 135.23, 16004.52, 40.37, -315.99, 8490.22, -36743.99, -27181.73, 28880.38, 929.97, 13897.42, 0.00, 0.00, 0.00, 0.00, 0.00, 0.00, 0.00
65, 13572.81, 38251.28, 145.64, 16019.70, 55.25, -303.76, 8512.33, -36721.72, -27181.73, 28880.38, 929.97, 13897.42, 0.00, 0.00, 0.00, 0.00, 0.00, 0.00, 0.00
66, 13572.81, 38251.28, 145.64, 16019.70, 55.25, -303.76, 8512.33, -36721.72, -27183.59, 28910.53, 934.46, 13864.05, 0.00, 0.00, 0.00, 0.00, 0.00, 0.00, 0.00
67, 13557.36, 38229.19, 138.22, 16009.91, 49.67, -307.34, 8504.88, -36727.31, -27183.59, 28910.53, 934.46, 13864.05, 0.00, 0.00, 0.00, 0.00, 0.00, 0.00, 0.00
68, 13557.36, 38229.19, 138.22, 16009.91, 49.67, -307.34, 8504.88, -36727.31, -27171.38, 28889.74, 935.29, 13974.31, 0.00, 0.00, 0.00, 0.00, 0.00, 0.00, 0.00
69, 13581.72, 38261.43, 151.39, 16024.34, 63.05, -298.93, 8520.42, -36711.18, -27171.38, 28889.74, 935.29, 13974.31, 0.00, 0.00, 0.00, 0.00, 0.00, 0.00, 0.00
70, 13581.72, 38261.43, 151.39, 16024.34, 63.05, -298.93, 8520.42, -36711.18, -27175.72, 28912.52, 944.54, 13955.96, 0.00, 0.00, 0.00, 0.00, -0.03, 0.34, 0.96
71, 13584.07, 38254.76, 150.02, 16020.10, 61.94, -300.12, 8517.11, -36712.61, -27175.72, 28912.52, 944.54, 13955.96, 0.00, 0.00, 0.00, 0.00, 0.00, 0.00, 0.00
72, 13584.07, 38254.76, 150.02, 16020.10, 61.94, -300.12, 8517.11, -36712.61, -27174.78, 28886.30, 945.21, 13911.93, 0.00, 0.00, 0.00, 0.00, 0.00, 0.00, 0.00
73, 13577.32, 38254.47, 146.56, 16018.51, 62.58, -299.83, 8521.09, -36709.57, -27174.78, 28886.30, 945.21, 13911.93, 0.00, 0.00, 0.00, 0.00, 0.00, 0.00, 0.00
74, 13577.32, 38254.47, 146.56, 16018.51, 62.58, -299.83, 8521.09, -36709.57, -27179.77, 28916.54, 938.73, 13913.22, 0.00, 0.00, 0.00, 0.00, 0.00, 0.00, 0.00
75, 13568.69, 38231.12, 146.34, 16019.25, 62.29, -298.66, 8520.42, -36706.61, -27179.77, 28916.54, 938.73, 13913.22, 0.00, 0.00, 0.00, 0.00, 0.00, 0.00, 0.00
76, 13568.69, 38231.12, 146.34, 16019.25, 62.29, -298.66, 8520.42, -36706.61, -27174.83, 28882.95, 941.16, 13941.23, 0.00, 0.00, 0.00, 0.00, 0.00, 0.00, 0.00
77, 13571.49, 38251.86, 147.81, 16019.70, 65.02, -297.66, 8525.42, -36702.01, -27174.83, 28882.95, 941.16, 13941.23, 0.00, 0.00, 0.00, 0.00, 0.00, 0.00, 0.00
78, 13571.49, 38251.86, 147.81, 16019.70, 65.02, -297.66, 8525.42, -36702.01, -27178.49, 28912.49, 938.73, 13945.66, 0.00, 0.00, 0.00, 0.00, 0.00, 0.00, 0.00
79, 13580.76, 38253.87, 147.43, 16024.46, 66.27, -296.38, 8527.46, -36699.33, -27178.49, 28912.49, 938.73, 13945.66, 0.00, 0.00, 0.00, 0.00, 0.00, 0.00, 0.00
80, 13580.76, 38253.87, 147.43, 16024.46, 66.27, -296.38, 8527.46, -36699.33, -27178.56, 28895.75, 934.06, 13918.72, 0.00, 0.00, 0.00, 0.00, -0.03, 0.34, 0.95
81, 13565.18, 38226.38, 136.68, 16015.90, 56.35, -301.30, 8521.00, -36699.33, -27178.56, 28895.75, 934.06, 13918.72, 0.00, 0.00, 0.00, 0.00, 0.00, 0.00, 0.00
82, 13565.18, 38226.38, 136.68, 16015.90, 56.35, -301.30, 8521.00, -36699.33, -27187.70, 28901.21, 926.64, 13971.70, 0.00, 0.00, 0.00, 0.00, 0.00, 0.00, 0.00
83, 13571.31, 38239.74, 144.06, 16028.08, 65.60, -291.49, 8529.54, -36697.03, -27187.70, 28901.21, 926.64, 13971.70, 0.00, 0.00, 0.00, 0.00, 0.00, 0.00, 0.00
84, 13571.31, 38239.74, 144.06, 16028.08, 65.60, -291.49, 8529.54, -36697.03, -27182.43, 28885.31, 931.42, 13957.46, 0.00, 0.00, 0.00, 0.00, 0.00, 0.00, 0.00
85, 13559.73, 38241.75, 143.07, 16017.39, 61.18, -301.10, 8523.37, -36692.91, -27182.43, 28885.31, 931.42, 13957.46, 0.00, 0.00, 0.00, 0.00, 0.00, 0.00, 0.00
86, 13559.73, 38241.75, 143.07, 16017.39, 61.18, -301.10, 8523.37, -36692.91, -27178.07, 28903.44, 928.33, 13965.26, 0.00, 0.00, 0.00, 0.00, 0.00, 0.00, 0.00
87, 13580.88, 38264.15, 156.37, 16039.32, 78.52, -283.51, 8544.00, -36675.68, -27178.07, 28903.44, 928.33, 13965.26, 0.00, 0.00, 0.00, 0.00, 0.00, 0.00, 0.00
88, 13580.88, 38264.15, 156.37, 16039.32, 78.52, -283.51, 8544.00, -36675.68, -27169.80, 28901.92, 943.98, 13951.98, 0.00, 0.00, 0.00, 0.00, 0.00, 0.00, 0.00
89, 13570.46, 38239.41, 143.97, 16020.54, 64.60, -296.23, 8529.96, -36679.19, -27169.80, 28901.92, 943.98, 13951.98, 0.00, 0.00, 0.00, 0.00, 0.00, 0.00, 0.00
90, 13570.46, 38239.41, 143.97, 16020.54, 64.60, -296.23, 8529.96, -36679.19, -27172.84, 28905.54, 930.30, 13988.35, 0.00, 0.00, 0.00, 0.00, -0.03, 0.34, 0.95
91, 13574.08, 38227.00, 147.28, 16032.91, 76.96, -284.67, 8544.63, -36669.24, -27172.84, 28905.54, 930.30, 13988.35, 0.00, 0.00, 0.00, 0.00, 0.00, 0.00, 0.00
92, 13574.08, 38227.00, 147.28, 16032.91, 76.96, -284.67, 8544.63, -36669.24, -27174.80, 28904.94, 932.83, 13979.36, 0.00, 0.00, 0.00, 0.00, 0.00, 0.00, 0.00
93, 13578.04, 38236.50, 143.59, 16019.50, 65.56, -293.90, 8531.26, -36664.79, -27174.80, 28904.94, 932.83, 13979.36, 0.00, 0.00, 0.00, 0.00, 0.00, 0.00, 0.00
94, 13578.04, 38236.50, 143.59, 16019.50, 65.56, -293.90, 8531.26, -36664.79, -27170.11, 28910.93, 932.67, 13979.25, 0.00, 0.00, 0.00, 0.00, 0.00, 0.00, 0.00
95, 13579.91, 38251.19, 153.96, 16039.92, 84.76, -277.59, 8551.73, -36650.09, -27170.11, 28910.93, 932.67, 13979.25, 0.00, 0.00, 0.00, 0.00, 0.00, 0.00, 0.00
96, 13579.91, 38251.19, 153.96, 16039.92, 84.76, -277.59, 8551.73, -36650.09, -27171.14, 28907.35, 935.67, 13999.99, 0.00, 0.00, 0.00, 0.00, 0.00, 0.00, 0.00
97, 13543.70, 38229.53, 137.24, 16016.16, 63.48, -297.99, 8527.86, -36656.84, -27171.14, 28907.35, 935.67, 13999.99, 0.00, 0.00, 0.00, 0.00, 0.00, 0.00, 0.00
98, 13543.70, 38229.53, 137.24, 16016.16, 63.48, -297.99, 8527.86, -36656.84, -27174.91, 28900.85, 919.64, 13993.60, 0.00, 0.00, 0.00, 0.00, 0.00, 0.00, 0.00
99, 13569.10, 38243.45, 145.98, 16038.16, 82.39, -280.47, 8551.02, -36633.41, -27174.91, 28900.85, 919.64, 13993.60, 0.00, 0.00, 0.00, 0.00, 0.00, 0.00, 0.00
100, 13569.10, 38243.45, 145.98, 16038.16, 82.39, -280.47, 8551.02, -36633.41, -27173.22, 28918.46, 935.20, 13996.28, 0.00, 0.00, 0.00, 0.00, -0.02, 0.34, 0.95
101, 13557.96, 38231.65, 137.57, 16021.10, 71.15, -292.67, 8535.08, -36628.59, -27173.22, 28918.46, 935.20, 13996.28, 0.00, 0.00, 0.00, 0.00, 0.00, 0.00, 0.00
102, 13557.96, 38231.65, 137.57, 16021.10, 71.15, -292.67, 8535.08, -36628.59, -27158.35, 28911.94, 928.18, 14006.92, 0.00, 0.00, 0.00, 0.00, 0.00, 0.00, 0.00
103, 13566.73, 38237.17, 146.18, 16039.14, 86.52, -279.31, 8555.15, -36609.16, -27158.35, 28911.94, 928.18, 14006.92, 0.00, 0.00, 0.00, 0.00, 0.00, 0.00, 0.00
104, 13566.73, 38237.17, 146.18, 16039.14, 86.52, -279.31, 8555.15, -36609.16, -27177.15, 28913.54, 926.57, 14016.04, 0.00, 0.00, 0.00, 0.00, 0.00, 0.00, 0.00
105, 13543.82, 38209.77, 129.24, 16017.55, 64.69, -297.05, 8528.75, -36616.58, -27177.15, 28913.54, 926.57, 14016.04, 0.00, 0.00, 0.00, 0.00, 0.00, 0.00, 0.00
106, 13543.82, 38209.77, 129.24, 16017.55, 64.69, -297.05, 8528.75, -36616.58, -27171.63, 28906.79, 915.15, 14010.01, 0.00, 0.00, 0.00, 0.00, 0.00, 0.00, 0.00
107, 13561.79, 38235.92, 142.31, 16038.18, 84.94, -280.94, 8552.58, -36586.56, -27171.63, 28906.79, 915.15, 14010.01, 0.00, 0.00, 0.00, 0.00, 0.00, 0.00, 0.00
108, 13561.79, 38235.92, 142.31, 16038.18, 84.94, -280.94, 8552.58, -36586.56, -27169.55, 28929.19, 931.51, 14018.25, 0.00, 0.00, 0.00, 0.00, 0.00, 0.00, 0.00
109, 13553.20, 38225.41, 131.96, 16024.41, 71.93, -293.05, 8533.43, -36585.18, -27169.55, 28929.19, 931.51, 14018.25, 0.00, 0.00, 0.00, 0.00, -0.02, 0.34, 0.95
110, 13553.20, 38225.41, 131.96, 16024.41, 71.93, -293.05, 8533.43, -36585.18, -27167.00, 28908.49, 910.88, 14007.97, 0.00, 0.00, 0.00, 0.00, 0.00, 0.00, 0.00
111, 13561.58, 38227.94, 135.38, 16043.52, 87.02, -277.63, 8553.27, -36561.82, -27167.00, 28908.49, 910.88, 14007.97, 0.00, 0.00, 0.00, 0.00, 0.00, 0.00, 0.00
112, 13561.58, 38227.94, 135.38, 16043.52, 87.02, -277.63, 8553.27, -36561.82, -27169.93, 28930.53, 910.48, 14023.84, 0.00, 0.00, 0.00, 0.00, 0.00, 0.00, 0.00
113, 13552.49, 38224.92, 129.44, 16036.21, 81.47, -282.64, 8546.10, -36554.40, -27169.93, 28930.53, 910.48, 14023.84, 0.00, 0.00, 0.00, 0.00, 0.00, 0.00, 0.00
114, 13552.49, 38224.92, 129.44, 16036.21, 81.47, -282.64, 8546.10, -36554.40, -27156.05, 28920.34, 908.35, 14022.10, 0.00, 0.00, 0.00, 0.00, 0.00, 0.00, 0.00
115, 13550.39, 38230.22, 130.89, 16051.19, 95.17, -270.25, 8560.65, -36536.74, -27156.05, 28920.34, 908.35, 14022.10, 0.00, 0.00, 0.00, 0.00, 0.00, 0.00, 0.00
116, 13550.39, 38230.22, 130.89, 16051.19, 95.17, -270.25, 8560.65, -36536.74, -27162.73, 28953.20, 903.46, 14034.91, 0.00, 0.00, 0.00, 0.00, 0.00, 0.00, 0.00
117, 13537.02, 38213.88, 120.30, 16044.24, 90.14, -273.43, 8552.18, -36528.54, -27162.73, 28953.20, 903.46, 14034.91, 0.00, 0.00, 0.00, 0.00, 0.00, 0.00, 0.00
118, 13537.02, 38213.88, 120.30, 16044.24, 90.14, -273.43, 8552.18, -36528.54, -27142.95, 28938.78, 898.54, 14070.04, 0.00, 0.00, 0.00, 0.00, 0.00, 0.00, 0.00
119, 13552.38, 38228.05, 131.00, 16064.94, 104.38, -253.25, 8566.64, -36503.57, -27142.95, 28938.78, 898.54, 14070.04, 0.00, 0.00, 0.00, 0.00, -0.02, 0.34, 0.95
120, 13552.38, 38228.05, 131.00, 16064.94, 104.38, -253.25, 8566.64, -36503.57, -27147.47, 28966.21, 892.30, 14072.90, 0.00, 0.00, 0.00, 0.00, 0.00, 0.00, 0.00
121, 13538.72, 38221.55, 119.89, 16058.70, 93.88, -261.52, 8556.56, -36506.21, -27147.47, 28966.21, 892.30, 14072.90, 0.00, 0.00, 0.00, 0.00, 0.00, 0.00, 0.00
122, 13538.72, 38221.55, 119.89, 16058.70, 93.88, -261.52, 8556.56, -36506.21, -27158.53, 28928.45, 872.39, 14043.11, 0.00, 0.00, 0.00, 0.00, 0.00, 0.00, 0.00
123, 13522.11, 38195.31, 102.73, 16052.91, 87.22, -270.59, 8552.76, -36499.14, -27158.53, 28928.45, 872.39, 14043.11, 0.00, 0.00, 0.00, 0.00, 0.00, 0.00, 0.00
124, 13522.11, 38195.31, 102.73, 16052.91, 87.22, -270.59, 8552.76, -36499.14, -27158.98, 28962.00, 865.55, 14059.58, 0.00, 0.00, 0.00, 0.00, 0.00, 0.00, 0.00
125, 13509.53, 38183.02, 98.91, 16063.37, 91.93, -235.41, 8550.48, -36493.98, -27158.98, 28962.00, 865.55, 14059.58, 0.00, 0.00, 0.00, 0.00, 0.00, 0.00, 0.00
126, 13509.53, 38183.02, 98.91, 16063.37, 91.93, -235.41, 8550.48, -36493.98, -27158.26, 28928.90, 863.20, 14036.07, 0.00, 0.00, 0.00, 0.00, 0.00, 0.00, 0.00
127, 13512.55, 38185.34, 96.63, 16075.02, 92.89, -195.44, 8540.74, -36496.84, -27158.26, 28928.90, 863.20, 14036.07, 0.00, 0.00, 0.00, 0.00, 0.00, 0.00, 0.00
128, 13512.55, 38185.34, 96.63, 16075.02, 92.89, -195.44, 8540.74, -36496.84, -27152.54, 28957.13, 860.01, 14057.59, 0.00, 0.00, 0.00, 0.00, 0.00, 0.00, 0.00
129, 13515.72, 38194.44, 100.65, 16066.86, 108.12, -269.18, 8579.61, -36465.17, -27152.54, 28957.13, 860.01, 14057.59, 0.00, 0.00, 0.00, 0.00, -0.03, 0.34, 0.95
130, 13515.72, 38194.44, 100.65, 16066.86, 108.12, -269.18, 8579.61, -36465.17, -27149.17, 28946.85, 849.93, 14065.17, 0.00, 0.00, 0.00, 0.00, 0.00, 0.00, 0.00
131, 13495.29, 38172.29, 80.87, 16057.51, 89.38, -257.40, 8551.31, -36490.74, -27149.17, 28946.85, 849.93, 14065.17, 0.00, 0.00, 0.00, 0.00, 0.00, 0.00, 0.00
132, 13495.29, 38172.29, 80.87, 16057.51, 89.38, -257.40, 8551.31, -36490.74, -27153.77, 28948.26, 825.32, 14056.12, 0.00, 0.00, 0.00, 0.00, 0.00, 0.00, 0.00
133, 13496.79, 38170.96, 79.55, 16099.07, 95.67, -173.32, 8515.61, -36508.94, -27153.77, 28948.26, 825.32, 14056.12, 0.00, 0.00, 0.00, 0.00, 0.00, 0.00, 0.00
134, 13496.79, 38170.96, 79.55, 16099.07, 95.67, -173.32, 8515.61, -36508.94, -27149.84, 28927.09, 819.95, 14038.75, 0.00, 0.00, 0.00, 0.00, 0.00, 0.00, 0.00
135, 13477.88, 38159.32, 65.29, 16060.62, 90.93, -289.12, 8555.40, -36489.58, -27149.84, 28927.09, 819.95, 14038.75, 0.00, 0.00, 0.00, 0.00, 0.00, 0.00, 0.00
136, 13477.88, 38159.32, 65.29, 16060.62, 90.93, -289.12, 8555.40, -36489.58, -27158.96, 28949.11, 806.52, 14088.75, 0.00, 0.00, 0.00, 0.00, 0.00, 0.00, 0.00
137, 13474.68, 38163.23, 66.23, 16075.28, 105.90, -275.44, 8564.67, -36496.48, -27158.96, 28949.11, 806.52, 14088.75, 0.00, 0.00, 0.00, 0.00, 0.00, 0.00, 0.00
138, 13474.68, 38163.23, 66.23, 16075.28, 105.90, -275.44, 8564.67, -36496.48, -27155.65, 28926.26, 814.68, 14044.05, 0.00, 0.00, 0.00, 0.00, 0.00, 0.00, 0.00
139, 13469.54, 38151.01, 60.75, 16073.83, 96.83, -269.72, 8549.03, -36513.99, -27155.65, 28926.26, 814.68, 14044.05, 0.00, 0.00, 0.00, 0.00, -0.03, 0.34, 0.95
140, 13469.54, 38151.01, 60.75, 16073.83, 96.83, -269.72, 8549.03, -36513.99, -27169.62, 28918.17, 792.55, 14023.66, 0.00, 0.00, 0.00, 0.00, 0.00, 0.00, 0.00
141, 13475.02, 38154.11, 57.69, 16092.58, 101.63, -247.34, 8543.48, -36539.27, -27169.62, 28918.17, 792.55, 14023.66, 0.00, 0.00, 0.00, 0.00, 0.00, 0.00, 0.00
142, 13475.02, 38154.11, 57.69, 16092.58, 101.63, -247.34, 8543.48, -36539.27, -27176.63, 28900.40, 791.97, 14022.03, 0.00, 0.00, 0.00, 0.00, 0.00, 0.00, 0.00
143, 13453.38, 38129.10, 40.17, 16070.88, 84.29, -270.86, 8515.12, -36566.22, -27176.63, 28900.40, 791.97, 14022.03, 0.00, 0.00, 0.00, 0.00, 0.00, 0.00, 0.00
144, 13453.38, 38129.10, 40.17, 16070.88, 84.29, -270.86, 8515.12, -36566.22, -27176.77, 28892.22, 773.30, 14010.07, 0.00, 0.00, 0.00, 0.00, 0.00, 0.00, 0.00
145, 13467.04, 38144.95, 47.18, 16090.66, 106.13, -255.99, 8547.06, -36565.80, -27176.77, 28892.22, 773.30, 14010.07, 0.00, 0.00, 0.00, 0.00, 0.00, 0.00, 0.00
146, 13467.04, 38144.95, 47.18, 16090.66, 106.13, -255.99, 8547.06, -36565.80, -27174.13, 28892.69, 781.08, 13991.97, 0.00, 0.00, 0.00, 0.00, 0.00, 0.00, 0.00
147, 13452.64, 38129.91, 37.48, 16081.14, 104.29, -261.98, 8540.49, -36573.60, -27174.13, 28892.69, 781.08, 13991.97, 0.00, 0.00, 0.00, 0.00, 0.00, 0.00, 0.00
148, 13452.64, 38129.91, 37.48, 16081.14, 104.29, -261.98, 8540.49, -36573.60, -27167.36, 28892.71, 762.22, 14004.75, 0.00, 0.00, 0.00, 0.00, -0.02, 0.34, 0.95
149, 13461.87, 38140.43, 41.91, 16104.41, 120.79, -241.24, 8570.11, -36569.96, -27167.36, 28892.71, 762.22, 14004.75, 0.00, 0.00, 0.00, 0.00, 0.00, 0.00, 0.00
150, 13461.87, 38140.43, 41.91, 16104.41, 120.79, -241.24, 8570.11, -36569.96, -27173.13, 28908.11, 764.83, 14010.03, 0.00, 0.00, 0.00, 0.00, 0.00, 0.00, 0.00
151, 13449.54, 38123.31, 30.69, 16090.71, 114.22, -254.90, 8555.62, -36578.05, -27173.13, 28908.11, 764.83, 14010.03, 0.00, 0.00, 0.00, 0.00, 0.00, 0.00, 0.00
152, 13449.54, 38123.31, 30.69, 16090.71, 114.22, -254.90, 8555.62, -36578.05, -27169.80, 28867.70, 740.56, 14019.53, 0.00, 0.00, 0.00, 0.00, 0.00, 0.00, 0.00
153, 13458.01, 38139.27, 37.66, 16118.78, 131.43, -231.90, 8584.90, -36588.08, -27169.80, 28867.70, 740.56, 14019.53, 0.00, 0.00, 0.00, 0.00, 0.00, 0.00, 0.00
154, 13458.01, 38139.27, 37.66, 16118.78, 131.43, -231.90, 8584.90, -36588.08, -27177.33, 28892.69, 746.30, 14019.71, 0.00, 0.00, 0.00, 0.00, 0.00, 0.00, 0.00
155, 13437.78, 38117.19, 23.00, 16098.13, 115.45, -250.76, 8561.79, -36598.14, -27177.33, 28892.69, 746.30, 14019.71, 0.00, 0.00, 0.00, 0.00, 0.00, 0.00, 0.00
156, 13437.78, 38117.19, 23.00, 16098.13, 115.45, -250.76, 8561.79, -36598.14, -27174.49, 28879.55, 727.64, 14017.20, 0.00, 0.00, 0.00, 0.00, 0.00, 0.00, 0.00
157, 13451.79, 38132.68, 31.69, 16123.54, 135.79, -232.21, 8588.48, -36588.26, -27174.49, 28879.55, 727.64, 14017.20, 0.00, 0.00, 0.00, 0.00, 0.00, 0.00, 0.00
158, 13451.79, 38132.68, 31.69, 16123.54, 135.79, -232.21, 8588.48, -36588.26, -27181.08, 28897.43, 732.60, 14016.91, 0.00, 0.00, 0.00, 0.00, -0.02, 0.34, 0.95
159, 13443.70, 38114.48, 24.81, 16103.98, 128.21, -246.92, 8578.17, -36609.79, -27181.08, 28897.43, 732.60, 14016.91, 0.00, 0.00, 0.00, 0.00, 0.00, 0.00, 0.00
160, 13443.70, 38114.48, 24.81, 16103.98, 128.21, -246.92, 8578.17, -36609.79, -27171.99, 28873.11, 732.89, 14002.72, 0.00, 0.00, 0.00, 0.00, 0.00, 0.00, 0.00
161, 13452.96, 38131.89, 34.56, 16125.35, 145.80, -233.15, 8600.24, -36605.83, -27171.99, 28873.11, 732.89, 14002.72, 0.00, 0.00, 0.00, 0.00, 0.00, 0.00, 0.00
162, 13452.96, 38131.89, 34.56, 16125.35, 145.80, -233.15, 8600.24, -36605.83, -27185.15, 28884.26, 737.18, 14035.08, 0.00, 0.00, 0.00, 0.00, 0.00, 0.00, 0.00
163, 13449.47, 38125.17, 31.87, 16117.75, 143.21, -239.05, 8593.66, -36616.92, -27185.15, 28884.26, 737.18, 14035.08, 0.00, 0.00, 0.00, 0.00, 0.00, 0.00, 0.00
164, 13449.47, 38125.17, 31.87, 16117.75, 143.21, -239.05, 8593.66, -36616.92, -27168.54, 28868.33, 730.70, 14012.46, 0.00, 0.00, 0.00, 0.00, 0.00, 0.00, 0.00
165, 13453.78, 38129.15, 32.48, 16125.11, 147.63, -234.36, 8601.02, -36620.85, -27168.54, 28868.33, 730.70, 14012.46, 0.00, 0.00, 0.00, 0.00, 0.00, 0.00, 0.00
166, 13453.78, 38129.15, 32.48, 16125.11, 147.63, -234.36, 8601.02, -36620.85, -27171.07, 28897.92, 730.08, 14025.52, 0.00, 0.00, 0.00, 0.00, 0.00, 0.00, 0.00
167, 13448.75, 38126.55, 28.72, 16122.51, 142.29, -241.94, 8591.52, -36636.32, -27171.07, 28897.92, 730.08, 14025.52, 0.00, 0.00, 0.00, 0.00, 0.00, 0.00, 0.00
168, 13448.75, 38126.55, 28.72, 16122.51, 142.29, -241.94, 8591.52, -36636.32, -27181.71, 28859.28, 733.43, 13993.58, 0.00, 0.00, 0.00, 0.00, -0.03, 0.34, 0.96
169, 13445.89, 38129.35, 27.16, 16125.11, 148.75, -241.35, 8596.01, -36644.16, -27181.71, 28859.28, 733.43, 13993.58, 0.00, 0.00, 0.00, 0.00, 0.00, 0.00, 0.00
170, 13445.89, 38129.35, 27.16, 16125.11, 148.75, -241.35, 8596.01, -36644.16, -27163.52, 28904.20, 724.33, 14039.51, 0.00, 0.00, 0.00, 0.00, 0.00, 0.00, 0.00
171, 13446.61, 38135.18, 25.19, 16128.86, 150.92, -238.78, 8598.98, -36648.46, -27163.52, 28904.20, 724.33, 14039.51, 0.00, 0.00, 0.00, 0.00, 0.00, 0.00, 0.00
172, 13446.61, 38135.18, 25.19, 16128.86, 150.92, -238.78, 8598.98, -36648.46, -27173.22, 28859.99, 725.29, 14011.57, 0.00, 0.00, 0.00, 0.00, 0.00, 0.00, 0.00
173, 13433.46, 38116.70, 11.53, 16118.18, 138.40, -256.58, 8582.49, -36676.15, -27173.22, 28859.99, 725.29, 14011.57, 0.00, 0.00, 0.00, 0.00, 0.00, 0.00, 0.00
174, 13433.46, 38116.70, 11.53, 16118.18, 138.40, -256.58, 8582.49, -36676.15, -27182.80, 28880.93, 716.66, 14028.11, 0.00, 0.00, 0.00, 0.00, 0.00, 0.00, 0.00
175, 13447.30, 38123.16, 16.96, 16122.80, 147.32, -250.85, 8591.47, -36680.82, -27182.80, 28880.93, 716.66, 14028.11, 0.00, 0.00, 0.00, 0.00, 0.00, 0.00, 0.00
176, 13447.30, 38123.16, 16.96, 16122.80, 147.32, -250.85, 8591.47, -36680.82, -27185.80, 28858.83, 723.55, 14014.16, 0.00, 0.00, 0.00, 0.00, 0.00, 0.00, 0.00
177, 13440.04, 38109.52, 10.35, 16118.36, 139.03, -256.31, 8582.13, -36693.56, -27185.80, 28858.83, 723.55, 14014.16, 0.00, 0.00, 0.00, 0.00, 0.00, 0.00, 0.00
178, 13440.04, 38109.52, 10.35, 16118.36, 139.03, -256.31, 8582.13, -36693.56, -27183.25, 28885.96, 719.66, 14036.27, 0.00, 0.00, 0.00, 0.00, -0.03, 0.34, 0.96
179, 13444.37, 38124.23, 14.77, 16123.68, 148.46, -253.20, 8592.08, -36687.17, -27183.25, 28885.96, 719.66, 14036.27, 0.00, 0.00, 0.00, 0.00, 0.00, 0.00, 0.00
180, 13444.37, 38124.23, 14.77, 16123.68, 148.46, -253.20, 8592.08, -36687.17, -27186.61, 28865.67, 723.21, 14016.49, 0.00, 0.00, 0.00, 0.00, 0.00, 0.00, 0.00
181, 13426.13, 38108.52, 0.54, 16104.34, 131.20, -267.89, 8571.74, -36704.40, -27186.61, 28865.67, 723.21, 14016.49, 0.00, 0.00, 0.00, 0.00, 0.00, 0.00, 0.00
182, 13426.13, 38108.52, 0.54, 16104.34, 131.20, -267.89, 8571.74, -36704.40, -27174.20, 28882.03, 711.61, 14023.17, 0.00, 0.00, 0.00, 0.00, 0.00, 0.00, 0.00
183, 13445.02, 38134.02, 15.96, 16128.79, 152.35, -247.57, 8595.36, -36688.73, -27174.20, 28882.03, 711.61, 14023.17, 0.00, 0.00, 0.00, 0.00, 0.00, 0.00, 0.00
184, 13445.02, 38134.02, 15.96, 16128.79, 152.35, -247.57, 8595.36, -36688.73, -27180.08, 28862.76, 729.09, 14024.51, 0.00, 0.00, 0.00, 0.00, 0.00, 0.00, 0.00
185, 13428.46, 38110.59, 1.36, 16107.40, 134.98, -261.69, 8582.60, -36696.67, -27180.08, 28862.76, 729.09, 14024.51, 0.00, 0.00, 0.00, 0.00, 0.00, 0.00, 0.00
186, 13428.46, 38110.59, 1.36, 16107.40, 134.98, -261.69, 8582.60, -36696.67, -27164.99, 28896.69, 714.50, 14049.08, 0.00, 0.00, 0.00, 0.00, 0.00, 0.00, 0.00
187, 13436.39, 38121.08, 6.26, 16118.27, 151.59, -255.77, 8594.65, -36694.32, -27164.99, 28896.69, 714.50, 14049.08, 0.00, 0.00, 0.00, 0.00, -0.03, 0.34, 0.96
188, 13436.39, 38121.08, 6.26, 16118.27, 151.59, -255.77, 8594.65, -36694.32, -27194.90, 28856.59, 722.94, 14021.70, 0.00, 0.00, 0.00, 0.00, 0.00, 0.00, 0.00
189, 13434.85, 38115.00, 0.04, 16106.00, 136.26, -261.67, 8578.93, -36707.24, -27194.90, 28856.59, 722.94, 14021.70, 0.00, 0.00, 0.00, 0.00, 0.00, 0.00, 0.00
190, 13434.85, 38115.00, 0.04, 16106.00, 136.26, -261.67, 8578.93, -36707.24, -27187.19, 28871.48, 717.54, 14034.10, 0.00, 0.00, 0.00, 0.00, 0.00, 0.00, 0.00
191, 13448.28, 38124.57, 12.03, 16127.45, 157.87, -243.63, 8607.90, -36686.79, -27187.19, 28871.48, 717.54, 14034.10, 0.00, 0.00, 0.00, 0.00, 0.00, 0.00, 0.00
192, 13448.28, 38124.57, 12.03, 16127.45, 157.87, -243.63, 8607.90, -36686.79, -27174.74, 28887.73, 736.69, 14055.04, 0.00, 0.00, 0.00, 0.00, 0.00, 0.00, 0.00
193, 13441.40, 38116.63, 10.37, 16114.40, 152.91, -251.66, 8600.71, -36685.89, -27174.74, 28887.73, 736.69, 14055.04, 0.00, 0.00, 0.00, 0.00, 0.00, 0.00, 0.00
194, 13441.40, 38116.63, 10.37, 16114.40, 152.91, -251.66, 8600.71, -36685.89, -27176.95, 28873.31, 727.21, 14058.20, 0.00, 0.00, 0.00, 0.00, 0.00, 0.00, 0.00
195, 13455.75, 38147.16, 23.27, 16133.06, 168.87, -241.00, 8617.22, -36686.48, -27176.95, 28873.31, 727.21, 14058.20, 0.00, 0.00, 0.00, 0.00, 0.00, 0.00, 0.00
196, 13455.75, 38147.16, 23.27, 16133.06, 168.87, -241.00, 8617.22, -36686.48, -27180.26, 28874.32, 732.96, 14039.09, 0.00, 0.00, 0.00, 0.00, 0.00, 0.00, 0.00
197, 13439.41, 38124.54, 9.68, 16114.51, 150.74, -255.73, 8599.79, -36691.80, -27180.26, 28874.32, 732.96, 14039.09, 0.00, 0.00, 0.00, 0.00, -0.02, 0.34, 0.96
198, 13439.41, 38124.54, 9.68, 16114.51, 150.74, -255.73, 8599.79, -36691.80, -27172.61, 28874.54, 729.76, 14044.20, 0.00, 0.00, 0.00, 0.00, 0.00, 0.00, 0.00
199, 13446.38, 38128.10, 14.80, 16129.40, 168.64, -241.18, 8616.96, -36684.82, -27172.61, 28874.54, 729.76, 14044.20, 0.00, 0.00, 0.00, 0.00, 0.00, 0.00, 0.00
200, 13446.38, 38128.10, 14.80, 16129.40, 168.64, -241.18, 8616.96, -36684.82, -27171.09, 28882.34, 740.94, 14043.73, 0.00, 0.00, 0.00, 0.00, 0.00, 0.00, 0.00
201, 13448.98, 38138.24, 20.03, 16121.28, 161.98, -250.83, 8598.65, -36697.72, -27171.09, 28882.34, 740.94, 14043.73, 0.00, 0.00, 0.00, 0.00, 0.00, 0.00, 0.00
202, 13448.98, 38138.24, 20.03, 16121.28, 161.98, -250.83, 8598.65, -36697.72, -27174.98, 28856.08, 738.66, 14020.91, 0.00, 0.00, 0.00, 0.00, 0.00, 0.00, 0.00
203, 13459.68, 38144.01, 22.26, 16133.89, 171.15, -241.78, 8610.63, -36698.16, -27174.98, 28856.08, 738.66, 14020.91, 0.00, 0.00, 0.00, 0.00, 0.00, 0.00, 0.00
204, 13459.68, 38144.01, 22.26, 16133.89, 171.15, -241.78, 8610.63, -36698.16, -27172.54, 28875.37, 751.02, 14023.60, 0.00, 0.00, 0.00, 0.00, 0.00, 0.00, 0.00
205, 13455.21, 38138.67, 21.82, 16121.04, 170.61, -250.25, 8607.37, -36699.35, -27172.54, 28875.37, 751.02, 14023.60, 0.00, 0.00, 0.00, 0.00, 0.00, 0.00, 0.00
206, 13455.21, 38138.67, 21.82, 16121.04, 170.61, -250.25, 8607.37, -36699.35, -27168.30, 28844.52, 744.98, 13988.88, 0.00, 0.00, 0.00, 0.00, 0.00, 0.00, 0.00
207, 13454.77, 38139.52, 20.14, 16129.20, 173.16, -246.54, 8615.32, -36707.33, -27168.30, 28844.52, 744.98, 13988.88, 0.00, 0.00, 0.00, 0.00, -0.02, 0.34, 0.95
208, 13454.77, 38139.52, 20.14, 16129.20, 173.16, -246.54, 8615.32, -36707.33, -27182.80, 28846.51, 740.25, 13982.80, 0.00, 0.00, 0.00, 0.00, 0.00, 0.00, 0.00
209, 13449.00, 38131.16, 13.30, 16117.42, 166.59, -258.68, 8603.86, -36703.35, -27182.80, 28846.51, 740.25, 13982.80, 0.00, 0.00, 0.00, 0.00, 0.00, 0.00, 0.00
210, 13449.00, 38131.16, 13.30, 16117.42, 166.59, -258.68, 8603.86, -36703.35, -27158.58, 28839.99, 732.42, 13991.28, 0.00, 0.00, 0.00, 0.00, 0.00, 0.00, 0.00
211, 13451.35, 38136.23, 14.98, 16128.75, 168.42, -249.80, 8603.81, -36716.36, -27158.58, 28839.99, 732.42, 13991.28, 0.00, 0.00, 0.00, 0.00, 0.00, 0.00, 0.00
212, 13451.35, 38136.23, 14.98, 16128.75, 168.42, -249.80, 8603.81, -36716.36, -27191.21, 28834.55, 739.80, 13986.69, 0.00, 0.00, 0.00, 0.00, 0.00, 0.00, 0.00
213, 13440.17, 38127.71, 5.23, 16104.45, 156.46, -270.43, 8586.62, -36727.43, -27191.21, 28834.55, 739.80, 13986.69, 0.00, 0.00, 0.00, 0.00, 0.00, 0.00, 0.00
214, 13440.17, 38127.71, 5.23, 16104.45, 156.46, -270.43, 8586.62, -36727.43, -27176.52, 28815.31, 739.53, 13976.61, 0.00, 0.00, 0.00, 0.00, 0.00, 0.00, 0.00
215, 13452.46, 38137.59, 12.32, 16122.76, 165.31, -250.05, 8600.91, -36716.47, -27176.52, 28815.31, 739.53, 13976.61, 0.00, 0.00, 0.00, 0.00, 0.00, 0.00, 0.00
216, 13452.46, 38137.59, 12.32, 16122.76, 165.31, -250.05, 8600.91, -36716.47, -27177.26, 28845.93, 740.87, 13985.40, 0.00, 0.00, 0.00, 0.00, 0.00, 0.00, 0.00
217, 13449.69, 38126.06, 6.88, 16110.29, 161.74, -264.04, 8596.15, -36711.69, -27177.26, 28845.93, 740.87, 13985.40, 0.00, 0.00, 0.00, 0.00, -0.02, 0.34, 0.96
218, 13449.69, 38126.06, 6.88, 16110.29, 161.74, -264.04, 8596.15, -36711.69, -27168.81, 28821.95, 745.03, 13971.90, 0.00, 0.00, 0.00, 0.00, 0.00, 0.00, 0.00
219, 13455.53, 38126.26, 8.92, 16122.60, 162.56, -254.50, 8592.30, -36719.47, -27168.81, 28821.95, 745.03, 13971.90, 0.00, 0.00, 0.00, 0.00, 0.00, 0.00, 0.00
220, 13455.53, 38126.26, 8.92, 16122.60, 162.56, -254.50, 8592.30, -36719.47, -27163.40, 28850.42, 738.55, 13980.90, 0.00, 0.00, 0.00, 0.00, 0.00, 0.00, 0.00
221, 13449.80, 38134.42, 12.54, 16123.88, 166.07, -257.20, 8595.45, -36717.23, -27163.40, 28850.42, 738.55, 13980.90, 0.00, 0.00, 0.00, 0.00, 0.00, 0.00, 0.00
222, 13449.80, 38134.42, 12.54, 16123.88, 166.07, -257.20, 8595.45, -36717.23, -27189.73, 28803.80, 744.54, 13962.89, 0.00, 0.00, 0.00, 0.00, 0.00, 0.00, 0.00
223, 13438.65, 38124.21, -0.04, 16101.88, 152.82, -273.43, 8584.88, -36726.26, -27189.73, 28803.80, 744.54, 13962.89, 0.00, 0.00, 0.00, 0.00, 0.00, 0.00, 0.00
224, 13438.65, 38124.21, -0.04, 16101.88, 152.82, -273.43, 8584.88, -36726.26, -27168.01, 28836.86, 733.81, 13978.51, 0.00, 0.00, 0.00, 0.00, 0.00, 0.00, 0.00
225, 13442.38, 38134.67, 9.03, 16120.48, 166.21, -257.49, 8597.26, -36717.03, -27168.01, 28836.86, 733.81, 13978.51, 0.00, 0.00, 0.00, 0.00, 0.00, 0.00, 0.00
226, 13442.38, 38134.67, 9.03, 16120.48, 166.21, -257.49, 8597.26, -36717.03, -27187.28, 28802.84, 743.73, 13954.46, 0.00, 0.00, 0.00, 0.00, -0.02, 0.33, 0.95
227, 13435.50, 38108.89, -2.86, 16103.78, 150.76, -269.61, 8579.78, -36721.64, -27187.28, 28802.84, 743.73, 13954.46, 0.00, 0.00, 0.00, 0.00, 0.00, 0.00, 0.00
228, 13435.50, 38108.89, -2.86, 16103.78, 150.76, -269.61, 8579.78, -36721.64, -27171.81, 28832.23, 746.19, 13980.03, 0.00, 0.00, 0.00, 0.00, 0.00, 0.00, 0.00
229, 13452.11, 38131.05, 12.99, 16132.82, 169.09, -249.09, 8593.80, -36717.75, -27171.81, 28832.23, 746.19, 13980.03, 0.00, 0.00, 0.00, 0.00, 0.00, 0.00, 0.00
230, 13452.11, 38131.05, 12.99, 16132.82, 169.09, -249.09, 8593.80, -36717.75, -27188.04, 28809.03, 762.11, 13962.08, 0.00, 0.00, 0.00, 0.00, 0.00, 0.00, 0.00
231, 13463.06, 38137.28, 30.80, 16134.45, 175.75, -250.38, 8597.46, -36702.97, -27188.04, 28809.03, 762.11, 13962.08, 0.00, 0.00, 0.00, 0.00, 0.00, 0.00, 0.00
232, 13463.06, 38137.28, 30.80, 16134.45, 175.75, -250.38, 8597.46, -36702.97, -27168.41, 28828.14, 762.89, 13974.56, 0.00, 0.00, 0.00, 0.00, 0.00, 0.00, 0.00
233, 13453.76, 38134.73, 2.79, 16097.06, 153.31, -267.68, 8582.38, -36719.55, -27168.41, 28828.14, 762.89, 13974.56, 0.00, 0.00, 0.00, 0.00, 0.00, 0.00, 0.00
234, 13453.76, 38134.73, 2.79, 16097.06, 153.31, -267.68, 8582.38, -36719.55, -27195.34, 28798.81, 755.96, 13953.99, 0.00, 0.00, 0.00, 0.00, 0.00, 0.00, 0.00
235, 13453.07, 38127.74, 7.17, 16096.36, 140.70, -271.17, 8568.81, -36729.35, -27195.34, 28798.81, 755.96, 13953.99, 0.00, 0.00, 0.00, 0.00, 0.00, 0.00, 0.00
236, 13453.07, 38127.74, 7.17, 16096.36, 140.70, -271.17, 8568.81, -36729.35, -27176.75, 28808.13, 764.14, 13963.36, 0.00, 0.00, 0.00, 0.00, -0.02, 0.34, 0.96
237, 13469.63, 38150.98, 17.46, 16096.90, 155.50, -267.62, 8587.47, -36714.39, -27176.75, 28808.13, 764.14, 13963.36, 0.00, 0.00, 0.00, 0.00, 0.00, 0.00, 0.00
238, 13469.63, 38150.98, 17.46, 16096.90, 155.50, -267.62, 8587.47, -36714.39, -27188.26, 28806.17, 783.54, 13959.11, 0.00, 0.00, 0.00, 0.00, 0.00, 0.00, 0.00
239, 13454.86, 38132.77, 11.15, 16075.87, 141.11, -275.37, 8566.80, -36730.48, -27188.26, 28806.17, 783.54, 13959.11, 0.00, 0.00, 0.00, 0.00, 0.00, 0.00, 0.00
240, 13454.86, 38132.77, 11.15, 16075.87, 141.11, -275.37, 8566.80, -36730.48, -27183.61, 28806.97, 789.31, 13970.73, 0.00, 0.00, 0.00, 0.00, 0.00, 0.00, 0.00
241, 13486.01, 38180.71, 38.82, 16116.68, 166.90, -248.51, 8593.35, -36712.56, -27183.61, 28806.97, 789.31, 13970.73, 0.00, 0.00, 0.00, 0.00, 0.00, 0.00, 0.00
242, 13486.01, 38180.71, 38.82, 16116.68, 166.90, -248.51, 8593.35, -36712.56, -27188.88, 28807.17, 802.14, 13968.01, 0.00, 0.00, 0.00, 0.00, 0.00, 0.00, 0.00
243, 13466.32, 38144.14, 21.86, 16089.23, 152.55, -271.66, 8574.22, -36716.83, -27188.88, 28807.17, 802.14, 13968.01, 0.00, 0.00, 0.00, 0.00, 0.00, 0.00, 0.00
244, 13466.32, 38144.14, 21.86, 16089.23, 152.55, -271.66, 8574.22, -36716.83, -27183.97, 28800.40, 790.51, 13964.79, 0.00, 0.00, 0.00, 0.00, 0.00, 0.00, 0.00
