%OpenBCI Raw EEG Data
%
%Sample Rate = 250.0 Hz
%First Column = SampleIndex
%Other Columns = EEG data in microvolts followed by Accel Data (in G) interleaved with Aux Data
0, 0.00, 0.00, 0.00, 0.00, 0.00, 0.00, 0.00, 0.00, -19629.32, 32463.31, 3138.72, -91481.09, 0.00, 0.00, 0.00, 0.00, -0.00, 0.25, 0.98
1, 5679.38, 52291.17, 1947.19, 24657.53, -13105.25, -446.65, 11547.36, -46095.51, -19629.32, 32463.31, 3138.72, -91481.09, 0.00, 0.00, 0.00, 0.00, 0.00, 0.00, 0.00
2, 5679.38, 52291.17, 1947.19, 24657.53, -13105.25, -446.65, 11547.36, -46095.51, -21217.79, 32595.01, -2008.10, -187500.02, 0.00, 0.00, 0.00, 0.00, 0.00, 0.00, 0.00
3, 5647.12, 52250.46, 1910.72, 24615.17, -13140.39, -484.90, 11506.66, -46132.70, -21217.79, 32595.01, -2008.10, -187500.02, 0.00, 0.00, 0.00, 0.00, 0.00, 0.00, 0.00
4, 5647.12, 52250.46, 1910.72, 24615.17, -13140.39, -484.90, 11506.66, -46132.70, -21208.14, 32605.45, -2007.81, -183748.64, 0.00, 0.00, 0.00, 0.00, 0.00, 0.00, 0.00
5, 5682.46, 52294.86, 1946.77, 24658.47, -13107.33, -449.00, 11546.62, -46098.62, -21208.14, 32605.45, -2007.81, -183748.64, 0.00, 0.00, 0.00, 0.00, 0.00, 0.00, 0.00
6, 5682.46, 52294.86, 1946.77, 24658.47, -13107.33, -449.00, 11546.62, -46098.62, -21214.78, 32596.20, -2004.57, -187500.02, 0.00, 0.00, 0.00, 0.00, 0.00, 0.00, 0.00
7, 5650.07, 52252.74, 1911.59, 24618.39, -13142.65, -484.34, 11507.28, -46133.64, -21214.78, 32596.20, -2004.57, -187500.02, 0.00, 0.00, 0.00, 0.00, 0.04, 0.31, 0.97
8, 5650.07, 52252.74, 1911.59, 24618.39, -13142.65, -484.34, 11507.28, -46133.64, -21210.17, 32601.78, -2010.58, -183795.81, 0.00, 0.00, 0.00, 0.00, 0.00, 0.00, 0.00
9, 5682.15, 52288.95, 1947.82, 24660.50, -13103.75, -446.79, 11552.66, -46095.62, -21210.17, 32601.78, -2010.58, -183795.81, 0.00, 0.00, 0.00, 0.00, 0.00, 0.00, 0.00
10, 5682.15, 52288.95, 1947.82, 24660.50, -13103.75, -446.79, 11552.66, -46095.62, -21213.37, 32599.73, -2007.12, -187500.02, 0.00, 0.00, 0.00, 0.00, 0.00, 0.00, 0.00
11, 5646.65, 52241.86, 1910.54, 24619.98, -13140.57, -484.27, 11509.65, -46133.24, -21213.37, 32599.73, -2007.12, -187500.02, 0.00, 0.00, 0.00, 0.00, 0.00, 0.00, 0.00
12, 5646.65, 52241.86, 1910.54, 24619.98, -13140.57, -484.27, 11509.65, -46133.24, -21206.93, 32597.74, -2017.98, -183058.25, 0.00, 0.00, 0.00, 0.00, 0.00, 0.00, 0.00
13, 5676.87, 52286.20, 1947.31, 24665.08, -13102.32, -442.94, 11557.53, -46093.65, -21206.93, 32597.74, -2017.98, -183058.25, 0.00, 0.00, 0.00, 0.00, 0.00, 0.00, 0.00
14, 5676.87, 52286.20, 1947.31, 24665.08, -13102.32, -442.94, 11557.53, -46093.65, -21202.44, 32609.50, -2009.04, -187500.02, 0.00, 0.00, 0.00, 0.00, 0.00, 0.00, 0.00
15, 5643.97, 52248.74, 1908.77, 24617.70, -13140.25, -484.36, 11512.96, -46132.23, -21202.44, 32609.50, -2009.04, -187500.02, 0.00, 0.00, 0.00, 0.00, 0.00, 0.00, 0.00
16, 5643.97, 52248.74, 1908.77, 24617.70, -13140.25, -484.36, 11512.96, -46132.23, -21211.09, 32586.34, -2026.77, -182603.39, 0.00, 0.00, 0.00, 0.00, 0.03, 0.31, 0.96
17, 5674.79, 52284.93, 1942.23, 24657.75, -13105.77, -450.86, 11552.43, -46100.27, -21211.09, 32586.34, -2026.77, -182603.39, 0.00, 0.00, 0.00, 0.00, 0.00, 0.00, 0.00
18, 5674.79, 52284.93, 1942.23, 24657.75, -13105.77, -450.86, 11552.43, -46100.27, -21200.88, 32612.31, -2005.55, -187500.02, 0.00, 0.00, 0.00, 0.00, 0.00, 0.00, 0.00
19, 5648.00, 52247.02, 1912.21, 24624.45, -13137.30, -480.85, 11517.12, -46131.99, -21200.88, 32612.31, -2005.55, -187500.02, 0.00, 0.00, 0.00, 0.00, 0.00, 0.00, 0.00
20, 5648.00, 52247.02, 1912.21, 24624.45, -13137.30, -480.85, 11517.12, -46131.99, -21211.67, 32585.49, -2025.85, -182719.30, 0.00, 0.00, 0.00, 0.00, 0.00, 0.00, 0.00
21, 5681.52, 52282.88, 1945.99, 24665.02, -13104.16, -444.42, 11559.67, -46096.22, -21211.67, 32585.49, -2025.85, -182719.30, 0.00, 0.00, 0.00, 0.00, 0.00, 0.00, 0.00
22, 5681.52, 52282.88, 1945.99, 24665.02, -13104.16, -444.42, 11559.67, -46096.22, -21193.54, 32625.16, -2004.59, -187500.02, 0.00, 0.00, 0.00, 0.00, 0.00, 0.00, 0.00
23, 5660.96, 52257.50, 1921.04, 24635.64, -13130.84, -472.29, 11526.59, -46127.98, -21193.54, 32625.16, -2004.59, -187500.02, 0.00, 0.00, 0.00, 0.00, 0.00, 0.00, 0.00
24, 5660.96, 52257.50, 1921.04, 24635.64, -13130.84, -472.29, 11526.59, -46127.98, -21212.47, 32577.31, -2027.77, -183335.59, 0.00, 0.00, 0.00, 0.00, 0.00, 0.00, 0.00
25, 5681.66, 52290.23, 1942.77, 24660.46, -13111.98, -453.34, 11551.60, -46108.16, -21212.47, 32577.31, -2027.77, -183335.59, 0.00, 0.00, 0.00, 0.00, 0.00, 0.00, 0.00
26, 5681.66, 52290.23, 1942.77, 24660.46, -13111.98, -453.34, 11551.60, -46108.16, -21190.71, 32621.16, -2003.01, -187500.02, 0.00, 0.00, 0.00, 0.00, 0.04, 0.31, 0.97
27, 5667.58, 52270.07, 1930.12, 24640.70, -13123.71, -468.56, 11534.64, -46120.70, -21190.71, 32621.16, -2003.01, -187500.02, 0.00, 0.00, 0.00, 0.00, 0.00, 0.00, 0.00
28, 5667.58, 52270.07, 1930.12, 24640.70, -13123.71, -468.56, 11534.64, -46120.70, -21205.97, 32579.43, -2019.08, -183576.92, 0.00, 0.00, 0.00, 0.00, 0.00, 0.00, 0.00
29, 5676.34, 52278.74, 1939.75, 24658.13, -13112.49, -454.97, 11550.73, -46110.55, -21205.97, 32579.43, -2019.08, -183576.92, 0.00, 0.00, 0.00, 0.00, 0.00, 0.00, 0.00
30, 5676.34, 52278.74, 1939.75, 24658.13, -13112.49, -454.97, 11550.73, -46110.55, -21185.45, 32622.79, -1998.83, -187500.02, 0.00, 0.00, 0.00, 0.00, 0.00, 0.00, 0.00
31, 5671.26, 52276.68, 1933.67, 24646.55, -13119.89, -465.54, 11539.74, -46120.95, -21185.45, 32622.79, -1998.83, -187500.02, 0.00, 0.00, 0.00, 0.00, 0.00, 0.00, 0.00
32, 5671.26, 52276.68, 1933.67, 24646.55, -13119.89, -465.54, 11539.74, -46120.95, -21209.35, 32579.05, -2022.63, -183693.11, 0.00, 0.00, 0.00, 0.00, 0.00, 0.00, 0.00
33, 5673.86, 52281.67, 1939.68, 24652.72, -13117.43, -459.69, 11547.29, -46116.25, -21209.35, 32579.05, -2022.63, -183693.11, 0.00, 0.00, 0.00, 0.00, 0.00, 0.00, 0.00
34, 5673.86, 52281.67, 1939.68, 24652.72, -13117.43, -459.69, 11547.29, -46116.25, -21186.03, 32625.92, -2002.54, -187053.94, 0.00, 0.00, 0.00, 0.00, 0.00, 0.00, 0.00
35, 5681.37, 52289.36, 1942.68, 24657.24, -13113.92, -457.47, 11550.62, -46114.62, -21186.03, 32625.92, -2002.54, -187053.94, 0.00, 0.00, 0.00, 0.00, 0.00, 0.00, 0.00
36, 5681.37, 52289.36, 1942.68, 24657.24, -13113.92, -457.47, 11550.62, -46114.62, -21211.65, 32573.42, -2018.74, -183909.14, 0.00, 0.00, 0.00, 0.00, 0.03, 0.31, 0.97
37, 5671.13, 52264.28, 1933.27, 24648.54, -13121.32, -465.14, 11543.56, -46122.58, -21211.65, 32573.42, -2018.74, -183909.14, 0.00, 0.00, 0.00, 0.00, 0.00, 0.00, 0.00
38, 5671.13, 52264.28, 1933.27, 24648.54, -13121.32, -465.14, 11543.56, -46122.58, -21184.27, 32622.37, -1994.78, -185398.45, 0.00, 0.00, 0.00, 0.00, 0.00, 0.00, 0.00
39, 5697.24, 52298.32, 1966.89, 24704.20, -13093.07, -438.32, 11569.53, -46101.21, -21184.27, 32622.37, -1994.78, -185398.45, 0.00, 0.00, 0.00, 0.00, 0.00, 0.00, 0.00
40, 5697.24, 52298.32, 1966.89, 24704.20, -13093.07, -438.32, 11569.53, -46101.21, -21204.94, 32581.76, -2003.19, -184648.33, 0.00, 0.00, 0.00, 0.00, 0.00, 0.00, 0.00
41, 5657.81, 52251.96, 1914.61, 24635.20, -13135.11, -475.40, 11533.05, -46133.39, -21204.94, 32581.76, -2003.19, -184648.33, 0.00, 0.00, 0.00, 0.00, 0.00, 0.00, 0.00
42, 5657.81, 52251.96, 1914.61, 24635.20, -13135.11, -475.40, 11533.05, -46133.39, -21190.26, 32617.43, -2052.90, -184133.58, 0.00, 0.00, 0.00, 0.00, 0.00, 0.00, 0.00
43, 5674.68, 52273.93, 1929.83, 24670.33, -13113.39, -449.81, 11560.19, -46111.16, -21190.26, 32617.43, -2052.90, -184133.58, 0.00, 0.00, 0.00, 0.00, 0.00, 0.00, 0.00
44, 5674.68, 52273.93, 1929.83, 24670.33, -13113.39, -449.81, 11560.19, -46111.16, -21209.93, 32578.36, -2050.03, -185742.25, 0.00, 0.00, 0.00, 0.00, 0.00, 0.00, 0.00
45, 5657.45, 52252.74, 1909.87, 24645.48, -13138.44, -476.92, 11529.52, -46140.32, -21209.93, 32578.36, -2050.03, -185742.25, 0.00, 0.00, 0.00, 0.00, 0.00, 0.00, 0.00
46, 5657.45, 52252.74, 1909.87, 24645.48, -13138.44, -476.92, 11529.52, -46140.32, -21190.17, 32612.63, -2040.51, -183153.86, 0.00, 0.00, 0.00, 0.00, 0.03, 0.31, 0.98
47, 5688.47, 52283.25, 1942.12, 24690.41, -13103.13, -439.90, 11570.80, -46106.53, -21190.17, 32612.63, -2040.51, -183153.86, 0.00, 0.00, 0.00, 0.00, 0.00, 0.00, 0.00
48, 5688.47, 52283.25, 1942.12, 24690.41, -13103.13, -439.90, 11570.80, -46106.53, -21204.23, 32586.43, -2032.87, -187068.27, 0.00, 0.00, 0.00, 0.00, 0.00, 0.00, 0.00
49, 5660.94, 52248.65, 1914.25, 24652.90, -13137.80, -474.08, 11531.62, -46140.37, -21204.23, 32586.43, -2032.87, -187068.27, 0.00, 0.00, 0.00, 0.00, 0.00, 0.00, 0.00
50, 5660.94, 52248.65, 1914.25, 24652.90, -13137.80, -474.08, 11531.62, -46140.37, -21185.34, 32617.14, -2038.99, -182616.52, 0.00, 0.00, 0.00, 0.00, 0.00, 0.00, 0.00
51, 5696.30, 52298.03, 1953.61, 24699.28, -13097.99, -431.52, 11581.27, -46095.42, -21185.34, 32617.14, -2038.99, -182616.52, 0.00, 0.00, 0.00, 0.00, 0.00, 0.00, 0.00
52, 5696.30, 52298.03, 1953.61, 24699.28, -13097.99, -431.52, 11581.27, -46095.42, -21197.57, 32600.31, -2036.07, -187500.02, 0.00, 0.00, 0.00, 0.00, 0.00, 0.00, 0.00
53, 5652.20, 52243.40, 1908.12, 24647.40, -13141.98, -476.47, 11531.06, -46141.15, -21197.57, 32600.31, -2036.07, -187500.02, 0.00, 0.00, 0.00, 0.00, 0.00, 0.00, 0.00
54, 5652.20, 52243.40, 1908.12, 24647.40, -13141.98, -476.47, 11531.06, -46141.15, -21188.47, 32609.81, -2040.54, -182360.39, 0.00, 0.00, 0.00, 0.00, 0.00, 0.00, 0.00
55, 5695.72, 52297.49, 1954.53, 24701.72, -13098.43, -430.96, 11584.86, -46098.66, -21188.47, 32609.81, -2040.54, -182360.39, 0.00, 0.00, 0.00, 0.00, 0.02, 0.31, 0.98
56, 5695.72, 52297.49, 1954.53, 24701.72, -13098.43, -430.96, 11584.86, -46098.66, -21200.16, 32595.28, -2034.05, -187500.02, 0.00, 0.00, 0.00, 0.00, 0.00, 0.00, 0.00
57, 5659.39, 52251.78, 1913.04, 24649.66, -13140.59, -478.51, 11530.77, -46148.55, -21200.16, 32595.28, -2034.05, -187500.02, 0.00, 0.00, 0.00, 0.00, 0.00, 0.00, 0.00
58, 5659.39, 52251.78, 1913.04, 24649.66, -13140.59, -478.51, 11530.77, -46148.55, -21195.51, 32590.99, -2039.24, -181307.98, 0.00, 0.00, 0.00, 0.00, 0.00, 0.00, 0.00
59, 5705.37, 52302.23, 1962.55, 24709.81, -13092.60, -427.79, 11588.66, -46098.93, -21195.51, 32590.99, -2039.24, -181307.98, 0.00, 0.00, 0.00, 0.00, 0.00, 0.00, 0.00
60, 5705.37, 52302.23, 1962.55, 24709.81, -13092.60, -427.79, 11588.66, -46098.93, -21189.97, 32607.93, -2025.87, -187500.02, 0.00, 0.00, 0.00, 0.00, 0.00, 0.00, 0.00
61, 5667.80, 52259.52, 1921.20, 24659.20, -13130.96, -470.75, 11540.58, -46139.99, -21189.97, 32607.93, -2025.87, -187500.02, 0.00, 0.00, 0.00, 0.00, 0.00, 0.00, 0.00
62, 5667.80, 52259.52, 1921.20, 24659.20, -13130.96, -470.75, 11540.58, -46139.99, -21190.44, 32590.25, -2033.47, -180635.19, 0.00, 0.00, 0.00, 0.00, 0.00, 0.00, 0.00
63, 5704.99, 52308.63, 1965.17, 24710.43, -13088.38, -427.50, 11593.36, -46095.35, -21190.44, 32590.25, -2033.47, -180635.19, 0.00, 0.00, 0.00, 0.00, 0.00, 0.00, 0.00
64, 5704.99, 52308.63, 1965.17, 24710.43, -13088.38, -427.50, 11593.36, -46095.35, -21181.83, 32614.59, -2021.20, -187500.02, 0.00, 0.00, 0.00, 0.00, 0.00, 0.00, 0.00
65, 5668.22, 52258.78, 1922.09, 24663.14, -13130.33, -470.08, 11542.46, -46141.24, -21181.83, 32614.59, -2021.20, -187500.02, 0.00, 0.00, 0.00, 0.00, 0.03, 0.32, 0.97
66, 5668.22, 52258.78, 1922.09, 24663.14, -13130.33, -470.08, 11542.46, -46141.24, -21194.59, 32578.34, -2041.32, -180486.42, 0.00, 0.00, 0.00, 0.00, 0.00, 0.00, 0.00
67, 5698.11, 52302.12, 1957.12, 24705.83, -13093.72, -431.19, 11589.74, -46100.85, -21194.59, 32578.34, -2041.32, -180486.42, 0.00, 0.00, 0.00, 0.00, 0.00, 0.00, 0.00
68, 5698.11, 52302.12, 1957.12, 24705.83, -13093.72, -431.19, 11589.74, -46100.85, -21172.15, 32622.95, -2025.18, -187500.02, 0.00, 0.00, 0.00, 0.00, 0.00, 0.00, 0.00
69, 5668.54, 52265.53, 1923.39, 24665.82, -13126.78, -466.17, 11549.64, -46134.69, -21172.15, 32622.95, -2025.18, -187500.02, 0.00, 0.00, 0.00, 0.00, 0.00, 0.00, 0.00
70, 5668.54, 52265.53, 1923.39, 24665.82, -13126.78, -466.17, 11549.64, -46134.69, -21192.65, 32578.61, -2037.43, -180882.45, 0.00, 0.00, 0.00, 0.00, 0.00, 0.00, 0.00
71, 5703.87, 52301.43, 1960.02, 24708.24, -13094.43, -430.70, 11590.52, -46101.21, -21192.65, 32578.61, -2037.43, -180882.45, 0.00, 0.00, 0.00, 0.00, 0.00, 0.00, 0.00
72, 5703.87, 52301.43, 1960.02, 24708.24, -13094.43, -430.70, 11590.52, -46101.21, -21170.14, 32626.93, -2020.80, -187500.02, 0.00, 0.00, 0.00, 0.00, 0.00, 0.00, 0.00
73, 5681.30, 52280.17, 1934.90, 24675.10, -13119.78, -459.57, 11555.87, -46133.42, -21170.14, 32626.93, -2020.80, -187500.02, 0.00, 0.00, 0.00, 0.00, 0.00, 0.00, 0.00
74, 5681.30, 52280.17, 1934.90, 24675.10, -13119.78, -459.57, 11555.87, -46133.42, -21194.55, 32570.34, -2039.89, -181766.75, 0.00, 0.00, 0.00, 0.00, 0.00, 0.00, 0.00
75, 5701.01, 52296.00, 1954.70, 24701.13, -13100.11, -437.11, 11585.04, -46110.82, -21194.55, 32570.34, -2039.89, -181766.75, 0.00, 0.00, 0.00, 0.00, 0.03, 0.32, 0.97
76, 5701.01, 52296.00, 1954.70, 24701.13, -13100.11, -437.11, 11585.04, -46110.82, -21167.26, 32627.13, -2023.19, -187500.02, 0.00, 0.00, 0.00, 0.00, 0.00, 0.00, 0.00
77, 5684.38, 52285.40, 1942.57, 24683.72, -13110.77, -450.70, 11569.06, -46123.63, -21167.26, 32627.13, -2023.19, -187500.02, 0.00, 0.00, 0.00, 0.00, 0.00, 0.00, 0.00
78, 5684.38, 52285.40, 1942.57, 24683.72, -13110.77, -450.70, 11569.06, -46123.63, -21188.98, 32571.50, -2040.16, -182138.61, 0.00, 0.00, 0.00, 0.00, 0.00, 0.00, 0.00
79, 5689.23, 52286.18, 1948.89, 24695.23, -13104.29, -441.60, 11580.46, -46113.17, -21188.98, 32571.50, -2040.16, -182138.61, 0.00, 0.00, 0.00, 0.00, 0.00, 0.00, 0.00
80, 5689.23, 52286.18, 1948.89, 24695.23, -13104.29, -441.60, 11580.46, -46113.17, -21160.64, 32630.17, -2024.93, -186919.36, 0.00, 0.00, 0.00, 0.00, 0.00, 0.00, 0.00
81, 5689.01, 52283.19, 1945.76, 24688.75, -13105.79, -445.58, 11576.86, -46115.92, -21160.64, 32630.17, -2024.93, -186919.36, 0.00, 0.00, 0.00, 0.00, 0.00, 0.00, 0.00
82, 5689.01, 52283.19, 1945.76, 24688.75, -13105.79, -445.58, 11576.86, -46115.92, -21183.51, 32573.24, -2038.03, -182525.19, 0.00, 0.00, 0.00, 0.00, 0.00, 0.00, 0.00
83, 5694.44, 52299.95, 1953.16, 24694.03, -13106.10, -443.50, 11580.21, -46115.49, -21183.51, 32573.24, -2038.03, -182525.19, 0.00, 0.00, 0.00, 0.00, 0.00, 0.00, 0.00
84, 5694.44, 52299.95, 1953.16, 24694.03, -13106.10, -443.50, 11580.21, -46115.49, -21153.91, 32635.78, -2016.02, -185510.16, 0.00, 0.00, 0.00, 0.00, 0.00, 0.00, 0.00
85, 5698.80, 52298.48, 1957.41, 24700.33, -13097.14, -436.08, 11587.90, -46109.37, -21153.91, 32635.78, -2016.02, -185510.16, 0.00, 0.00, 0.00, 0.00, 0.03, 0.31, 0.96
86, 5698.80, 52298.48, 1957.41, 24700.33, -13097.14, -436.08, 11587.90, -46109.37, -21184.02, 32571.07, -2032.85, -183348.45, 0.00, 0.00, 0.00, 0.00, 0.00, 0.00, 0.00
87, 5687.24, 52283.50, 1943.77, 24683.90, -13109.81, -452.76, 11574.27, -46121.75, -21184.02, 32571.07, -2032.85, -183348.45, 0.00, 0.00, 0.00, 0.00, 0.00, 0.00, 0.00
88, 5687.24, 52283.50, 1943.77, 24683.90, -13109.81, -452.76, 11574.27, -46121.75, -21147.25, 32634.53, -2014.70, -184234.63, 0.00, 0.00, 0.00, 0.00, 0.00, 0.00, 0.00
89, 5707.90, 52316.20, 1968.16, 24709.14, -13086.75, -429.24, 11600.67, -46099.44, -21147.25, 32634.53, -2014.70, -184234.63, 0.00, 0.00, 0.00, 0.00, 0.00, 0.00, 0.00
90, 5707.90, 52316.20, 1968.16, 24709.14, -13086.75, -429.24, 11600.67, -46099.44, -21176.94, 32585.54, -2027.86, -184461.86, 0.00, 0.00, 0.00, 0.00, 0.00, 0.00, 0.00
91, 5676.07, 52270.36, 1936.42, 24675.97, -13116.79, -456.53, 11569.73, -46128.43, -21176.94, 32585.54, -2027.86, -184461.86, 0.00, 0.00, 0.00, 0.00, 0.00, 0.00, 0.00
92, 5676.07, 52270.36, 1936.42, 24675.97, -13116.79, -456.53, 11569.73, -46128.43, -21157.49, 32622.68, -2026.72, -183109.02, 0.00, 0.00, 0.00, 0.00, 0.00, 0.00, 0.00
93, 5708.99, 52305.41, 1968.14, 24714.77, -13083.21, -424.62, 11605.16, -46097.97, -21157.49, 32622.68, -2026.72, -183109.02, 0.00, 0.00, 0.00, 0.00, 0.00, 0.00, 0.00
94, 5708.99, 52305.41, 1968.14, 24714.77, -13083.21, -424.62, 11605.16, -46097.97, -21169.29, 32586.16, -2029.92, -185712.28, 0.00, 0.00, 0.00, 0.00, 0.03, 0.31, 0.96
95, 5680.58, 52277.87, 1935.97, 24673.40, -13115.74, -457.12, 11568.97, -46128.95, -21169.29, 32586.16, -2029.92, -185712.28, 0.00, 0.00, 0.00, 0.00, 0.00, 0.00, 0.00
96, 5680.58, 52277.87, 1935.97, 24673.40, -13115.74, -457.12, 11568.97, -46128.95, -21145.60, 32629.08, -2027.88, -182260.63, 0.00, 0.00, 0.00, 0.00, 0.00, 0.00, 0.00
97, 5715.34, 52316.76, 1973.12, 24719.22, -13078.74, -416.66, 11615.24, -46088.54, -21145.60, 32629.08, -2027.88, -182260.63, 0.00, 0.00, 0.00, 0.00, 0.00, 0.00, 0.00
98, 5715.34, 52316.76, 1973.12, 24719.22, -13078.74, -416.66, 11615.24, -46088.54, -21162.52, 32601.18, -2027.64, -187084.14, 0.00, 0.00, 0.00, 0.00, 0.00, 0.00, 0.00
99, 5677.34, 52265.93, 1930.30, 24671.59, -13121.17, -461.21, 11565.55, -46132.52, -21162.52, 32601.18, -2027.64, -187084.14, 0.00, 0.00, 0.00, 0.00, 0.00, 0.00, 0.00
100, 5677.34, 52265.93, 1930.30, 24671.59, -13121.17, -461.21, 11565.55, -46132.52, -21152.33, 32615.22, -2029.05, -181893.38, 0.00, 0.00, 0.00, 0.00, 0.00, 0.00, 0.00
101, 5713.40, 52322.28, 1973.99, 24717.25, -13078.23, -419.07, 11614.57, -46091.13, -21152.33, 32615.22, -2029.05, -181893.38, 0.00, 0.00, 0.00, 0.00, 0.00, 0.00, 0.00
102, 5713.40, 52322.28, 1973.99, 24717.25, -13078.23, -419.07, 11614.57, -46091.13, -21157.06, 32605.34, -2021.22, -187500.02, 0.00, 0.00, 0.00, 0.00, 0.00, 0.00, 0.00
103, 5682.71, 52274.58, 1937.27, 24670.22, -13116.50, -459.46, 11569.71, -46129.66, -21157.06, 32605.34, -2021.22, -187500.02, 0.00, 0.00, 0.00, 0.00, 0.00, 0.00, 0.00
104, 5682.71, 52274.58, 1937.27, 24670.22, -13116.50, -459.46, 11569.71, -46129.66, -21146.07, 32614.35, -2019.73, -180873.84, 0.00, 0.00, 0.00, 0.00, 0.03, 0.31, 0.96
105, 5725.13, 52321.36, 1985.26, 24725.77, -13069.27, -411.76, 11624.54, -46080.67, -21146.07, 32614.35, -2019.73, -180873.84, 0.00, 0.00, 0.00, 0.00, 0.00, 0.00, 0.00
106, 5725.13, 52321.36, 1985.26, 24725.77, -13069.27, -411.76, 11624.54, -46080.67, -21150.40, 32614.68, -2018.41, -187500.02, 0.00, 0.00, 0.00, 0.00, 0.00, 0.00, 0.00
107, 5678.86, 52272.39, 1935.64, 24666.87, -13118.71, -462.46, 11566.71, -46132.61, -21150.40, 32614.68, -2018.41, -187500.02, 0.00, 0.00, 0.00, 0.00, 0.00, 0.00, 0.00
108, 5678.86, 52272.39, 1935.64, 24666.87, -13118.71, -462.46, 11566.71, -46132.61, -21153.22, 32604.47, -2032.76, -179991.39, 0.00, 0.00, 0.00, 0.00, 0.00, 0.00, 0.00
109, 5722.07, 52324.09, 1980.99, 24722.97, -13075.61, -412.72, 11623.47, -46083.75, -21153.22, 32604.47, -2032.76, -179991.39, 0.00, 0.00, 0.00, 0.00, 0.00, 0.00, 0.00
110, 5722.07, 52324.09, 1980.99, 24722.97, -13075.61, -412.72, 11623.47, -46083.75, -21143.25, 32628.14, -2017.54, -187500.02, 0.00, 0.00, 0.00, 0.00, 0.00, 0.00, 0.00
111, 5688.83, 52287.30, 1945.23, 24673.93, -13113.99, -456.27, 11574.09, -46128.86, -21143.25, 32628.14, -2017.54, -187500.02, 0.00, 0.00, 0.00, 0.00, 0.00, 0.00, 0.00
112, 5688.83, 52287.30, 1945.23, 24673.93, -13113.99, -456.27, 11574.09, -46128.86, -21152.97, 32597.54, -2025.74, -179579.72, 0.00, 0.00, 0.00, 0.00, 0.00, 0.00, 0.00
113, 5726.72, 52328.02, 1984.72, 24724.63, -13073.13, -412.19, 11625.50, -46086.50, -21152.97, 32597.54, -2025.74, -179579.72, 0.00, 0.00, 0.00, 0.00, 0.00, 0.00, 0.00
114, 5726.72, 52328.02, 1984.72, 24724.63, -13073.13, -412.19, 11625.50, -46086.50, -21140.37, 32631.09, -2011.05, -187500.02, 0.00, 0.00, 0.00, 0.00, 0.03, 0.31, 0.97
115, 5683.09, 52276.79, 1939.28, 24670.92, -13117.25, -457.99, 11572.84, -46133.62, -21140.37, 32631.09, -2011.05, -187500.02, 0.00, 0.00, 0.00, 0.00, 0.00, 0.00, 0.00
116, 5683.09, 52276.79, 1939.28, 24670.92, -13117.25, -457.99, 11572.84, -46133.62, -21164.02, 32584.95, -2037.20, -179653.19, 0.00, 0.00, 0.00, 0.00, 0.00, 0.00, 0.00
117, 5719.03, 52318.46, 1976.36, 24715.78, -13083.50, -419.61, 11616.54, -46099.27, -21164.02, 32584.95, -2037.20, -179653.19, 0.00, 0.00, 0.00, 0.00, 0.00, 0.00, 0.00
118, 5719.03, 52318.46, 1976.36, 24715.78, -13083.50, -419.61, 11616.54, -46099.27, -21144.37, 32625.86, -2019.88, -187500.02, 0.00, 0.00, 0.00, 0.00, 0.00, 0.00, 0.00
119, 5691.11, 52279.59, 1944.02, 24676.48, -13114.89, -453.83, 11577.69, -46131.05, -21144.37, 32625.86, -2019.88, -187500.02, 0.00, 0.00, 0.00, 0.00, 0.00, 0.00, 0.00
120, 5691.11, 52279.59, 1944.02, 24676.48, -13114.89, -453.83, 11577.69, -46131.05, -21162.18, 32585.13, -2034.12, -180262.92, 0.00, 0.00, 0.00, 0.00, 0.00, 0.00, 0.00
121, 5714.60, 52311.60, 1974.55, 24710.26, -13086.25, -422.94, 11614.08, -46100.02, -21162.18, 32585.13, -2034.12, -180262.92, 0.00, 0.00, 0.00, 0.00, 0.00, 0.00, 0.00
122, 5714.60, 52311.60, 1974.55, 24710.26, -13086.25, -422.94, 11614.08, -46100.02, -21141.55, 32632.81, -2018.76, -187500.02, 0.00, 0.00, 0.00, 0.00, 0.00, 0.00, 0.00
123, 5698.87, 52292.60, 1954.19, 24683.68, -13106.44, -447.15, 11587.17, -46124.01, -21141.55, 32632.81, -2018.76, -187500.02, 0.00, 0.00, 0.00, 0.00, 0.00, 0.00, 0.00
124, 5698.87, 52292.60, 1954.19, 24683.68, -13106.44, -447.15, 11587.17, -46124.01, -21157.83, 32580.82, -2029.74, -181502.34, 0.00, 0.00, 0.00, 0.00, 0.02, 0.31, 0.97
125, 5713.96, 52314.17, 1973.17, 24707.53, -13087.08, -426.40, 11612.42, -46102.91, -21157.83, 32580.82, -2029.74, -181502.34, 0.00, 0.00, 0.00, 0.00, 0.00, 0.00, 0.00
126, 5713.96, 52314.17, 1973.17, 24707.53, -13087.08, -426.40, 11612.42, -46102.91, -21135.14, 32639.11, -2011.99, -187447.11, 0.00, 0.00, 0.00, 0.00, 0.00, 0.00, 0.00
127, 5707.94, 52310.99, 1963.80, 24693.74, -13096.78, -436.24, 11598.72, -46114.78, -21135.14, 32639.11, -2011.99, -187447.11, 0.00, 0.00, 0.00, 0.00, 0.00, 0.00, 0.00
128, 5707.94, 52310.99, 1963.80, 24693.74, -13096.78, -436.24, 11598.72, -46114.78, -21164.38, 32575.12, -2029.36, -181811.30, 0.00, 0.00, 0.00, 0.00, 0.00, 0.00, 0.00
129, 5706.82, 52304.76, 1965.08, 24694.45, -13095.91, -435.10, 11603.59, -46111.25, -21164.38, 32575.12, -2029.36, -181811.30, 0.00, 0.00, 0.00, 0.00, 0.00, 0.00, 0.00
130, 5706.82, 52304.76, 1965.08, 24694.45, -13095.91, -435.10, 11603.59, -46111.25, -21133.37, 32638.89, -2011.23, -185990.11, 0.00, 0.00, 0.00, 0.00, 0.00, 0.00, 0.00
131, 5709.55, 52305.43, 1966.28, 24697.45, -13091.01, -432.15, 11607.13, -46106.73, -21133.37, 32638.89, -2011.23, -185990.11, 0.00, 0.00, 0.00, 0.00, 0.00, 0.00, 0.00
132, 5709.55, 52305.43, 1966.28, 24697.45, -13091.01, -432.15, 11607.13, -46106.73, -21160.60, 32577.89, -2033.54, -182376.75, 0.00, 0.00, 0.00, 0.00, 0.00, 0.00, 0.00
133, 5702.80, 52301.71, 1957.39, 24689.45, -13102.91, -440.02, 11597.31, -46117.75, -21160.60, 32577.89, -2033.54, -182376.75, 0.00, 0.00, 0.00, 0.00, 0.03, 0.31, 0.97
134, 5702.80, 52301.71, 1957.39, 24689.45, -13102.91, -440.02, 11597.31, -46117.75, -21136.84, 32629.75, -2022.34, -184549.08, 0.00, 0.00, 0.00, 0.00, 0.00, 0.00, 0.00
135, 5715.23, 52319.71, 1972.68, 24704.91, -13086.75, -427.10, 11612.74, -46102.75, -21136.84, 32629.75, -2022.34, -184549.08, 0.00, 0.00, 0.00, 0.00, 0.00, 0.00, 0.00
136, 5715.23, 52319.71, 1972.68, 24704.91, -13086.75, -427.10, 11612.74, -46102.75, -21157.33, 32581.67, -2028.67, -183340.33, 0.00, 0.00, 0.00, 0.00, 0.00, 0.00, 0.00
137, 5702.13, 52298.25, 1956.56, 24687.19, -13104.72, -443.24, 11594.68, -46120.32, -21157.33, 32581.67, -2028.67, -183340.33, 0.00, 0.00, 0.00, 0.00, 0.00, 0.00, 0.00
138, 5702.13, 52298.25, 1956.56, 24687.19, -13104.72, -443.24, 11594.68, -46120.32, -21127.34, 32635.80, -2017.36, -183330.83, 0.00, 0.00, 0.00, 0.00, 0.00, 0.00, 0.00
139, 5727.75, 52331.38, 1984.14, 24716.83, -13076.13, -416.82, 11625.34, -46092.02, -21127.34, 32635.80, -2017.36, -183330.83, 0.00, 0.00, 0.00, 0.00, 0.00, 0.00, 0.00
140, 5727.75, 52331.38, 1984.14, 24716.83, -13076.13, -416.82, 11625.34, -46092.02, -21154.47, 32585.18, -2027.68, -184634.30, 0.00, 0.00, 0.00, 0.00, 0.00, 0.00, 0.00
141, 5701.24, 52297.80, 1954.55, 24681.67, -13110.55, -449.85, 11587.26, -46131.14, -21154.47, 32585.18, -2027.68, -184634.30, 0.00, 0.00, 0.00, 0.00, 0.00, 0.00, 0.00
142, 5701.24, 52297.80, 1954.55, 24681.67, -13110.55, -449.85, 11587.26, -46131.14, -21138.16, 32623.98, -2014.56, -182342.78, 0.00, 0.00, 0.00, 0.00, 0.00, 0.00, 0.00
143, 5734.74, 52337.39, 1988.30, 24719.04, -13077.98, -415.38, 11626.84, -46095.35, -21138.16, 32623.98, -2014.56, -182342.78, 0.00, 0.00, 0.00, 0.00, 0.03, 0.31, 0.97
144, 5734.74, 52337.39, 1988.30, 24719.04, -13077.98, -415.38, 11626.84, -46095.35, -21159.28, 32589.04, -2029.02, -186011.28, 0.00, 0.00, 0.00, 0.00, 0.00, 0.00, 0.00
145, 5700.50, 52294.43, 1952.13, 24678.31, -13115.62, -453.58, 11584.48, -46132.55, -21159.28, 32589.04, -2029.02, -186011.28, 0.00, 0.00, 0.00, 0.00, 0.00, 0.00, 0.00
146, 5700.50, 52294.43, 1952.13, 24678.31, -13115.62, -453.58, 11584.48, -46132.55, -21138.94, 32616.47, -2017.87, -181687.78, 0.00, 0.00, 0.00, 0.00, 0.00, 0.00, 0.00
147, 5740.73, 52342.31, 1996.10, 24729.54, -13069.69, -408.28, 11635.85, -46089.47, -21138.94, 32616.47, -2017.87, -181687.78, 0.00, 0.00, 0.00, 0.00, 0.00, 0.00, 0.00
148, 5740.73, 52342.31, 1996.10, 24729.54, -13069.69, -408.28, 11635.85, -46089.47, -21151.39, 32591.10, -2019.35, -187402.97, 0.00, 0.00, 0.00, 0.00, 0.00, 0.00, 0.00
149, 5699.54, 52286.83, 1949.85, 24677.13, -13115.24, -453.25, 11583.88, -46135.95, -21151.39, 32591.10, -2019.35, -187402.97, 0.00, 0.00, 0.00, 0.00, 0.00, 0.00, 0.00
150, 5699.54, 52286.83, 1949.85, 24677.13, -13115.24, -453.25, 11583.88, -46135.95, -21142.31, 32609.12, -2033.41, -180998.23, 0.00, 0.00, 0.00, 0.00, 0.00, 0.00, 0.00
151, 5733.54, 52331.15, 1989.73, 24725.25, -13074.90, -409.33, 11636.14, -46088.42, -21142.31, 32609.12, -2033.41, -180998.23, 0.00, 0.00, 0.00, 0.00, 0.00, 0.00, 0.00
152, 5733.54, 52331.15, 1989.73, 24725.25, -13074.90, -409.33, 11636.14, -46088.42, -21146.43, 32601.63, -2027.55, -187500.02, 0.00, 0.00, 0.00, 0.00, 0.00, 0.00, 0.00
153, 5698.55, 52292.84, 1950.39, 24678.00, -13115.06, -455.42, 11584.04, -46135.45, -21146.43, 32601.63, -2027.55, -187500.02, 0.00, 0.00, 0.00, 0.00, 0.03, 0.31, 0.97
154, 5698.55, 52292.84, 1950.39, 24678.00, -13115.06, -455.42, 11584.04, -46135.45, -21138.20, 32599.82, -2030.52, -179902.61, 0.00, 0.00, 0.00, 0.00, 0.00, 0.00, 0.00
155, 5737.69, 52342.24, 1997.58, 24730.73, -13066.58, -405.75, 11642.73, -46085.36, -21138.20, 32599.82, -2030.52, -179902.61, 0.00, 0.00, 0.00, 0.00, 0.00, 0.00, 0.00
156, 5737.69, 52342.24, 1997.58, 24730.73, -13066.58, -405.75, 11642.73, -46085.36, -21134.63, 32613.43, -2017.07, -187500.02, 0.00, 0.00, 0.00, 0.00, 0.00, 0.00, 0.00
157, 5694.22, 52286.61, 1950.70, 24675.97, -13113.41, -454.77, 11585.85, -46134.27, -21134.63, 32613.43, -2017.07, -187500.02, 0.00, 0.00, 0.00, 0.00, 0.00, 0.00, 0.00
158, 5694.22, 52286.61, 1950.70, 24675.97, -13113.41, -454.77, 11585.85, -46134.27, -21137.82, 32596.98, -2030.97, -179204.66, 0.00, 0.00, 0.00, 0.00, 0.00, 0.00, 0.00
159, 5730.72, 52331.82, 1993.48, 24727.09, -13067.68, -407.61, 11643.25, -46082.95, -21137.82, 32596.98, -2030.97, -179204.66, 0.00, 0.00, 0.00, 0.00, 0.00, 0.00, 0.00
160, 5730.72, 52331.82, 1993.48, 24727.09, -13067.68, -407.61, 11643.25, -46082.95, -21127.58, 32623.22, -2013.80, -187500.02, 0.00, 0.00, 0.00, 0.00, 0.00, 0.00, 0.00
161, 5690.13, 52286.25, 1948.80, 24671.56, -13112.56, -455.08, 11589.47, -46130.29, -21127.58, 32623.22, -2013.80, -187500.02, 0.00, 0.00, 0.00, 0.00, 0.00, 0.00, 0.00
162, 5690.13, 52286.25, 1948.80, 24671.56, -13112.56, -455.08, 11589.47, -46130.29, -21132.79, 32592.40, -2033.47, -179023.16, 0.00, 0.00, 0.00, 0.00, 0.00, 0.00, 0.00
163, 5728.22, 52329.10, 1988.37, 24720.67, -13071.57, -410.53, 11641.77, -46084.16, -21132.79, 32592.40, -2033.47, -179023.16, 0.00, 0.00, 0.00, 0.00, 0.03, 0.31, 0.97
164, 5728.22, 52329.10, 1988.37, 24720.67, -13071.57, -410.53, 11641.77, -46084.16, -21116.72, 32630.48, -2017.67, -187500.02, 0.00, 0.00, 0.00, 0.00, 0.00, 0.00, 0.00
165, 5697.03, 52289.22, 1951.53, 24679.19, -13109.45, -448.53, 11595.57, -46126.13, -21116.72, 32630.48, -2017.67, -187500.02, 0.00, 0.00, 0.00, 0.00, 0.00, 0.00, 0.00
166, 5697.03, 52289.22, 1951.53, 24679.19, -13109.45, -448.53, 11595.57, -46126.13, -21133.06, 32590.68, -2036.47, -179416.03, 0.00, 0.00, 0.00, 0.00, 0.00, 0.00, 0.00
167, 5727.75, 52338.39, 1988.10, 24720.49, -13073.07, -411.07, 11640.45, -46085.27, -21133.06, 32590.68, -2036.47, -179416.03, 0.00, 0.00, 0.00, 0.00, 0.00, 0.00, 0.00
168, 5727.75, 52338.39, 1988.10, 24720.49, -13073.07, -411.07, 11640.45, -46085.27, -21111.24, 32639.94, -2013.33, -187500.02, 0.00, 0.00, 0.00, 0.00, 0.00, 0.00, 0.00
169, 5701.33, 52293.22, 1956.92, 24683.92, -13102.06, -443.84, 11602.59, -46119.49, -21111.24, 32639.94, -2013.33, -187500.02, 0.00, 0.00, 0.00, 0.00, 0.00, 0.00, 0.00
170, 5701.33, 52293.22, 1956.92, 24683.92, -13102.06, -443.84, 11602.59, -46119.49, -21143.19, 32580.33, -2040.85, -180348.64, 0.00, 0.00, 0.00, 0.00, 0.00, 0.00, 0.00
171, 5728.17, 52320.34, 1985.75, 24717.43, -13078.50, -416.48, 11634.80, -46096.27, -21143.19, 32580.33, -2040.85, -180348.64, 0.00, 0.00, 0.00, 0.00, 0.00, 0.00, 0.00
172, 5728.17, 52320.34, 1985.75, 24717.43, -13078.50, -416.48, 11634.80, -46096.27, -21113.50, 32640.83, -2012.98, -187500.02, 0.00, 0.00, 0.00, 0.00, 0.03, 0.31, 0.98
173, 5710.80, 52301.89, 1965.12, 24695.90, -13095.46, -435.75, 11610.84, -46116.86, -21113.50, 32640.83, -2012.98, -187500.02, 0.00, 0.00, 0.00, 0.00, 0.00, 0.00, 0.00
174, 5710.80, 52301.89, 1965.12, 24695.90, -13095.46, -435.75, 11610.84, -46116.86, -21138.22, 32579.14, -2038.28, -181464.11, 0.00, 0.00, 0.00, 0.00, 0.00, 0.00, 0.00
175, 5718.90, 52315.22, 1977.06, 24708.87, -13086.14, -422.81, 11626.28, -46104.09, -21138.22, 32579.14, -2038.28, -181464.11, 0.00, 0.00, 0.00, 0.00, 0.00, 0.00, 0.00
176, 5718.90, 52315.22, 1977.06, 24708.87, -13086.14, -422.81, 11626.28, -46104.09, -21105.77, 32641.23, -2016.66, -186653.89, 0.00, 0.00, 0.00, 0.00, 0.00, 0.00, 0.00
177, 5714.20, 52307.59, 1969.90, 24700.49, -13090.77, -430.49, 11618.86, -46109.64, -21105.77, 32641.23, -2016.66, -186653.89, 0.00, 0.00, 0.00, 0.00, 0.00, 0.00, 0.00
178, 5714.20, 52307.59, 1969.90, 24700.49, -13090.77, -430.49, 11618.86, -46109.64, -21140.48, 32574.94, -2040.89, -181805.22, 0.00, 0.00, 0.00, 0.00, 0.00, 0.00, 0.00
179, 5709.86, 52310.72, 1969.39, 24697.87, -13092.36, -431.37, 11620.16, -46109.12, -21140.48, 32574.94, -2040.89, -181805.22, 0.00, 0.00, 0.00, 0.00, 0.00, 0.00, 0.00
180, 5709.86, 52310.72, 1969.39, 24697.87, -13092.36, -431.37, 11620.16, -46109.12, -21102.17, 32648.16, -2017.76, -185198.69, 0.00, 0.00, 0.00, 0.00, 0.00, 0.00, 0.00
181, 5720.86, 52317.74, 1981.30, 24709.27, -13079.79, -420.50, 11631.89, -46097.43, -21102.17, 32648.16, -2017.76, -185198.69, 0.00, 0.00, 0.00, 0.00, 0.00, 0.00, 0.00
182, 5720.86, 52317.74, 1981.30, 24709.27, -13079.79, -420.50, 11631.89, -46097.43, -21132.39, 32583.16, -2037.72, -182589.06, 0.00, 0.00, 0.00, 0.00, 0.03, 0.31, 0.97
183, 5704.90, 52300.93, 1964.76, 24690.32, -13096.22, -434.81, 11617.18, -46112.36, -21132.39, 32583.16, -2037.72, -182589.06, 0.00, 0.00, 0.00, 0.00, 0.00, 0.00, 0.00
184, 5704.90, 52300.93, 1964.76, 24690.32, -13096.22, -434.81, 11617.18, -46112.36, -21108.38, 32641.35, -2021.34, -183844.56, 0.00, 0.00, 0.00, 0.00, 0.00, 0.00, 0.00
185, 5721.76, 52327.62, 1982.62, 24714.70, -13078.30, -416.19, 11636.52, -46096.98, -21108.38, 32641.35, -2021.34, -183844.56, 0.00, 0.00, 0.00, 0.00, 0.00, 0.00, 0.00
186, 5721.76, 52327.62, 1982.62, 24714.70, -13078.30, -416.19, 11636.52, -46096.98, -21133.44, 32582.54, -2040.47, -183685.89, 0.00, 0.00, 0.00, 0.00, 0.00, 0.00, 0.00
187, 5702.60, 52300.78, 1961.28, 24687.79, -13099.55, -439.14, 11612.25, -46118.04, -21133.44, 32582.54, -2040.47, -183685.89, 0.00, 0.00, 0.00, 0.00, 0.00, 0.00, 0.00
188, 5702.60, 52300.78, 1961.28, 24687.79, -13099.55, -439.14, 11612.25, -46118.04, -21103.02, 32633.48, -2018.90, -182675.39, 0.00, 0.00, 0.00, 0.00, 0.00, 0.00, 0.00
189, 5724.50, 52322.64, 1983.94, 24718.35, -13073.67, -412.77, 11641.66, -46093.21, -21103.02, 32633.48, -2018.90, -182675.39, 0.00, 0.00, 0.00, 0.00, 0.00, 0.00, 0.00
190, 5724.50, 52322.64, 1983.94, 24718.35, -13073.67, -412.77, 11641.66, -46093.21, -21129.15, 32586.90, -2039.78, -185025.98, 0.00, 0.00, 0.00, 0.00, 0.00, 0.00, 0.00
191, 5694.93, 52290.16, 1952.72, 24682.76, -13108.05, -444.35, 11605.16, -46127.05, -21129.15, 32586.90, -2039.78, -185025.98, 0.00, 0.00, 0.00, 0.00, 0.00, 0.00, 0.00
192, 5694.93, 52290.16, 1952.72, 24682.76, -13108.05, -444.35, 11605.16, -46127.05, -21111.06, 32625.57, -2026.95, -181829.28, 0.00, 0.00, 0.00, 0.00, 0.03, 0.31, 0.97
193, 5734.61, 52342.87, 1996.84, 24729.54, -13066.49, -403.11, 11651.88, -46086.32, -21111.06, 32625.57, -2026.95, -181829.28, 0.00, 0.00, 0.00, 0.00, 0.00, 0.00, 0.00
194, 5734.61, 52342.87, 1996.84, 24729.54, -13066.49, -403.11, 11651.88, -46086.32, -21123.85, 32597.80, -2028.31, -186459.08, 0.00, 0.00, 0.00, 0.00, 0.00, 0.00, 0.00
195, 5699.65, 52294.36, 1955.44, 24682.36, -13108.43, -446.07, 11603.68, -46126.89, -21123.85, 32597.80, -2028.31, -186459.08, 0.00, 0.00, 0.00, 0.00, 0.00, 0.00, 0.00
196, 5699.65, 52294.36, 1955.44, 24682.36, -13108.43, -446.07, 11603.68, -46126.89, -21101.92, 32624.20, -2023.12, -181372.64, 0.00, 0.00, 0.00, 0.00, 0.00, 0.00, 0.00
197, 5744.47, 52348.30, 2003.88, 24736.14, -13059.07, -396.97, 11659.27, -46081.96, -21101.92, 32624.20, -2023.12, -181372.64, 0.00, 0.00, 0.00, 0.00, 0.00, 0.00, 0.00
198, 5744.47, 52348.30, 2003.88, 24736.14, -13059.07, -396.97, 11659.27, -46081.96, -21116.34, 32606.23, -2021.51, -187500.02, 0.00, 0.00, 0.00, 0.00, 0.00, 0.00, 0.00
199, 5707.00, 52304.18, 1958.84, 24682.03, -13107.60, -446.14, 11603.55, -46130.11, -21116.34, 32606.23, -2021.51, -187500.02, 0.00, 0.00, 0.00, 0.00, 0.00, 0.00, 0.00
200, 5707.00, 52304.18, 1958.84, 24682.03, -13107.60, -446.14, 11603.55, -46130.11, -21104.65, 32613.23, -2024.26, -180101.14, 0.00, 0.00, 0.00, 0.00, 0.00, 0.00, 0.00
201, 5752.51, 52358.65, 2011.34, 24744.61, -13055.90, -393.21, 11663.81, -46079.68, -21104.65, 32613.23, -2024.26, -180101.14, 0.00, 0.00, 0.00, 0.00, 0.00, 0.00, 0.00
202, 5752.51, 52358.65, 2011.34, 24744.61, -13055.90, -393.21, 11663.81, -46079.68, -21109.57, 32612.45, -2019.10, -187500.02, 0.00, 0.00, 0.00, 0.00, 0.03, 0.31, 0.97
203, 5702.53, 52294.88, 1957.48, 24679.70, -13105.52, -445.83, 11605.61, -46128.21, -21109.57, 32612.45, -2019.10, -187500.02, 0.00, 0.00, 0.00, 0.00, 0.00, 0.00, 0.00
204, 5702.53, 52294.88, 1957.48, 24679.70, -13105.52, -445.83, 11605.61, -46128.21, -21100.52, 32613.63, -2023.66, -179125.20, 0.00, 0.00, 0.00, 0.00, 0.00, 0.00, 0.00
205, 5758.57, 52359.92, 2017.29, 24749.55, -13048.70, -388.14, 11671.23, -46070.32, -21100.52, 32613.63, -2023.66, -179125.20, 0.00, 0.00, 0.00, 0.00, 0.00, 0.00, 0.00
206, 5758.57, 52359.92, 2017.29, 24749.55, -13048.70, -388.14, 11671.23, -46070.32, -21095.35, 32628.45, -2007.54, -187500.02, 0.00, 0.00, 0.00, 0.00, 0.00, 0.00, 0.00
207, 5712.35, 52298.16, 1964.29, 24690.43, -13098.59, -438.09, 11613.81, -46121.93, -21095.35, 32628.45, -2007.54, -187500.02, 0.00, 0.00, 0.00, 0.00, 0.00, 0.00, 0.00
208, 5712.35, 52298.16, 1964.29, 24690.43, -13098.59, -438.09, 11613.81, -46121.93, -21111.27, 32595.46, -2033.03, -178692.38, 0.00, 0.00, 0.00, 0.00, 0.00, 0.00, 0.00
209, 5748.29, 52347.52, 2004.84, 24739.04, -13063.45, -399.90, 11658.09, -46088.02, -21111.27, 32595.46, -2033.03, -178692.38, 0.00, 0.00, 0.00, 0.00, 0.00, 0.00, 0.00
210, 5748.29, 52347.52, 2004.84, 24739.04, -13063.45, -399.90, 11658.09, -46088.02, -21105.37, 32620.67, -2017.20, -187500.02, 0.00, 0.00, 0.00, 0.00, 0.00, 0.00, 0.00
211, 5719.97, 52301.83, 1967.83, 24697.09, -13101.43, -436.82, 11612.67, -46128.75, -21105.37, 32620.67, -2017.20, -187500.02, 0.00, 0.00, 0.00, 0.00, 0.03, 0.32, 0.97
212, 5719.97, 52301.83, 1967.83, 24697.09, -13101.43, -436.82, 11612.67, -46128.75, -21114.28, 32591.35, -2037.18, -178735.86, 0.00, 0.00, 0.00, 0.00, 0.00, 0.00, 0.00
213, 5748.71, 52339.54, 2003.66, 24739.67, -13063.66, -395.94, 11660.55, -46087.53, -21114.28, 32591.35, -2037.18, -178735.86, 0.00, 0.00, 0.00, 0.00, 0.00, 0.00, 0.00
214, 5748.71, 52339.54, 2003.66, 24739.67, -13063.66, -395.94, 11660.55, -46087.53, -21088.00, 32635.33, -2014.63, -187500.02, 0.00, 0.00, 0.00, 0.00, 0.00, 0.00, 0.00
215, 5723.54, 52313.32, 1977.53, 24703.97, -13089.81, -430.20, 11622.24, -46119.98, -21088.00, 32635.33, -2014.63, -187500.02, 0.00, 0.00, 0.00, 0.00, 0.00, 0.00, 0.00
216, 5723.54, 52313.32, 1977.53, 24703.97, -13089.81, -430.20, 11622.24, -46119.98, -21098.01, 32595.73, -1989.89, -179284.72, 0.00, 0.00, 0.00, 0.00, 0.00, 0.00, 0.00
217, 5774.86, 52380.21, 2046.28, 24773.71, -13029.93, -377.16, 11683.19, -46069.09, -21098.01, 32595.73, -1989.89, -179284.72, 0.00, 0.00, 0.00, 0.00, 0.00, 0.00, 0.00
218, 5774.86, 52380.21, 2046.28, 24773.71, -13029.93, -377.16, 11683.19, -46069.09, -21087.66, 32642.26, -2003.25, -187500.02, 0.00, 0.00, 0.00, 0.00, 0.00, 0.00, 0.00
219, 5721.69, 52310.64, 1963.13, 24689.11, -13107.00, -438.63, 11613.03, -46129.08, -21087.66, 32642.26, -2003.25, -187500.02, 0.00, 0.00, 0.00, 0.00, 0.00, 0.00, 0.00
220, 5721.69, 52310.64, 1963.13, 24689.11, -13107.00, -438.63, 11613.03, -46129.08, -21118.04, 32580.88, -2041.23, -180485.50, 0.00, 0.00, 0.00, 0.00, 0.00, 0.00, 0.00
221, 5754.52, 52343.96, 2005.62, 24736.34, -13069.49, -403.25, 11652.10, -46095.33, -21118.04, 32580.88, -2041.23, -180485.50, 0.00, 0.00, 0.00, 0.00, 0.03, 0.31, 0.97
222, 5754.52, 52343.96, 2005.62, 24736.34, -13069.49, -403.25, 11652.10, -46095.33, -21083.82, 32648.19, -2006.38, -187316.39, 0.00, 0.00, 0.00, 0.00, 0.00, 0.00, 0.00
223, 5742.27, 52327.53, 1987.00, 24718.19, -13089.63, -420.84, 11627.60, -46119.25, -21083.82, 32648.19, -2006.38, -187316.39, 0.00, 0.00, 0.00, 0.00, 0.00, 0.00, 0.00
224, 5742.27, 52327.53, 1987.00, 24718.19, -13089.63, -420.84, 11627.60, -46119.25, -21123.43, 32573.67, -2027.21, -181380.28, 0.00, 0.00, 0.00, 0.00, 0.00, 0.00, 0.00
225, 5755.66, 52348.48, 2007.79, 24738.91, -13075.75, -409.69, 11641.57, -46112.12, -21123.43, 32573.67, -2027.21, -181380.28, 0.00, 0.00, 0.00, 0.00, 0.00, 0.00, 0.00
226, 5755.66, 52348.48, 2007.79, 24738.91, -13075.75, -409.69, 11641.57, -46112.12, -21087.33, 32636.76, -1993.84, -185883.34, 0.00, 0.00, 0.00, 0.00, 0.00, 0.00, 0.00
227, 5754.72, 52342.62, 2005.55, 24730.06, -13075.50, -411.59, 11640.86, -46109.34, -21087.33, 32636.76, -1993.84, -185883.34, 0.00, 0.00, 0.00, 0.00, 0.00, 0.00, 0.00
228, 5754.72, 52342.62, 2005.55, 24730.06, -13075.50, -411.59, 11640.86, -46109.34, -21114.98, 32582.45, -2024.89, -181923.14, 0.00, 0.00, 0.00, 0.00, 0.00, 0.00, 0.00
229, 5743.97, 52333.68, 1995.56, 24720.60, -13086.70, -419.97, 11632.25, -46114.69, -21114.98, 32582.45, -2024.89, -181923.14, 0.00, 0.00, 0.00, 0.00, 0.00, 0.00, 0.00
230, 5743.97, 52333.68, 1995.56, 24720.60, -13086.70, -419.97, 11632.25, -46114.69, -21080.33, 32640.88, -1994.98, -184464.11, 0.00, 0.00, 0.00, 0.00, 0.00, 0.00, 0.00
231, 5757.97, 52345.41, 2007.45, 24734.57, -13072.53, -408.05, 11645.12, -46104.99, -21080.33, 32640.88, -1994.98, -184464.11, 0.00, 0.00, 0.00, 0.00, 0.03, 0.31, 0.96
232, 5757.97, 52345.41, 2007.45, 24734.57, -13072.53, -408.05, 11645.12, -46104.99, -21107.38, 32581.15, -2013.91, -182875.59, 0.00, 0.00, 0.00, 0.00, 0.00, 0.00, 0.00
233, 5747.15, 52337.28, 1994.98, 24719.62, -13088.17, -423.10, 11628.34, -46120.77, -21107.38, 32581.15, -2013.91, -182875.59, 0.00, 0.00, 0.00, 0.00, 0.00, 0.00, 0.00
234, 5747.15, 52337.28, 1994.98, 24719.62, -13088.17, -423.10, 11628.34, -46120.77, -21077.87, 32641.97, -1994.42, -183196.13, 0.00, 0.00, 0.00, 0.00, 0.00, 0.00, 0.00
235, 5773.66, 52366.49, 2019.99, 24750.71, -13064.35, -398.69, 11654.80, -46099.31, -21077.87, 32641.97, -1994.42, -183196.13, 0.00, 0.00, 0.00, 0.00, 0.00, 0.00, 0.00
236, 5773.66, 52366.49, 2019.99, 24750.71, -13064.35, -398.69, 11654.80, -46099.31, -21104.25, 32585.91, -2001.78, -184145.09, 0.00, 0.00, 0.00, 0.00, 0.00, 0.00, 0.00
237, 5751.46, 52338.38, 1993.17, 24715.91, -13095.15, -428.77, 11619.42, -46132.79, -21104.25, 32585.91, -2001.78, -184145.09, 0.00, 0.00, 0.00, 0.00, 0.00, 0.00, 0.00
238, 5751.46, 52338.38, 1993.17, 24715.91, -13095.15, -428.77, 11619.42, -46132.79, -21084.20, 32627.73, -1992.46, -182178.16, 0.00, 0.00, 0.00, 0.00, 0.00, 0.00, 0.00
239, 5788.27, 52377.89, 2032.24, 24756.43, -13060.48, -394.24, 11659.16, -46097.27, -21084.20, 32627.73, -1992.46, -182178.16, 0.00, 0.00, 0.00, 0.00, 0.00, 0.00, 0.00
240, 5788.27, 52377.89, 2032.24, 24756.43, -13060.48, -394.24, 11659.16, -46097.27, -21102.37, 32589.02, -1998.38, -185551.50, 0.00, 0.00, 0.00, 0.00, 0.00, 0.00, 0.00
241, 5751.91, 52337.19, 1994.78, 24711.33, -13098.12, -433.60, 11617.05, -46133.44, -21102.37, 32589.02, -1998.38, -185551.50, 0.00, 0.00, 0.00, 0.00, 0.03, 0.31, 0.96
242, 5751.91, 52337.19, 1994.78, 24711.33, -13098.12, -433.60, 11617.05, -46133.44, -21076.73, 32625.68, -1986.73, -181501.48, 0.00, 0.00, 0.00, 0.00, 0.00, 0.00, 0.00
243, 5793.28, 52390.57, 2041.85, 24762.47, -13052.05, -387.76, 11668.82, -46087.95, -21076.73, 32625.68, -1986.73, -181501.48, 0.00, 0.00, 0.00, 0.00, 0.00, 0.00, 0.00
244, 5793.28, 52390.57, 2041.85, 24762.47, -13052.05, -387.76, 11668.82, -46087.95, -21086.28, 32606.01, -1987.99, -187060.14, 0.00, 0.00, 0.00, 0.00, 0.00, 0.00, 0.00
245, 5753.32, 52344.14, 2002.81, 24715.87, -13090.72, -430.11, 11621.81, -46127.72, -21086.28, 32606.01, -1987.99, -187060.14, 0.00, 0.00, 0.00, 0.00, 0.00, 0.00, 0.00
246, 5753.32, 52344.14, 2002.81, 24715.87, -13090.72, -430.11, 11621.81, -46127.72, -21081.45, 32618.64, -1982.87, -180793.20, 0.00, 0.00, 0.00, 0.00, 0.00, 0.00, 0.00
247, 5793.42, 52391.26, 2046.12, 24768.91, -13045.68, -382.39, 11675.95, -46084.80, -21081.45, 32618.64, -1982.87, -180793.20, 0.00, 0.00, 0.00, 0.00, 0.00, 0.00, 0.00
248, 5793.42, 52391.26, 2046.12, 24768.91, -13045.68, -382.39, 11675.95, -46084.80, -21088.13, 32603.19, -1976.36, -187500.02, 0.00, 0.00, 0.00, 0.00, 0.00, 0.00, 0.00
249, 5752.22, 52344.07, 2000.15, 24716.18, -13094.14, -428.80, 11620.31, -46134.51, -21088.13, 32603.19, -1976.36, -187500.02, 0.00, 0.00, 0.00, 0.00, 0.00, 0.00, 0.00
250, 5752.22, 52344.07, 2000.15, 24716.18, -13094.14, -428.80, 11620.31, -46134.51, -21075.84, 32612.18, -1987.36, -179610.78, 0.00, 0.00, 0.00, 0.00, 0.03, 0.31, 0.96
251, 5794.49, 52394.50, 2046.91, 24770.96, -13044.59, -380.25, 11678.23, -46082.75, -21075.84, 32612.18, -1987.36, -179610.78, 0.00, 0.00, 0.00, 0.00, 0.00, 0.00, 0.00
252, 5794.49, 52394.50, 2046.91, 24770.96, -13044.59, -380.25, 11678.23, -46082.75, -21073.20, 32621.21, -1976.23, -187500.02, 0.00, 0.00, 0.00, 0.00, 0.00, 0.00, 0.00
253, 5757.61, 52339.98, 2001.71, 24721.81, -13090.81, -426.99, 11623.11, -46128.81, -21073.20, 32621.21, -1976.23, -187500.02, 0.00, 0.00, 0.00, 0.00, 0.00, 0.00, 0.00
254, 5757.61, 52339.98, 2001.71, 24721.81, -13090.81, -426.99, 11623.11, -46128.81, -21077.61, 32602.79, -1990.60, -178908.11, 0.00, 0.00, 0.00, 0.00, 0.00, 0.00, 0.00
255, 5794.73, 52387.12, 2042.46, 24772.33, -13050.13, -379.62, 11676.35, -46086.39, -21077.61, 32602.79, -1990.60, -178908.11, 0.00, 0.00, 0.00, 0.00, 0.00, 0.00, 0.00
0, 5794.73, 52387.12, 2042.46, 24772.33, -13050.13, -379.62, 11676.35, -46086.39, -21075.26, 32621.36, -1979.87, -187500.02, 0.00, 0.00, 0.00, 0.00, 0.00, 0.00, 0.00
1, 5763.84, 52348.41, 2004.46, 24723.11, -13089.94, -423.23, 11627.91, -46127.20, -21075.26, 32621.36, -1979.87, -187500.02, 0.00, 0.00, 0.00, 0.00, 0.00, 0.00, 0.00
2, 5763.84, 52348.41, 2004.46, 24723.11, -13089.94, -423.23, 11627.91, -46127.20, -21081.49, 32598.70, -1992.17, -178781.34, 0.00, 0.00, 0.00, 0.00, 0.00, 0.00, 0.00
3, 5800.48, 52395.57, 2047.13, 24772.30, -13047.76, -380.05, 11679.30, -46082.46, -21081.49, 32598.70, -1992.17, -178781.34, 0.00, 0.00, 0.00, 0.00, 0.00, 0.00, 0.00
4, 5800.48, 52395.57, 2047.13, 24772.30, -13047.76, -380.05, 11679.30, -46082.46, -21063.61, 32632.63, -1976.23, -187500.02, 0.00, 0.00, 0.00, 0.00, 0.03, 0.31, 0.97
5, 5767.33, 52351.92, 2008.73, 24725.21, -13082.70, -421.40, 11633.01, -46120.97, -21063.61, 32632.63, -1976.23, -187500.02, 0.00, 0.00, 0.00, 0.00, 0.00, 0.00, 0.00
6, 5767.33, 52351.92, 2008.73, 24725.21, -13082.70, -421.40, 11633.01, -46120.97, -21082.48, 32590.68, -2000.30, -179179.83, 0.00, 0.00, 0.00, 0.00, 0.00, 0.00, 0.00
7, 5796.43, 52383.82, 2041.94, 24768.73, -13050.40, -382.66, 11676.24, -46087.26, -21082.48, 32590.68, -2000.30, -179179.83, 0.00, 0.00, 0.00, 0.00, 0.00, 0.00, 0.00
8, 5796.43, 52383.82, 2041.94, 24768.73, -13050.40, -382.66, 11676.24, -46087.26, -21068.42, 32636.34, -1981.66, -187500.02, 0.00, 0.00, 0.00, 0.00, 0.00, 0.00, 0.00
9, 5765.90, 52343.49, 2006.00, 24731.20, -13085.22, -417.75, 11634.71, -46121.01, -21068.42, 32636.34, -1981.66, -187500.02, 0.00, 0.00, 0.00, 0.00, 0.00, 0.00, 0.00
10, 5765.90, 52343.49, 2006.00, 24731.20, -13085.22, -417.75, 11634.71, -46121.01, -21086.28, 32585.13, -2008.82, -180070.34, 0.00, 0.00, 0.00, 0.00, 0.00, 0.00, 0.00
11, 5787.85, 52372.62, 2031.37, 24759.05, -13062.58, -392.52, 11665.51, -46096.09, -21086.28, 32585.13, -2008.82, -180070.34, 0.00, 0.00, 0.00, 0.00, 0.00, 0.00, 0.00
12, 5787.85, 52372.62, 2031.37, 24759.05, -13062.58, -392.52, 11665.51, -46096.09, -21062.79, 32638.02, -1984.43, -187500.02, 0.00, 0.00, 0.00, 0.00, 0.00, 0.00, 0.00
13, 5769.23, 52353.91, 2010.45, 24731.94, -13080.75, -415.12, 11640.16, -46117.39, -21062.79, 32638.02, -1984.43, -187500.02, 0.00, 0.00, 0.00, 0.00, 0.00, 0.00, 0.00
14, 5769.23, 52353.91, 2010.45, 24731.94, -13080.75, -415.12, 11640.16, -46117.39, -21081.65, 32584.06, -2003.01, -181398.77, 0.00, 0.00, 0.00, 0.00, 0.03, 0.31, 0.96
15, 5779.71, 52372.68, 2027.77, 24752.59, -13066.78, -397.24, 11660.97, -46101.34, -21081.65, 32584.06, -2003.01, -181398.77, 0.00, 0.00, 0.00, 0.00, 0.00, 0.00, 0.00
16, 5779.71, 52372.68, 2027.77, 24752.59, -13066.78, -397.24, 11660.97, -46101.34, -21059.34, 32638.57, -1980.86, -186839.66, 0.00, 0.00, 0.00, 0.00, 0.00, 0.00, 0.00
17, 5776.29, 52358.78, 2020.24, 24742.29, -13072.22, -404.99, 11650.87, -46110.95, -21059.34, 32638.57, -1980.86, -186839.66, 0.00, 0.00, 0.00, 0.00, 0.00, 0.00, 0.00
18, 5776.29, 52358.78, 2020.24, 24742.29, -13072.22, -404.99, 11650.87, -46110.95, -21082.81, 32579.88, -2001.89, -181772.38, 0.00, 0.00, 0.00, 0.00, 0.00, 0.00, 0.00
19, 5779.87, 52365.38, 2022.48, 24743.27, -13072.98, -404.28, 11653.64, -46108.56, -21082.81, 32579.88, -2001.89, -181772.38, 0.00, 0.00, 0.00, 0.00, 0.00, 0.00, 0.00
20, 5779.87, 52365.38, 2022.48, 24743.27, -13072.98, -404.28, 11653.64, -46108.56, -21056.33, 32644.12, -1980.72, -185456.55, 0.00, 0.00, 0.00, 0.00, 0.00, 0.00, 0.00
21, 5785.73, 52371.88, 2029.38, 24750.78, -13067.95, -397.88, 11658.98, -46103.49, -21056.33, 32644.12, -1980.72, -185456.55, 0.00, 0.00, 0.00, 0.00, 0.00, 0.00, 0.00
22, 5785.73, 52371.88, 2029.38, 24750.78, -13067.95, -397.88, 11658.98, -46103.49, -21090.05, 32583.32, -2002.34, -182530.86, 0.00, 0.00, 0.00, 0.00, 0.00, 0.00, 0.00
23, 5773.81, 52364.14, 2018.70, 24739.54, -13075.41, -405.48, 11650.96, -46110.17, -21090.05, 32583.32, -2002.34, -182530.86, 0.00, 0.00, 0.00, 0.00, 0.00, 0.00, 0.00
24, 5773.81, 52364.14, 2018.70, 24739.54, -13075.41, -405.48, 11650.96, -46110.17, -21052.64, 32645.50, -1981.12, -184155.97, 0.00, 0.00, 0.00, 0.00, 0.03, 0.31, 0.96
25, 5788.59, 52377.69, 2034.46, 24756.68, -13057.73, -390.35, 11668.75, -46093.52, -21052.64, 32645.50, -1981.12, -184155.97, 0.00, 0.00, 0.00, 0.00, 0.00, 0.00, 0.00
26, 5788.59, 52377.69, 2034.46, 24756.68, -13057.73, -390.35, 11668.75, -46093.52, -21075.55, 32593.31, -1996.59, -183661.59, 0.00, 0.00, 0.00, 0.00, 0.00, 0.00, 0.00
27, 5772.11, 52356.30, 2017.20, 24735.18, -13080.35, -410.53, 11645.39, -46115.16, -21075.55, 32593.31, -1996.59, -183661.59, 0.00, 0.00, 0.00, 0.00, 0.00, 0.00, 0.00
28, 5772.11, 52356.30, 2017.20, 24735.18, -13080.35, -410.53, 11645.39, -46115.16, -21044.26, 32646.24, -1975.83, -183008.33, 0.00, 0.00, 0.00, 0.00, 0.00, 0.00, 0.00
29, 5802.07, 52393.96, 2048.69, 24767.72, -13047.72, -381.23, 11678.54, -46086.25, -21044.26, 32646.24, -1975.83, -183008.33, 0.00, 0.00, 0.00, 0.00, 0.00, 0.00, 0.00
30, 5802.07, 52393.96, 2048.69, 24767.72, -13047.72, -381.23, 11678.54, -46086.25, -21073.11, 32596.17, -1983.07, -185041.61, 0.00, 0.00, 0.00, 0.00, 0.00, 0.00, 0.00
31, 5765.65, 52349.26, 2010.94, 24727.24, -13085.00, -416.01, 11640.81, -46120.41, -21073.11, 32596.17, -1983.07, -185041.61, 0.00, 0.00, 0.00, 0.00, 0.00, 0.00, 0.00
32, 5765.65, 52349.26, 2010.94, 24727.24, -13085.00, -416.01, 11640.81, -46120.41, -21048.32, 32636.47, -1983.38, -182160.70, 0.00, 0.00, 0.00, 0.00, 0.00, 0.00, 0.00
33, 5797.93, 52390.07, 2044.65, 24769.22, -13049.84, -379.64, 11680.95, -46086.19, -21048.32, 32636.47, -1983.38, -182160.70, 0.00, 0.00, 0.00, 0.00, 0.03, 0.31, 0.96
34, 5797.93, 52390.07, 2044.65, 24769.22, -13049.84, -379.64, 11680.95, -46086.19, -21072.96, 32594.83, -1990.83, -186489.34, 0.00, 0.00, 0.00, 0.00, 0.00, 0.00, 0.00
35, 5765.10, 52352.97, 2009.91, 24723.04, -13087.21, -421.76, 11634.75, -46126.20, -21072.96, 32594.83, -1990.83, -186489.34, 0.00, 0.00, 0.00, 0.00, 0.00, 0.00, 0.00
36, 5765.10, 52352.97, 2009.91, 24723.04, -13087.21, -421.76, 11634.75, -46126.20, -21047.34, 32626.33, -1988.61, -181662.52, 0.00, 0.00, 0.00, 0.00, 0.00, 0.00, 0.00
37, 5800.08, 52390.45, 2046.17, 24770.20, -13049.08, -378.80, 11682.18, -46086.12, -21047.34, 32626.33, -1988.61, -181662.52, 0.00, 0.00, 0.00, 0.00, 0.00, 0.00, 0.00
38, 5800.08, 52390.45, 2046.17, 24770.20, -13049.08, -378.80, 11682.18, -46086.12, -21065.18, 32605.16, -1989.86, -187500.02, 0.00, 0.00, 0.00, 0.00, 0.00, 0.00, 0.00
39, 5755.62, 52335.85, 1996.77, 24712.18, -13098.30, -427.81, 11627.47, -46133.30, -21065.18, 32605.16, -1989.86, -187500.02, 0.00, 0.00, 0.00, 0.00, 0.00, 0.00, 0.00
40, 5755.62, 52335.85, 1996.77, 24712.18, -13098.30, -427.81, 11627.47, -46133.30, -21056.28, 32612.67, -1999.52, -180838.95, 0.00, 0.00, 0.00, 0.00, 0.00, 0.00, 0.00
41, 5794.98, 52389.89, 2041.18, 24765.22, -13052.61, -380.87, 11680.37, -46087.42, -21056.28, 32612.67, -1999.52, -180838.95, 0.00, 0.00, 0.00, 0.00, 0.00, 0.00, 0.00
42, 5794.98, 52389.89, 2041.18, 24765.22, -13052.61, -380.87, 11680.37, -46087.42, -21059.48, 32614.32, -1990.40, -187500.02, 0.00, 0.00, 0.00, 0.00, 0.00, 0.00, 0.00
43, 5754.41, 52343.27, 1995.63, 24710.28, -13098.73, -426.96, 11626.35, -46132.57, -21059.48, 32614.32, -1990.40, -187500.02, 0.00, 0.00, 0.00, 0.00, 0.03, 0.31, 0.96
44, 5754.41, 52343.27, 1995.63, 24710.28, -13098.73, -426.96, 11626.35, -46132.57, -21053.82, 32606.46, -1997.35, -179944.52, 0.00, 0.00, 0.00, 0.00, 0.00, 0.00, 0.00
45, 5799.99, 52396.11, 2045.86, 24768.77, -13048.28, -377.12, 11685.16, -46083.21, -21053.82, 32606.46, -1997.35, -179944.52, 0.00, 0.00, 0.00, 0.00, 0.00, 0.00, 0.00
46, 5799.99, 52396.11, 2045.86, 24768.77, -13048.28, -377.12, 11685.16, -46083.21, -21049.71, 32618.86, -1990.42, -187500.02, 0.00, 0.00, 0.00, 0.00, 0.00, 0.00, 0.00
47, 5759.42, 52335.33, 1998.74, 24717.41, -13095.55, -424.28, 11630.44, -46131.88, -21049.71, 32618.86, -1990.42, -187500.02, 0.00, 0.00, 0.00, 0.00, 0.00, 0.00, 0.00
48, 5759.42, 52335.33, 1998.74, 24717.41, -13095.55, -424.28, 11630.44, -46131.88, -21051.32, 32605.92, -1998.63, -179456.05, 0.00, 0.00, 0.00, 0.00, 0.00, 0.00, 0.00
49, 5797.26, 52388.17, 2045.68, 24770.56, -13047.05, -376.40, 11687.32, -46081.94, -21051.32, 32605.92, -1998.63, -179456.05, 0.00, 0.00, 0.00, 0.00, 0.00, 0.00, 0.00
50, 5797.26, 52388.17, 2045.68, 24770.56, -13047.05, -376.40, 11687.32, -46081.94, -21042.80, 32631.20, -1986.78, -187500.02, 0.00, 0.00, 0.00, 0.00, 0.00, 0.00, 0.00
51, 5763.78, 52347.38, 2005.80, 24722.35, -13091.42, -419.92, 11635.69, -46129.44, -21042.80, 32631.20, -1986.78, -187500.02, 0.00, 0.00, 0.00, 0.00, 0.00, 0.00, 0.00
52, 5763.78, 52347.38, 2005.80, 24722.35, -13091.42, -419.92, 11635.69, -46129.44, -21051.68, 32600.00, -2001.69, -179400.53, 0.00, 0.00, 0.00, 0.00, 0.00, 0.00, 0.00
53, 5805.17, 52395.26, 2051.02, 24774.16, -13046.15, -375.49, 11688.51, -46081.59, -21051.68, 32600.00, -2001.69, -179400.53, 0.00, 0.00, 0.00, 0.00, 0.03, 0.32, 0.96
54, 5805.17, 52395.26, 2051.02, 24774.16, -13046.15, -375.49, 11688.51, -46081.59, -21037.28, 32636.94, -1976.63, -187500.02, 0.00, 0.00, 0.00, 0.00, 0.00, 0.00, 0.00
55, 5768.69, 52350.20, 2009.47, 24723.55, -13085.72, -418.89, 11639.31, -46126.38, -21037.28, 32636.94, -1976.63, -187500.02, 0.00, 0.00, 0.00, 0.00, 0.00, 0.00, 0.00
56, 5768.69, 52350.20, 2009.47, 24723.55, -13085.72, -418.89, 11639.31, -46126.38, -21056.88, 32589.13, -2002.25, -179817.61, 0.00, 0.00, 0.00, 0.00, 0.00, 0.00, 0.00
57, 5793.91, 52389.29, 2041.54, 24763.32, -13054.56, -384.00, 11680.15, -46091.80, -21056.88, 32589.13, -2002.25, -179817.61, 0.00, 0.00, 0.00, 0.00, 0.00, 0.00, 0.00
58, 5793.91, 52389.29, 2041.54, 24763.32, -13054.56, -384.00, 11680.15, -46091.80, -21036.23, 32641.77, -1984.37, -187500.02, 0.00, 0.00, 0.00, 0.00, 0.00, 0.00, 0.00
59, 5768.81, 52360.10, 2014.99, 24731.58, -13078.88, -410.53, 11647.81, -46116.32, -21036.23, 32641.77, -1984.37, -187500.02, 0.00, 0.00, 0.00, 0.00, 0.00, 0.00, 0.00
60, 5768.81, 52360.10, 2014.99, 24731.58, -13078.88, -410.53, 11647.81, -46116.32, -21057.58, 32588.71, -2010.70, -180930.14, 0.00, 0.00, 0.00, 0.00, 0.00, 0.00, 0.00
61, 5780.05, 52375.93, 2030.95, 24752.57, -13062.90, -392.43, 11669.17, -46099.84, -21057.58, 32588.71, -2010.70, -180930.14, 0.00, 0.00, 0.00, 0.00, 0.00, 0.00, 0.00
62, 5780.05, 52375.93, 2030.95, 24752.57, -13062.90, -392.43, 11669.17, -46099.84, -21035.03, 32642.91, -1990.60, -187500.02, 0.00, 0.00, 0.00, 0.00, 0.00, 0.00, 0.00
63, 5767.22, 52354.29, 2013.31, 24736.56, -13077.31, -405.28, 11652.66, -46113.35, -21035.03, 32642.91, -1990.60, -187500.02, 0.00, 0.00, 0.00, 0.00, 0.04, 0.31, 0.97
64, 5767.22, 52354.29, 2013.31, 24736.56, -13077.31, -405.28, 11652.66, -46113.35, -21057.06, 32590.00, -2009.67, -181695.27, 0.00, 0.00, 0.00, 0.00, 0.00, 0.00, 0.00
65, 5769.90, 52359.90, 2020.55, 24743.40, -13070.50, -397.77, 11662.54, -46105.68, -21057.06, 32590.00, -2009.67, -181695.27, 0.00, 0.00, 0.00, 0.00, 0.00, 0.00, 0.00
66, 5769.90, 52359.90, 2020.55, 24743.40, -13070.50, -397.77, 11662.54, -46105.68, -21025.39, 32644.81, -1990.49, -186464.13, 0.00, 0.00, 0.00, 0.00, 0.00, 0.00, 0.00
67, 5771.80, 52355.85, 2017.60, 24740.72, -13074.58, -400.21, 11655.76, -46112.27, -21025.39, 32644.81, -1990.49, -186464.13, 0.00, 0.00, 0.00, 0.00, 0.00, 0.00, 0.00
68, 5771.80, 52355.85, 2017.60, 24740.72, -13074.58, -400.21, 11655.76, -46112.27, -21064.35, 32582.14, -2013.40, -182211.61, 0.00, 0.00, 0.00, 0.00, 0.00, 0.00, 0.00
69, 5768.72, 52357.04, 2014.56, 24735.74, -13081.80, -406.82, 11650.00, -46118.82, -21064.35, 32582.14, -2013.40, -182211.61, 0.00, 0.00, 0.00, 0.00, 0.00, 0.00, 0.00
70, 5768.72, 52357.04, 2014.56, 24735.74, -13081.80, -406.82, 11650.00, -46118.82, -21034.69, 32637.88, -1999.61, -185036.63, 0.00, 0.00, 0.00, 0.00, 0.00, 0.00, 0.00
71, 5781.37, 52376.48, 2025.60, 24751.27, -13069.49, -394.24, 11662.04, -46110.02, -21034.69, 32637.88, -1999.61, -185036.63, 0.00, 0.00, 0.00, 0.00, 0.00, 0.00, 0.00
72, 5781.37, 52376.48, 2025.60, 24751.27, -13069.49, -394.24, 11662.04, -46110.02, -21055.70, 32586.56, -2014.07, -183092.25, 0.00, 0.00, 0.00, 0.00, 0.03, 0.31, 0.97
73, 5766.53, 52346.78, 2006.94, 24729.23, -13086.75, -411.85, 11644.70, -46122.49, -21055.70, 32586.56, -2014.07, -183092.25, 0.00, 0.00, 0.00, 0.00, 0.00, 0.00, 0.00
74, 5766.53, 52346.78, 2006.94, 24729.23, -13086.75, -411.85, 11644.70, -46122.49, -21026.15, 32639.63, -2003.03, -183714.81, 0.00, 0.00, 0.00, 0.00, 0.00, 0.00, 0.00
75, 5784.65, 52364.50, 2024.00, 24753.39, -13067.43, -390.75, 11666.07, -46105.55, -21026.15, 32639.63, -2003.03, -183714.81, 0.00, 0.00, 0.00, 0.00, 0.00, 0.00, 0.00
76, 5784.65, 52364.50, 2024.00, 24753.39, -13067.43, -390.75, 11666.07, -46105.55, -21056.15, 32587.61, -2014.74, -184296.77, 0.00, 0.00, 0.00, 0.00, 0.00, 0.00, 0.00
77, 5764.76, 52348.57, 2006.27, 24727.71, -13085.96, -413.33, 11641.46, -46124.32, -21056.15, 32587.61, -2014.74, -184296.77, 0.00, 0.00, 0.00, 0.00, 0.00, 0.00, 0.00
78, 5764.76, 52348.57, 2006.27, 24727.71, -13085.96, -413.33, 11641.46, -46124.32, -21021.10, 32639.63, -1995.63, -182697.16, 0.00, 0.00, 0.00, 0.00, 0.00, 0.00, 0.00
79, 5797.98, 52394.34, 2040.76, 24765.06, -13053.33, -381.66, 11675.66, -46094.66, -21021.10, 32639.63, -1995.63, -182697.16, 0.00, 0.00, 0.00, 0.00, 0.00, 0.00, 0.00
80, 5797.98, 52394.34, 2040.76, 24765.06, -13053.33, -381.66, 11675.66, -46094.66, -21049.11, 32593.98, -2002.25, -185748.63, 0.00, 0.00, 0.00, 0.00, 0.00, 0.00, 0.00
81, 5764.87, 52352.54, 2005.06, 24722.24, -13087.21, -418.27, 11635.33, -46129.66, -21049.11, 32593.98, -2002.25, -185748.63, 0.00, 0.00, 0.00, 0.00, 0.00, 0.00, 0.00
82, 5764.87, 52352.54, 2005.06, 24722.24, -13087.21, -418.27, 11635.33, -46129.66, -21017.99, 32632.14, -1997.91, -182000.38, 0.00, 0.00, 0.00, 0.00, 0.03, 0.31, 0.97
83, 5801.64, 52393.65, 2046.79, 24775.46, -13042.73, -373.05, 11686.09, -46084.36, -21017.99, 32632.14, -1997.91, -182000.38, 0.00, 0.00, 0.00, 0.00, 0.00, 0.00, 0.00
84, 5801.64, 52393.65, 2046.79, 24775.46, -13042.73, -373.05, 11686.09, -46084.36, -21031.36, 32612.42, -1993.75, -187188.45, 0.00, 0.00, 0.00, 0.00, 0.00, 0.00, 0.00
85, 5765.72, 52358.16, 2009.06, 24724.27, -13081.16, -415.41, 11640.79, -46121.08, -21031.36, 32612.42, -1993.75, -187188.45, 0.00, 0.00, 0.00, 0.00, 0.00, 0.00, 0.00
86, 5765.72, 52358.16, 2009.06, 24724.27, -13081.16, -415.41, 11640.79, -46121.08, -21012.38, 32634.13, -1994.09, -181666.84, 0.00, 0.00, 0.00, 0.00, 0.00, 0.00, 0.00
87, 5800.43, 52400.15, 2050.21, 24775.34, -13041.15, -370.50, 11689.56, -46080.33, -21012.38, 32634.13, -1994.09, -181666.84, 0.00, 0.00, 0.00, 0.00, 0.00, 0.00, 0.00
88, 5800.43, 52400.15, 2050.21, 24775.34, -13041.15, -370.50, 11689.56, -46080.33, -21032.28, 32613.99, -1997.44, -187500.02, 0.00, 0.00, 0.00, 0.00, 0.00, 0.00, 0.00
89, 5758.68, 52345.30, 2000.41, 24721.19, -13087.10, -419.61, 11633.05, -46129.64, -21032.28, 32613.99, -1997.44, -187500.02, 0.00, 0.00, 0.00, 0.00, 0.00, 0.00, 0.00
90, 5758.68, 52345.30, 2000.41, 24721.19, -13087.10, -419.61, 11633.05, -46129.64, -21022.64, 32619.91, -2005.53, -180514.73, 0.00, 0.00, 0.00, 0.00, 0.00, 0.00, 0.00
91, 5798.74, 52395.10, 2045.25, 24773.13, -13044.72, -372.00, 11687.17, -46082.01, -21022.64, 32619.91, -2005.53, -180514.73, 0.00, 0.00, 0.00, 0.00, 0.00, 0.00, 0.00
92, 5798.74, 52395.10, 2045.25, 24773.13, -13044.72, -372.00, 11687.17, -46082.01, -21022.04, 32625.88, -1998.80, -187500.02, 0.00, 0.00, 0.00, 0.00, 0.03, 0.31, 0.96
93, 5757.54, 52340.18, 1996.48, 24717.70, -13092.36, -421.82, 11629.57, -46130.29, -21022.04, 32625.88, -1998.80, -187500.02, 0.00, 0.00, 0.00, 0.00, 0.00, 0.00, 0.00
94, 5757.54, 52340.18, 1996.48, 24717.70, -13092.36, -421.82, 11629.57, -46130.29, -21022.46, 32616.54, -2011.75, -179800.16, 0.00, 0.00, 0.00, 0.00, 0.00, 0.00, 0.00
95, 5798.65, 52387.93, 2043.31, 24778.36, -13044.28, -372.13, 11685.31, -46083.46, -21022.46, 32616.54, -2011.75, -179800.16, 0.00, 0.00, 0.00, 0.00, 0.00, 0.00, 0.00
96, 5798.65, 52387.93, 2043.31, 24778.36, -13044.28, -372.13, 11685.31, -46083.46, -21014.77, 32635.65, -1996.88, -187500.02, 0.00, 0.00, 0.00, 0.00, 0.00, 0.00, 0.00
97, 5763.33, 52348.30, 2001.51, 24725.34, -13083.57, -413.33, 11636.25, -46124.23, -21014.77, 32635.65, -1996.88, -187500.02, 0.00, 0.00, 0.00, 0.00, 0.00, 0.00, 0.00
98, 5763.33, 52348.30, 2001.51, 24725.34, -13083.57, -413.33, 11636.25, -46124.23, -21017.08, 32614.70, -2012.35, -179571.19, 0.00, 0.00, 0.00, 0.00, 0.00, 0.00, 0.00
99, 5797.01, 52391.14, 2043.69, 24778.05, -13043.40, -370.52, 11687.28, -46082.37, -21017.08, 32614.70, -2012.35, -179571.19, 0.00, 0.00, 0.00, 0.00, 0.00, 0.00, 0.00
100, 5797.01, 52391.14, 2043.69, 24778.05, -13043.40, -370.52, 11687.28, -46082.37, -21016.67, 32637.70, -2000.24, -187500.02, 0.00, 0.00, 0.00, 0.00, 0.00, 0.00, 0.00
101, 5764.72, 52344.90, 2001.62, 24731.04, -13081.29, -412.95, 11637.48, -46127.00, -21016.67, 32637.70, -2000.24, -187500.02, 0.00, 0.00, 0.00, 0.00, 0.00, 0.00, 0.00
102, 5764.72, 52344.90, 2001.62, 24731.04, -13081.29, -412.95, 11637.48, -46127.00, -21026.13, 32599.39, -2020.87, -179876.75, 0.00, 0.00, 0.00, 0.00, 0.02, 0.31, 0.97
103, 5793.77, 52383.93, 2040.11, 24774.52, -13043.07, -372.27, 11685.80, -46084.49, -21026.13, 32599.39, -2020.87, -179876.75, 0.00, 0.00, 0.00, 0.00, 0.00, 0.00, 0.00
104, 5793.77, 52383.93, 2040.11, 24774.52, -13043.07, -372.27, 11685.80, -46084.49, -21003.29, 32651.67, -1981.71, -187500.02, 0.00, 0.00, 0.00, 0.00, 0.00, 0.00, 0.00
105, 5784.03, 52369.53, 2030.97, 24755.12, -13054.85, -391.04, 11660.77, -46105.01, -21003.29, 32651.67, -1981.71, -187500.02, 0.00, 0.00, 0.00, 0.00, 0.00, 0.00, 0.00
106, 5784.03, 52369.53, 2030.97, 24755.12, -13054.85, -391.04, 11660.77, -46105.01, -21023.71, 32601.72, -2007.34, -180657.19, 0.00, 0.00, 0.00, 0.00, 0.00, 0.00, 0.00
107, 5786.82, 52376.28, 2026.88, 24750.73, -13060.55, -389.55, 11666.83, -46099.62, -21023.71, 32601.72, -2007.34, -180657.19, 0.00, 0.00, 0.00, 0.00, 0.00, 0.00, 0.00
108, 5786.82, 52376.28, 2026.88, 24750.73, -13060.55, -389.55, 11666.83, -46099.62, -21008.38, 32641.64, -1981.64, -187500.02, 0.00, 0.00, 0.00, 0.00, 0.00, 0.00, 0.00
109, 5777.28, 52363.70, 2019.37, 24721.36, -13080.62, -412.66, 11639.67, -46123.58, -21008.38, 32641.64, -1981.64, -187500.02, 0.00, 0.00, 0.00, 0.00, 0.00, 0.00, 0.00
110, 5777.28, 52363.70, 2019.37, 24721.36, -13080.62, -412.66, 11639.67, -46123.58, -21026.73, 32588.08, -1999.94, -181760.77, 0.00, 0.00, 0.00, 0.00, 0.00, 0.00, 0.00
111, 5792.88, 52382.36, 2032.58, 24733.77, -13071.17, -399.00, 11657.04, -46108.92, -21026.73, 32588.08, -1999.94, -181760.77, 0.00, 0.00, 0.00, 0.00, 0.00, 0.00, 0.00
112, 5792.88, 52382.36, 2032.58, 24733.77, -13071.17, -399.00, 11657.04, -46108.92, -21004.20, 32644.90, -1964.90, -187352.20, 0.00, 0.00, 0.00, 0.00, 0.03, 0.30, 0.97
113, 5790.29, 52377.49, 2030.54, 24719.71, -13070.85, -405.28, 11648.46, -46116.32, -21004.20, 32644.90, -1964.90, -187352.20, 0.00, 0.00, 0.00, 0.00, 0.00, 0.00, 0.00
114, 5790.29, 52377.49, 2030.54, 24719.71, -13070.85, -405.28, 11648.46, -46116.32, -21031.63, 32588.44, -1987.38, -182000.34, 0.00, 0.00, 0.00, 0.00, 0.00, 0.00, 0.00
115, 5793.75, 52385.69, 2035.15, 24726.75, -13066.07, -400.12, 11656.37, -46109.43, -21031.63, 32588.44, -1987.38, -182000.34, 0.00, 0.00, 0.00, 0.00, 0.00, 0.00, 0.00
116, 5793.75, 52385.69, 2035.15, 24726.75, -13066.07, -400.12, 11656.37, -46109.43, -20994.12, 32651.03, -1957.86, -185966.58, 0.00, 0.00, 0.00, 0.00, 0.00, 0.00, 0.00
117, 5797.77, 52394.66, 2041.54, 24734.55, -13062.09, -396.48, 11657.64, -46108.79, -20994.12, 32651.03, -1957.86, -185966.58, 0.00, 0.00, 0.00, 0.00, 0.00, 0.00, 0.00
118, 5797.77, 52394.66, 2041.54, 24734.55, -13062.09, -396.48, 11657.64, -46108.79, -21029.57, 32586.90, -1973.97, -182699.06, 0.00, 0.00, 0.00, 0.00, 0.00, 0.00, 0.00
119, 5797.01, 52389.29, 2038.72, 24728.00, -13066.25, -403.00, 11652.48, -46114.51, -21029.57, 32586.90, -1973.97, -182699.06, 0.00, 0.00, 0.00, 0.00, 0.00, 0.00, 0.00
120, 5797.01, 52389.29, 2038.72, 24728.00, -13066.25, -403.00, 11652.48, -46114.51, -20991.44, 32649.84, -1947.37, -184630.34, 0.00, 0.00, 0.00, 0.00, 0.00, 0.00, 0.00
121, 5813.60, 52407.26, 2056.61, 24748.25, -13047.63, -385.52, 11671.01, -46097.14, -20991.44, 32649.84, -1947.37, -184630.34, 0.00, 0.00, 0.00, 0.00, 0.03, 0.31, 0.96
122, 5813.60, 52407.26, 2056.61, 24748.25, -13047.63, -385.52, 11671.01, -46097.14, -21009.79, 32603.15, -1959.06, -183715.98, 0.00, 0.00, 0.00, 0.00, 0.00, 0.00, 0.00
123, 5797.01, 52391.46, 2041.30, 24728.38, -13062.65, -403.25, 11652.30, -46112.21, -21009.79, 32603.15, -1959.06, -183715.98, 0.00, 0.00, 0.00, 0.00, 0.00, 0.00, 0.00
124, 5797.01, 52391.46, 2041.30, 24728.38, -13062.65, -403.25, 11652.30, -46112.21, -20980.71, 32653.21, -1939.66, -183391.83, 0.00, 0.00, 0.00, 0.00, 0.00, 0.00, 0.00
125, 5822.34, 52425.81, 2069.97, 24760.26, -13035.25, -376.63, 11681.76, -46086.48, -20980.71, 32653.21, -1939.66, -183391.83, 0.00, 0.00, 0.00, 0.00, 0.00, 0.00, 0.00
126, 5822.34, 52425.81, 2069.97, 24760.26, -13035.25, -376.63, 11681.76, -46086.48, -21009.19, 32607.01, -1953.10, -185006.48, 0.00, 0.00, 0.00, 0.00, 0.00, 0.00, 0.00
127, 5787.20, 52375.34, 2034.50, 24723.93, -13068.82, -408.41, 11644.81, -46118.55, -21009.19, 32607.01, -1953.10, -185006.48, 0.00, 0.00, 0.00, 0.00, 0.00, 0.00, 0.00
128, 5787.20, 52375.34, 2034.50, 24723.93, -13068.82, -408.41, 11644.81, -46118.55, -20989.63, 32643.78, -1952.00, -182468.34, 0.00, 0.00, 0.00, 0.00, 0.00, 0.00, 0.00
129, 5809.80, 52402.64, 2060.83, 24757.28, -13038.17, -376.31, 11682.36, -46087.57, -20989.63, 32643.78, -1952.00, -182468.34, 0.00, 0.00, 0.00, 0.00, 0.00, 0.00, 0.00
130, 5809.80, 52402.64, 2060.83, 24757.28, -13038.17, -376.31, 11682.36, -46087.57, -21008.98, 32611.69, -1962.62, -186470.92, 0.00, 0.00, 0.00, 0.00, 0.00, 0.00, 0.00
131, 5777.34, 52362.27, 2022.56, 24714.52, -13076.40, -413.22, 11638.24, -46125.64, -21008.98, 32611.69, -1962.62, -186470.92, 0.00, 0.00, 0.00, 0.00, 0.03, 0.31, 0.96
132, 5777.34, 52362.27, 2022.56, 24714.52, -13076.40, -413.22, 11638.24, -46125.64, -20987.13, 32643.83, -1958.64, -181942.28, 0.00, 0.00, 0.00, 0.00, 0.00, 0.00, 0.00
133, 5815.41, 52414.57, 2064.76, 24765.42, -13035.18, -370.84, 11686.97, -46082.01, -20987.13, 32643.83, -1958.64, -181942.28, 0.00, 0.00, 0.00, 0.00, 0.00, 0.00, 0.00
134, 5815.41, 52414.57, 2064.76, 24765.42, -13035.18, -370.84, 11686.97, -46082.01, -21003.35, 32619.44, -1962.10, -187500.02, 0.00, 0.00, 0.00, 0.00, 0.00, 0.00, 0.00
135, 5773.79, 52366.89, 2021.29, 24711.02, -13079.35, -419.32, 11631.24, -46128.77, -21003.35, 32619.44, -1962.10, -187500.02, 0.00, 0.00, 0.00, 0.00, 0.00, 0.00, 0.00
136, 5773.79, 52366.89, 2021.29, 24711.02, -13079.35, -419.32, 11631.24, -46128.77, -20989.63, 32628.23, -1960.65, -181437.89, 0.00, 0.00, 0.00, 0.00, 0.00, 0.00, 0.00
137, 5818.11, 52415.71, 2070.29, 24770.18, -13029.66, -367.55, 11689.00, -46076.40, -20989.63, 32628.23, -1960.65, -181437.89, 0.00, 0.00, 0.00, 0.00, 0.00, 0.00, 0.00
138, 5818.11, 52415.71, 2070.29, 24770.18, -13029.66, -367.55, 11689.00, -46076.40, -20993.63, 32624.54, -1952.67, -187500.02, 0.00, 0.00, 0.00, 0.00, 0.00, 0.00, 0.00
139, 5781.30, 52363.83, 2023.91, 24716.38, -13075.64, -414.74, 11633.64, -46124.99, -20993.63, 32624.54, -1952.67, -187500.02, 0.00, 0.00, 0.00, 0.00, 0.00, 0.00, 0.00
140, 5781.30, 52363.83, 2023.91, 24716.38, -13075.64, -414.74, 11633.64, -46124.99, -20989.34, 32620.02, -1960.90, -180327.86, 0.00, 0.00, 0.00, 0.00, 0.00, 0.00, 0.00
141, 5819.57, 52414.73, 2069.50, 24766.22, -13029.23, -369.18, 11687.64, -46077.56, -20989.34, 32620.02, -1960.90, -180327.86, 0.00, 0.00, 0.00, 0.00, 0.03, 0.31, 0.97
142, 5819.57, 52414.73, 2069.50, 24766.22, -13029.23, -369.18, 11687.64, -46077.56, -20983.86, 32637.23, -1950.39, -187500.02, 0.00, 0.00, 0.00, 0.00, 0.00, 0.00, 0.00
143, 5781.01, 52371.39, 2026.99, 24716.94, -13074.07, -412.99, 11635.71, -46125.30, -20983.86, 32637.23, -1950.39, -187500.02, 0.00, 0.00, 0.00, 0.00, 0.00, 0.00, 0.00
144, 5781.01, 52371.39, 2026.99, 24716.94, -13074.07, -412.99, 11635.71, -46125.30, -20994.70, 32615.53, -1966.80, -179647.56, 0.00, 0.00, 0.00, 0.00, 0.00, 0.00, 0.00
145, 5819.14, 52416.80, 2068.09, 24767.70, -13030.66, -367.78, 11686.47, -46081.00, -20994.70, 32615.53, -1966.80, -179647.56, 0.00, 0.00, 0.00, 0.00, 0.00, 0.00, 0.00
146, 5819.14, 52416.80, 2068.09, 24767.70, -13030.66, -367.78, 11686.47, -46081.00, -20985.85, 32637.61, -1948.96, -187500.02, 0.00, 0.00, 0.00, 0.00, 0.00, 0.00, 0.00
147, 5784.83, 52367.18, 2029.52, 24719.66, -13067.75, -411.88, 11637.17, -46125.33, -20985.85, 32637.61, -1948.96, -187500.02, 0.00, 0.00, 0.00, 0.00, 0.00, 0.00, 0.00
148, 5784.83, 52367.18, 2029.52, 24719.66, -13067.75, -411.88, 11637.17, -46125.33, -20988.62, 32610.50, -1960.65, -179586.22, 0.00, 0.00, 0.00, 0.00, 0.00, 0.00, 0.00
149, 5822.25, 52416.70, 2072.61, 24767.88, -13024.12, -367.86, 11690.57, -46075.66, -20988.62, 32610.50, -1960.65, -179586.22, 0.00, 0.00, 0.00, 0.00, 0.00, 0.00, 0.00
150, 5822.25, 52416.70, 2072.61, 24767.88, -13024.12, -367.86, 11690.57, -46075.66, -20972.08, 32654.42, -1942.08, -187500.02, 0.00, 0.00, 0.00, 0.00, 0.00, 0.00, 0.00
151, 5793.91, 52383.93, 2038.55, 24725.19, -13059.01, -404.41, 11647.09, -46113.46, -20972.08, 32654.42, -1942.08, -187500.02, 0.00, 0.00, 0.00, 0.00, 0.03, 0.31, 0.97
152, 5793.91, 52383.93, 2038.55, 24725.19, -13059.01, -404.41, 11647.09, -46113.46, -20990.86, 32608.51, -1963.31, -180137.58, 0.00, 0.00, 0.00, 0.00, 0.00, 0.00, 0.00
153, 5825.54, 52425.03, 2074.04, 24767.54, -13027.83, -368.74, 11687.24, -46081.05, -20990.86, 32608.51, -1963.31, -180137.58, 0.00, 0.00, 0.00, 0.00, 0.00, 0.00, 0.00
154, 5825.54, 52425.03, 2074.04, 24767.54, -13027.83, -368.74, 11687.24, -46081.05, -20969.36, 32655.90, -1939.06, -187500.02, 0.00, 0.00, 0.00, 0.00, 0.00, 0.00, 0.00
155, 5803.52, 52395.26, 2047.31, 24732.38, -13052.23, -399.87, 11651.18, -46113.84, -20969.36, 32655.90, -1939.06, -187500.02, 0.00, 0.00, 0.00, 0.00, 0.00, 0.00, 0.00
156, 5803.52, 52395.26, 2047.31, 24732.38, -13052.23, -399.87, 11651.18, -46113.84, -20995.17, 32596.93, -1964.83, -181106.20, 0.00, 0.00, 0.00, 0.00, 0.00, 0.00, 0.00
157, 5818.49, 52410.17, 2065.55, 24758.65, -13034.29, -377.41, 11675.92, -46092.13, -20995.17, 32596.93, -1964.83, -181106.20, 0.00, 0.00, 0.00, 0.00, 0.00, 0.00, 0.00
158, 5818.49, 52410.17, 2065.55, 24758.65, -13034.29, -377.41, 11675.92, -46092.13, -20970.47, 32656.19, -1941.05, -187500.02, 0.00, 0.00, 0.00, 0.00, 0.00, 0.00, 0.00
159, 5799.52, 52393.58, 2050.35, 24737.46, -13045.55, -393.57, 11658.80, -46103.27, -20970.47, 32656.19, -1941.05, -187500.02, 0.00, 0.00, 0.00, 0.00, 0.00, 0.00, 0.00
160, 5799.52, 52393.58, 2050.35, 24737.46, -13045.55, -393.57, 11658.80, -46103.27, -20986.99, 32605.16, -1960.96, -181782.16, 0.00, 0.00, 0.00, 0.00, 0.03, 0.31, 0.97
161, 5810.74, 52411.44, 2061.17, 24751.74, -13036.10, -382.04, 11672.30, -46093.99, -20986.99, 32605.16, -1960.96, -181782.16, 0.00, 0.00, 0.00, 0.00, 0.00, 0.00, 0.00
162, 5810.74, 52411.44, 2061.17, 24751.74, -13036.10, -382.04, 11672.30, -46093.99, -20967.37, 32656.52, -1938.86, -186775.73, 0.00, 0.00, 0.00, 0.00, 0.00, 0.00, 0.00
163, 5809.24, 52402.14, 2055.00, 24744.12, -13042.91, -387.24, 11661.96, -46102.98, -20967.37, 32656.52, -1938.86, -186775.73, 0.00, 0.00, 0.00, 0.00, 0.00, 0.00, 0.00
164, 5809.24, 52402.14, 2055.00, 24744.12, -13042.91, -387.24, 11661.96, -46102.98, -20995.66, 32595.12, -1964.90, -182229.39, 0.00, 0.00, 0.00, 0.00, 0.00, 0.00, 0.00
165, 5803.25, 52392.71, 2049.19, 24741.28, -13047.18, -391.11, 11659.92, -46104.76, -20995.66, 32595.12, -1964.90, -182229.39, 0.00, 0.00, 0.00, 0.00, 0.00, 0.00, 0.00
166, 5803.25, 52392.71, 2049.19, 24741.28, -13047.18, -391.11, 11659.92, -46104.76, -20962.58, 32660.72, -1943.91, -185395.44, 0.00, 0.00, 0.00, 0.00, 0.00, 0.00, 0.00
167, 5812.82, 52399.82, 2059.58, 24752.37, -13034.33, -380.40, 11671.37, -46093.99, -20962.58, 32660.72, -1943.91, -185395.44, 0.00, 0.00, 0.00, 0.00, 0.00, 0.00, 0.00
168, 5812.82, 52399.82, 2059.58, 24752.37, -13034.33, -380.40, 11671.37, -46093.99, -20991.24, 32603.35, -1966.89, -183105.48, 0.00, 0.00, 0.00, 0.00, 0.00, 0.00, 0.00
169, 5802.09, 52389.47, 2046.77, 24738.26, -13050.09, -393.12, 11656.70, -46108.20, -20991.24, 32603.35, -1966.89, -183105.48, 0.00, 0.00, 0.00, 0.00, 0.00, 0.00, 0.00
170, 5802.09, 52389.47, 2046.77, 24738.26, -13050.09, -393.12, 11656.70, -46108.20, -20958.47, 32658.09, -1944.96, -184085.52, 0.00, 0.00, 0.00, 0.00, 0.03, 0.31, 0.97
171, 5820.75, 52417.45, 2067.13, 24763.34, -13025.93, -370.35, 11680.82, -46085.07, -20958.47, 32658.09, -1944.96, -184085.52, 0.00, 0.00, 0.00, 0.00, 0.00, 0.00, 0.00
172, 5820.75, 52417.45, 2067.13, 24763.34, -13025.93, -370.35, 11680.82, -46085.07, -20986.21, 32605.61, -1964.32, -184260.73, 0.00, 0.00, 0.00, 0.00, 0.00, 0.00, 0.00
173, 5795.94, 52392.31, 2042.52, 24730.82, -13052.73, -399.11, 11651.52, -46110.46, -20986.21, 32605.61, -1964.32, -184260.73, 0.00, 0.00, 0.00, 0.00, 0.00, 0.00, 0.00
174, 5795.94, 52392.31, 2042.52, 24730.82, -13052.73, -399.11, 11651.52, -46110.46, -20956.35, 32652.50, -1951.31, -182985.77, 0.00, 0.00, 0.00, 0.00, 0.00, 0.00, 0.00
175, 5817.42, 52413.39, 2065.70, 24763.27, -13024.81, -370.95, 11682.25, -46086.84, -20956.35, 32652.50, -1951.31, -182985.77, 0.00, 0.00, 0.00, 0.00, 0.00, 0.00, 0.00
176, 5817.42, 52413.39, 2065.70, 24763.27, -13024.81, -370.95, 11682.25, -46086.84, -20988.76, 32605.58, -1966.71, -185688.16, 0.00, 0.00, 0.00, 0.00, 0.00, 0.00, 0.00
177, 5780.16, 52366.02, 2024.82, 24719.35, -13064.04, -410.18, 11638.20, -46124.37, -20988.76, 32605.58, -1966.71, -185688.16, 0.00, 0.00, 0.00, 0.00, 0.00, 0.00, 0.00
178, 5780.16, 52366.02, 2024.82, 24719.35, -13064.04, -410.18, 11638.20, -46124.37, -20963.21, 32646.76, -1959.13, -182209.81, 0.00, 0.00, 0.00, 0.00, 0.00, 0.00, 0.00
179, 5819.48, 52411.53, 2066.26, 24767.12, -13021.68, -368.02, 11684.49, -46084.80, -20963.21, 32646.76, -1959.13, -182209.81, 0.00, 0.00, 0.00, 0.00, 0.00, 0.00, 0.00
180, 5819.48, 52411.53, 2066.26, 24767.12, -13021.68, -368.02, 11684.49, -46084.80, -20980.15, 32617.56, -1967.53, -187166.50, 0.00, 0.00, 0.00, 0.00, 0.03, 0.31, 0.96
181, 5784.50, 52370.92, 2025.90, 24720.27, -13063.72, -409.06, 11636.38, -46126.78, -20980.15, 32617.56, -1967.53, -187166.50, 0.00, 0.00, 0.00, 0.00, 0.00, 0.00, 0.00
182, 5784.50, 52370.92, 2025.90, 24720.27, -13063.72, -409.06, 11636.38, -46126.78, -20959.88, 32641.19, -1960.54, -181805.28, 0.00, 0.00, 0.00, 0.00, 0.00, 0.00, 0.00
183, 5825.33, 52422.66, 2072.36, 24771.48, -13014.82, -363.39, 11690.59, -46079.57, -20959.88, 32641.19, -1960.54, -181805.28, 0.00, 0.00, 0.00, 0.00, 0.00, 0.00, 0.00
184, 5825.33, 52422.66, 2072.36, 24771.48, -13014.82, -363.39, 11690.59, -46079.57, -20968.42, 32627.96, -1957.50, -187500.02, 0.00, 0.00, 0.00, 0.00, 0.00, 0.00, 0.00
185, 5784.52, 52373.85, 2030.25, 24720.27, -13057.15, -408.93, 11639.27, -46123.67, -20968.42, 32627.96, -1957.50, -187500.02, 0.00, 0.00, 0.00, 0.00, 0.00, 0.00, 0.00
186, 5784.52, 52373.85, 2030.25, 24720.27, -13057.15, -408.93, 11639.27, -46123.67, -20961.06, 32633.77, -1960.94, -180929.09, 0.00, 0.00, 0.00, 0.00, 0.00, 0.00, 0.00
187, 5826.74, 52421.30, 2074.42, 24773.55, -13014.21, -361.36, 11692.98, -46078.01, -20961.06, 32633.77, -1960.94, -180929.09, 0.00, 0.00, 0.00, 0.00, 0.00, 0.00, 0.00
188, 5826.74, 52421.30, 2074.42, 24773.55, -13014.21, -361.36, 11692.98, -46078.01, -20964.75, 32633.08, -1956.56, -187500.02, 0.00, 0.00, 0.00, 0.00, 0.00, 0.00, 0.00
189, 5784.83, 52373.06, 2029.14, 24721.10, -13055.94, -408.01, 11640.43, -46122.84, -20964.75, 32633.08, -1956.56, -187500.02, 0.00, 0.00, 0.00, 0.00, 0.00, 0.00, 0.00
190, 5784.83, 52373.06, 2029.14, 24721.10, -13055.94, -408.01, 11640.43, -46122.84, -20954.63, 32634.75, -1961.16, -180077.47, 0.00, 0.00, 0.00, 0.00, 0.03, 0.31, 0.97
191, 5823.25, 52428.54, 2074.11, 24771.10, -13007.08, -361.58, 11697.00, -46072.78, -20954.63, 32634.75, -1961.16, -180077.47, 0.00, 0.00, 0.00, 0.00, 0.00, 0.00, 0.00
192, 5823.25, 52428.54, 2074.11, 24771.10, -13007.08, -361.58, 11697.00, -46072.78, -20957.08, 32643.07, -1953.43, -187500.02, 0.00, 0.00, 0.00, 0.00, 0.00, 0.00, 0.00
193, 5779.09, 52377.71, 2026.16, 24715.20, -13056.84, -410.78, 11638.08, -46125.21, -20957.08, 32643.07, -1953.43, -187500.02, 0.00, 0.00, 0.00, 0.00, 0.00, 0.00, 0.00
194, 5779.09, 52377.71, 2026.16, 24715.20, -13056.84, -410.78, 11638.08, -46125.21, -20964.82, 32619.89, -1969.90, -179659.00, 0.00, 0.00, 0.00, 0.00, 0.00, 0.00, 0.00
195, 5819.12, 52425.57, 2072.57, 24766.94, -13011.08, -363.66, 11692.87, -46079.48, -20964.82, 32619.89, -1969.90, -179659.00, 0.00, 0.00, 0.00, 0.00, 0.00, 0.00, 0.00
196, 5819.12, 52425.57, 2072.57, 24766.94, -13011.08, -363.66, 11692.87, -46079.48, -20948.41, 32654.91, -1943.98, -187500.02, 0.00, 0.00, 0.00, 0.00, 0.00, 0.00, 0.00
197, 5789.84, 52385.43, 2034.41, 24721.97, -13050.11, -405.51, 11643.98, -46120.95, -20948.41, 32654.91, -1943.98, -187500.02, 0.00, 0.00, 0.00, 0.00, 0.00, 0.00, 0.00
198, 5789.84, 52385.43, 2034.41, 24721.97, -13050.11, -405.51, 11643.98, -46120.95, -20959.70, 32616.92, -1961.81, -179772.08, 0.00, 0.00, 0.00, 0.00, 0.00, 0.00, 0.00
199, 5820.10, 52422.95, 2067.22, 24762.92, -13014.97, -369.81, 11688.29, -46082.86, -20959.70, 32616.92, -1961.81, -179772.08, 0.00, 0.00, 0.00, 0.00, 0.04, 0.31, 0.96
200, 5820.10, 52422.95, 2067.22, 24762.92, -13014.97, -369.81, 11688.29, -46082.86, -20950.49, 32655.90, -1950.30, -187500.02, 0.00, 0.00, 0.00, 0.00, 0.00, 0.00, 0.00
201, 5787.25, 52380.71, 2029.20, 24722.04, -13054.56, -408.05, 11641.26, -46124.43, -20950.49, 32655.90, -1950.30, -187500.02, 0.00, 0.00, 0.00, 0.00, 0.00, 0.00, 0.00
202, 5787.25, 52380.71, 2029.20, 24722.04, -13054.56, -408.05, 11641.26, -46124.43, -20976.29, 32597.22, -1981.77, -180462.08, 0.00, 0.00, 0.00, 0.00, 0.00, 0.00, 0.00
203, 5806.83, 52406.73, 2053.81, 24751.03, -13029.57, -381.23, 11673.35, -46100.18, -20976.29, 32597.22, -1981.77, -180462.08, 0.00, 0.00, 0.00, 0.00, 0.00, 0.00, 0.00
204, 5806.83, 52406.73, 2053.81, 24751.03, -13029.57, -381.23, 11673.35, -46100.18, -20951.61, 32648.48, -1954.06, -187500.02, 0.00, 0.00, 0.00, 0.00, 0.00, 0.00, 0.00
205, 5789.35, 52381.18, 2030.88, 24723.78, -13047.58, -404.05, 11647.20, -46123.23, -20951.61, 32648.48, -1954.06, -187500.02, 0.00, 0.00, 0.00, 0.00, 0.00, 0.00, 0.00
206, 5789.35, 52381.18, 2030.88, 24723.78, -13047.58, -404.05, 11647.20, -46123.23, -20968.19, 32600.09, -1978.06, -181599.98, 0.00, 0.00, 0.00, 0.00, 0.00, 0.00, 0.00
207, 5803.05, 52405.50, 2048.81, 24746.40, -13031.71, -384.38, 11669.08, -46101.86, -20968.19, 32600.09, -1978.06, -181599.98, 0.00, 0.00, 0.00, 0.00, 0.00, 0.00, 0.00
208, 5803.05, 52405.50, 2048.81, 24746.40, -13031.71, -384.38, 11669.08, -46101.86, -20943.90, 32656.26, -1956.43, -187500.02, 0.00, 0.00, 0.00, 0.00, 0.00, 0.00, 0.00
209, 5793.86, 52392.80, 2036.56, 24728.52, -13045.51, -398.84, 11651.49, -46117.82, -20943.90, 32656.26, -1956.43, -187500.02, 0.00, 0.00, 0.00, 0.00, 0.03, 0.31, 0.97
210, 5793.86, 52392.80, 2036.56, 24728.52, -13045.51, -398.84, 11651.49, -46117.82, -20966.18, 32600.22, -1973.97, -181841.20, 0.00, 0.00, 0.00, 0.00, 0.00, 0.00, 0.00
211, 5795.99, 52391.59, 2038.72, 24737.03, -13040.19, -391.87, 11659.72, -46111.51, -20966.18, 32600.22, -1973.97, -181841.20, 0.00, 0.00, 0.00, 0.00, 0.00, 0.00, 0.00
212, 5795.99, 52391.59, 2038.72, 24737.03, -13040.19, -391.87, 11659.72, -46111.51, -20944.19, 32658.42, -1958.26, -186187.55, 0.00, 0.00, 0.00, 0.00, 0.00, 0.00, 0.00
213, 5805.55, 52397.74, 2045.21, 24740.99, -13035.83, -387.65, 11662.83, -46108.23, -20944.19, 32658.42, -1958.26, -186187.55, 0.00, 0.00, 0.00, 0.00, 0.00, 0.00, 0.00
214, 5805.55, 52397.74, 2045.21, 24740.99, -13035.83, -387.65, 11662.83, -46108.23, -20963.77, 32602.97, -1969.37, -182465.48, 0.00, 0.00, 0.00, 0.00, 0.00, 0.00, 0.00
215, 5797.95, 52394.03, 2040.71, 24733.10, -13040.37, -395.36, 11656.48, -46113.30, -20963.77, 32602.97, -1969.37, -182465.48, 0.00, 0.00, 0.00, 0.00, 0.00, 0.00, 0.00
216, 5797.95, 52394.03, 2040.71, 24733.10, -13040.37, -395.36, 11656.48, -46113.30, -20937.84, 32656.46, -1953.81, -184796.06, 0.00, 0.00, 0.00, 0.00, 0.00, 0.00, 0.00
217, 5811.81, 52414.50, 2054.17, 24749.82, -13025.68, -380.49, 11672.24, -46099.64, -20937.84, 32656.46, -1953.81, -184796.06, 0.00, 0.00, 0.00, 0.00, 0.00, 0.00, 0.00
218, 5811.81, 52414.50, 2054.17, 24749.82, -13025.68, -380.49, 11672.24, -46099.64, -20965.85, 32604.40, -1971.36, -183468.63, 0.00, 0.00, 0.00, 0.00, 0.00, 0.00, 0.00
219, 5794.98, 52392.91, 2035.60, 24727.96, -13043.36, -399.49, 11652.86, -46116.21, -20965.85, 32604.40, -1971.36, -183468.63, 0.00, 0.00, 0.00, 0.00, 0.03, 0.31, 0.96
220, 5794.98, 52392.91, 2035.60, 24727.96, -13043.36, -399.49, 11652.86, -46116.21, -20933.73, 32657.48, -1953.97, -183477.38, 0.00, 0.00, 0.00, 0.00, 0.00, 0.00, 0.00
221, 5816.44, 52414.84, 2058.71, 24754.49, -13015.42, -375.93, 11679.93, -46090.43, -20933.73, 32657.48, -1953.97, -183477.38, 0.00, 0.00, 0.00, 0.00, 0.00, 0.00, 0.00
222, 5816.44, 52414.84, 2058.71, 24754.49, -13015.42, -375.93, 11679.93, -46090.43, -20955.81, 32610.03, -1964.41, -184702.69, 0.00, 0.00, 0.00, 0.00, 0.00, 0.00, 0.00
223, 5786.53, 52382.12, 2027.01, 24723.00, -13049.46, -405.64, 11644.43, -46124.07, -20955.81, 32610.03, -1964.41, -184702.69, 0.00, 0.00, 0.00, 0.00, 0.00, 0.00, 0.00
224, 5786.53, 52382.12, 2027.01, 24723.00, -13049.46, -405.64, 11644.43, -46124.07, -20936.03, 32649.37, -1960.83, -182422.80, 0.00, 0.00, 0.00, 0.00, 0.00, 0.00, 0.00
225, 5818.96, 52418.68, 2059.53, 24760.57, -13014.19, -370.23, 11684.08, -46090.05, -20936.03, 32649.37, -1960.83, -182422.80, 0.00, 0.00, 0.00, 0.00, 0.00, 0.00, 0.00
226, 5818.96, 52418.68, 2059.53, 24760.57, -13014.19, -370.23, 11684.08, -46090.05, -20955.59, 32612.45, -1969.59, -186140.83, 0.00, 0.00, 0.00, 0.00, 0.00, 0.00, 0.00
227, 5786.26, 52372.80, 2023.59, 24720.69, -13049.95, -407.23, 11642.44, -46125.93, -20955.59, 32612.45, -1969.59, -186140.83, 0.00, 0.00, 0.00, 0.00, 0.00, 0.00, 0.00
228, 5786.26, 52372.80, 2023.59, 24720.69, -13049.95, -407.23, 11642.44, -46125.93, -20935.09, 32648.83, -1966.35, -181766.70, 0.00, 0.00, 0.00, 0.00, 0.00, 0.00, 0.00
229, 5819.88, 52419.76, 2065.41, 24768.37, -13007.46, -364.85, 11692.40, -46082.01, -20935.09, 32648.83, -1966.35, -181766.70, 0.00, 0.00, 0.00, 0.00, 0.03, 0.31, 0.96
230, 5819.88, 52419.76, 2065.41, 24768.37, -13007.46, -364.85, 11692.40, -46082.01, -20938.38, 32629.90, -1957.43, -187500.02, 0.00, 0.00, 0.00, 0.00, 0.00, 0.00, 0.00
231, 5780.50, 52371.92, 2022.30, 24714.77, -13051.18, -411.38, 11642.33, -46127.32, -20938.38, 32629.90, -1957.43, -187500.02, 0.00, 0.00, 0.00, 0.00, 0.00, 0.00, 0.00
232, 5780.50, 52371.92, 2022.30, 24714.77, -13051.18, -411.38, 11642.33, -46127.32, -20931.02, 32643.02, -1959.78, -181216.61, 0.00, 0.00, 0.00, 0.00, 0.00, 0.00, 0.00
233, 5826.88, 52427.85, 2070.80, 24771.01, -13001.18, -361.63, 11698.23, -46079.80, -20931.02, 32643.02, -1959.78, -181216.61, 0.00, 0.00, 0.00, 0.00, 0.00, 0.00, 0.00
234, 5826.88, 52427.85, 2070.80, 24771.01, -13001.18, -361.63, 11698.23, -46079.80, -20937.26, 32635.91, -1953.10, -187500.02, 0.00, 0.00, 0.00, 0.00, 0.00, 0.00, 0.00
235, 5780.90, 52372.82, 2022.01, 24713.99, -13050.02, -410.91, 11641.26, -46129.75, -20937.26, 32635.91, -1953.10, -187500.02, 0.00, 0.00, 0.00, 0.00, 0.00, 0.00, 0.00
236, 5780.90, 52372.82, 2022.01, 24713.99, -13050.02, -410.91, 11641.26, -46129.75, -20937.35, 32635.20, -1966.01, -179959.31, 0.00, 0.00, 0.00, 0.00, 0.00, 0.00, 0.00
237, 5821.69, 52422.42, 2067.27, 24771.48, -13001.29, -360.65, 11699.89, -46077.11, -20937.35, 32635.20, -1966.01, -179959.31, 0.00, 0.00, 0.00, 0.00, 0.00, 0.00, 0.00
238, 5821.69, 52422.42, 2067.27, 24771.48, -13001.29, -360.65, 11699.89, -46077.11, -20928.85, 32644.83, -1953.52, -187500.02, 0.00, 0.00, 0.00, 0.00, 0.03, 0.31, 0.96
239, 5783.07, 52379.66, 2020.49, 24712.24, -13051.36, -412.32, 11640.12, -46129.30, -20928.85, 32644.83, -1953.52, -187500.02, 0.00, 0.00, 0.00, 0.00, 0.00, 0.00, 0.00
240, 5783.07, 52379.66, 2020.49, 24712.24, -13051.36, -412.32, 11640.12, -46129.30, -20933.97, 32627.15, -1967.51, -179271.53, 0.00, 0.00, 0.00, 0.00, 0.00, 0.00, 0.00
241, 5832.55, 52430.60, 2073.48, 24775.46, -12998.61, -358.32, 11700.78, -46077.00, -20933.97, 32627.15, -1967.51, -179271.53, 0.00, 0.00, 0.00, 0.00, 0.00, 0.00, 0.00
242, 5832.55, 52430.60, 2073.48, 24775.46, -12998.61, -358.32, 11700.78, -46077.00, -20920.34, 32654.94, -1944.20, -187500.02, 0.00, 0.00, 0.00, 0.00, 0.00, 0.00, 0.00
243, 5789.77, 52380.15, 2029.72, 24720.87, -13041.50, -406.15, 11647.49, -46124.25, -20920.34, 32654.94, -1944.20, -187500.02, 0.00, 0.00, 0.00, 0.00, 0.00, 0.00, 0.00
244, 5789.77, 52380.15, 2029.72, 24720.87, -13041.50, -406.15, 11647.49, -46124.25, -20932.23, 32621.99, -1958.50, -179087.84, 0.00, 0.00, 0.00, 0.00, 0.00, 0.00, 0.00
245, 5826.50, 52429.97, 2072.77, 24769.15, -13001.23, -362.97, 11697.99, -46082.21, -20932.23, 32621.99, -1958.50, -179087.84, 0.00, 0.00, 0.00, 0.00, 0.00, 0.00, 0.00
246, 5826.50, 52429.97, 2072.77, 24769.15, -13001.23, -362.97, 11697.99, -46082.21, -20914.77, 32662.25, -1940.87, -187500.02, 0.00, 0.00, 0.00, 0.00, 0.00, 0.00, 0.00
247, 5796.30, 52392.33, 2035.19, 24724.43, -13036.59, -401.53, 11654.02, -46118.84, -20914.77, 32662.25, -1940.87, -187500.02, 0.00, 0.00, 0.00, 0.00, 0.00, 0.00, 0.00
248, 5796.30, 52392.33, 2035.19, 24724.43, -13036.59, -401.53, 11654.02, -46118.84, -20929.32, 32620.31, -1965.86, -179427.50, 0.00, 0.00, 0.00, 0.00, 0.03, 0.31, 0.97
249, 5825.80, 52429.93, 2067.47, 24764.70, -13005.85, -366.97, 11694.25, -46086.59, -20929.32, 32620.31, -1965.86, -179427.50, 0.00, 0.00, 0.00, 0.00, 0.00, 0.00, 0.00
250, 5825.80, 52429.93, 2067.47, 24764.70, -13005.85, -366.97, 11694.25, -46086.59, -20909.27, 32665.87, -1939.17, -187500.02, 0.00, 0.00, 0.00, 0.00, 0.00, 0.00, 0.00
251, 5799.72, 52394.30, 2039.71, 24731.49, -13032.54, -396.30, 11659.97, -46114.78, -20909.27, 32665.87, -1939.17, -187500.02, 0.00, 0.00, 0.00, 0.00, 0.00, 0.00, 0.00
252, 5799.72, 52394.30, 2039.71, 24731.49, -13032.54, -396.30, 11659.97, -46114.78, -20932.74, 32615.35, -1965.48, -180317.22, 0.00, 0.00, 0.00, 0.00, 0.00, 0.00, 0.00
253, 5823.95, 52425.48, 2065.10, 24762.40, -13009.03, -369.23, 11690.25, -46090.48, -20932.74, 32615.35, -1965.48, -180317.22, 0.00, 0.00, 0.00, 0.00, 0.00, 0.00, 0.00
254, 5823.95, 52425.48, 2065.10, 24762.40, -13009.03, -369.23, 11690.25, -46090.48, -20904.47, 32674.70, -1939.77, -187500.02, 0.00, 0.00, 0.00, 0.00, 0.00, 0.00, 0.00
255, 5811.41, 52404.31, 2047.69, 24740.77, -13023.74, -388.07, 11669.53, -46105.88, -20904.47, 32674.70, -1939.77, -187500.02, 0.00, 0.00, 0.00, 0.00, 0.00, 0.00, 0.00
0, 5811.41, 52404.31, 2047.69, 24740.77, -13023.74, -388.07, 11669.53, -46105.88, -20929.86, 32614.05, -1968.94, -181430.83, 0.00, 0.00, 0.00, 0.00, 0.00, 0.00, 0.00
1, 5814.81, 52416.43, 2058.37, 24751.03, -13015.31, -378.88, 11682.83, -46097.07, -20929.86, 32614.05, -1968.94, -181430.83, 0.00, 0.00, 0.00, 0.00, 0.00, 0.00, 0.00
2, 5814.81, 52416.43, 2058.37, 24751.03, -13015.31, -378.88, 11682.83, -46097.07, -20907.31, 32670.40, -1948.27, -186670.72, 0.00, 0.00, 0.00, 0.00, 0.03, 0.31, 0.97
3, 5805.98, 52400.91, 2045.68, 24742.04, -13023.09, -386.91, 11671.34, -46105.12, -20907.31, 32670.40, -1948.27, -186670.72, 0.00, 0.00, 0.00, 0.00, 0.00, 0.00, 0.00
4, 5805.98, 52400.91, 2045.68, 24742.04, -13023.09, -386.91, 11671.34, -46105.12, -20938.73, 32607.48, -1975.02, -181791.38, 0.00, 0.00, 0.00, 0.00, 0.00, 0.00, 0.00
5, 5806.09, 52394.66, 2044.11, 24743.83, -13023.60, -385.77, 11672.62, -46106.46, -20938.73, 32607.48, -1975.02, -181791.38, 0.00, 0.00, 0.00, 0.00, 0.00, 0.00, 0.00
6, 5806.09, 52394.66, 2044.11, 24743.83, -13023.60, -385.77, 11672.62, -46106.46, -20906.64, 32668.12, -1953.41, -185227.09, 0.00, 0.00, 0.00, 0.00, 0.00, 0.00, 0.00
7, 5812.97, 52406.55, 2052.72, 24752.48, -13017.70, -378.12, 11679.70, -46099.29, -20906.64, 32668.12, -1953.41, -185227.09, 0.00, 0.00, 0.00, 0.00, 0.00, 0.00, 0.00
8, 5812.97, 52406.55, 2052.72, 24752.48, -13017.70, -378.12, 11679.70, -46099.29, -20939.65, 32608.89, -1975.49, -182562.31, 0.00, 0.00, 0.00, 0.00, 0.00, 0.00, 0.00
9, 5800.46, 52401.43, 2042.28, 24738.35, -13031.65, -392.83, 11664.93, -46114.87, -20939.65, 32608.89, -1975.49, -182562.31, 0.00, 0.00, 0.00, 0.00, 0.00, 0.00, 0.00
10, 5800.46, 52401.43, 2042.28, 24738.35, -13031.65, -392.83, 11664.93, -46114.87, -20912.11, 32661.40, -1957.36, -183842.13, 0.00, 0.00, 0.00, 0.00, 0.00, 0.00, 0.00
11, 5823.52, 52421.54, 2063.60, 24758.38, -13009.74, -373.81, 11686.52, -46096.52, -20912.11, 32661.40, -1957.36, -183842.13, 0.00, 0.00, 0.00, 0.00, 0.00, 0.00, 0.00
12, 5823.52, 52421.54, 2063.60, 24758.38, -13009.74, -373.81, 11686.52, -46096.52, -20930.96, 32610.68, -1965.88, -183697.97, 0.00, 0.00, 0.00, 0.00, 0.03, 0.31, 0.97
13, 5803.88, 52395.86, 2041.43, 24736.47, -13032.61, -395.11, 11661.58, -46118.53, -20930.96, 32610.68, -1965.88, -183697.97, 0.00, 0.00, 0.00, 0.00, 0.00, 0.00, 0.00
14, 5803.88, 52395.86, 2041.43, 24736.47, -13032.61, -395.11, 11661.58, -46118.53, -20904.22, 32662.07, -1951.73, -182664.47, 0.00, 0.00, 0.00, 0.00, 0.00, 0.00, 0.00
15, 5832.87, 52432.74, 2072.92, 24769.64, -13000.71, -364.87, 11697.47, -46085.27, -20904.22, 32662.07, -1951.73, -182664.47, 0.00, 0.00, 0.00, 0.00, 0.00, 0.00, 0.00
16, 5832.87, 52432.74, 2072.92, 24769.64, -13000.71, -364.87, 11697.47, -46085.27, -20925.08, 32623.20, -1963.33, -185029.09, 0.00, 0.00, 0.00, 0.00, 0.00, 0.00, 0.00
17, 5805.91, 52393.05, 2040.69, 24734.42, -13034.42, -397.59, 11658.67, -46120.61, -20925.08, 32623.20, -1963.33, -185029.09, 0.00, 0.00, 0.00, 0.00, 0.00, 0.00, 0.00
18, 5805.91, 52393.05, 2040.69, 24734.42, -13034.42, -397.59, 11658.67, -46120.61, -20906.23, 32657.64, -1955.22, -181814.92, 0.00, 0.00, 0.00, 0.00, 0.00, 0.00, 0.00
19, 5838.21, 52440.48, 2076.92, 24773.85, -12999.17, -362.19, 11700.58, -46085.29, -20906.23, 32657.64, -1955.22, -181814.92, 0.00, 0.00, 0.00, 0.00, 0.00, 0.00, 0.00
20, 5838.21, 52440.48, 2076.92, 24773.85, -12999.17, -362.19, 11700.58, -46085.29, -20924.72, 32623.64, -1964.29, -186509.63, 0.00, 0.00, 0.00, 0.00, 0.00, 0.00, 0.00
21, 5801.06, 52392.35, 2034.97, 24723.33, -13043.34, -407.03, 11650.27, -46129.95, -20924.72, 32623.64, -1964.29, -186509.63, 0.00, 0.00, 0.00, 0.00, 0.03, 0.31, 0.97
22, 5801.06, 52392.35, 2034.97, 24723.33, -13043.34, -407.03, 11650.27, -46129.95, -20910.82, 32646.51, -1959.49, -181364.89, 0.00, 0.00, 0.00, 0.00, 0.00, 0.00, 0.00
23, 5844.13, 52443.67, 2081.69, 24780.19, -12992.49, -357.34, 11706.50, -46081.50, -20910.82, 32646.51, -1959.49, -181364.89, 0.00, 0.00, 0.00, 0.00, 0.00, 0.00, 0.00
24, 5844.13, 52443.67, 2081.69, 24780.19, -12992.49, -357.34, 11706.50, -46081.50, -20917.05, 32634.57, -1955.91, -187500.02, 0.00, 0.00, 0.00, 0.00, 0.00, 0.00, 0.00
25, 5806.51, 52394.90, 2038.61, 24725.10, -13037.03, -404.52, 11653.04, -46128.46, -20917.05, 32634.57, -1955.91, -187500.02, 0.00, 0.00, 0.00, 0.00, 0.00, 0.00, 0.00
26, 5806.51, 52394.90, 2038.61, 24725.10, -13037.03, -404.52, 11653.04, -46128.46, -20903.73, 32646.06, -1955.78, -180159.50, 0.00, 0.00, 0.00, 0.00, 0.00, 0.00, 0.00
27, 5848.53, 52449.06, 2086.56, 24781.56, -12988.22, -353.14, 11712.69, -46077.36, -20903.73, 32646.06, -1955.78, -180159.50, 0.00, 0.00, 0.00, 0.00, 0.00, 0.00, 0.00
28, 5848.53, 52449.06, 2086.56, 24781.56, -12988.22, -353.14, 11712.69, -46077.36, -20908.63, 32645.10, -1954.88, -187500.02, 0.00, 0.00, 0.00, 0.00, 0.00, 0.00, 0.00
29, 5800.88, 52394.48, 2034.84, 24722.95, -13035.94, -403.74, 11654.04, -46127.20, -20908.63, 32645.10, -1954.88, -187500.02, 0.00, 0.00, 0.00, 0.00, 0.00, 0.00, 0.00
30, 5800.88, 52394.48, 2034.84, 24722.95, -13035.94, -403.74, 11654.04, -46127.20, -20906.12, 32639.69, -1969.52, -179194.53, 0.00, 0.00, 0.00, 0.00, 0.00, 0.00, 0.00
31, 5841.61, 52445.48, 2078.69, 24777.18, -12993.07, -354.52, 11710.08, -46076.20, -20906.12, 32639.69, -1969.52, -179194.53, 0.00, 0.00, 0.00, 0.00, 0.04, 0.31, 0.97
32, 5841.61, 52445.48, 2078.69, 24777.18, -12993.07, -354.52, 11710.08, -46076.20, -20904.18, 32657.89, -1957.32, -187500.02, 0.00, 0.00, 0.00, 0.00, 0.00, 0.00, 0.00
33, 5800.46, 52391.86, 2032.13, 24720.47, -13037.08, -401.62, 11657.46, -46126.29, -20904.18, 32657.89, -1957.32, -187500.02, 0.00, 0.00, 0.00, 0.00, 0.00, 0.00, 0.00
34, 5800.46, 52391.86, 2032.13, 24720.47, -13037.08, -401.62, 11657.46, -46126.29, -20910.08, 32633.97, -1971.02, -178770.50, 0.00, 0.00, 0.00, 0.00, 0.00, 0.00, 0.00
35, 5842.75, 52440.12, 2079.70, 24774.72, -12991.84, -358.14, 11709.50, -46081.96, -20910.08, 32633.97, -1971.02, -178770.50, 0.00, 0.00, 0.00, 0.00, 0.00, 0.00, 0.00
36, 5842.75, 52440.12, 2079.70, 24774.72, -12991.84, -358.14, 11709.50, -46081.96, -20903.11, 32656.23, -1952.80, -187500.02, 0.00, 0.00, 0.00, 0.00, 0.00, 0.00, 0.00
37, 5812.48, 52399.84, 2040.56, 24727.42, -13032.34, -400.63, 11659.54, -46125.93, -20903.11, 32656.23, -1952.80, -187500.02, 0.00, 0.00, 0.00, 0.00, 0.00, 0.00, 0.00
38, 5812.48, 52399.84, 2040.56, 24727.42, -13032.34, -400.63, 11659.54, -46125.93, -20912.16, 32623.73, -1968.81, -178899.95, 0.00, 0.00, 0.00, 0.00, 0.00, 0.00, 0.00
39, 5841.74, 52441.26, 2076.86, 24772.71, -12996.40, -361.18, 11704.98, -46088.51, -20912.16, 32623.73, -1968.81, -178899.95, 0.00, 0.00, 0.00, 0.00, 0.00, 0.00, 0.00
40, 5841.74, 52441.26, 2076.86, 24772.71, -12996.40, -361.18, 11704.98, -46088.51, -20897.54, 32659.43, -1952.85, -187500.02, 0.00, 0.00, 0.00, 0.00, 0.00, 0.00, 0.00
41, 5811.90, 52406.46, 2044.38, 24728.47, -13029.14, -397.28, 11664.24, -46122.13, -20897.54, 32659.43, -1952.85, -187500.02, 0.00, 0.00, 0.00, 0.00, 0.03, 0.31, 0.97
42, 5811.90, 52406.46, 2044.38, 24728.47, -13029.14, -397.28, 11664.24, -46122.13, -20917.41, 32615.46, -1974.89, -179484.53, 0.00, 0.00, 0.00, 0.00, 0.00, 0.00, 0.00
43, 5840.29, 52439.74, 2071.83, 24765.75, -13004.33, -365.90, 11700.02, -46094.17, -20917.41, 32615.46, -1974.89, -179484.53, 0.00, 0.00, 0.00, 0.00, 0.00, 0.00, 0.00
44, 5840.29, 52439.74, 2071.83, 24765.75, -13004.33, -365.90, 11700.02, -46094.17, -20894.97, 32666.56, -1950.99, -187500.02, 0.00, 0.00, 0.00, 0.00, 0.00, 0.00, 0.00
45, 5820.84, 52413.90, 2051.00, 24737.08, -13022.93, -389.08, 11671.50, -46118.15, -20894.97, 32666.56, -1950.99, -187500.02, 0.00, 0.00, 0.00, 0.00, 0.00, 0.00, 0.00
46, 5820.84, 52413.90, 2051.00, 24737.08, -13022.93, -389.08, 11671.50, -46118.15, -20919.40, 32608.89, -1973.23, -180599.19, 0.00, 0.00, 0.00, 0.00, 0.00, 0.00, 0.00
47, 5839.64, 52436.18, 2069.10, 24757.44, -13008.58, -373.12, 11691.62, -46104.02, -20919.40, 32608.89, -1973.23, -180599.19, 0.00, 0.00, 0.00, 0.00, 0.00, 0.00, 0.00
48, 5839.64, 52436.18, 2069.10, 24757.44, -13008.58, -373.12, 11691.62, -46104.02, -20892.98, 32664.93, -1949.52, -187297.08, 0.00, 0.00, 0.00, 0.00, 0.00, 0.00, 0.00
49, 5832.58, 52426.51, 2061.03, 24747.63, -13016.72, -383.11, 11679.88, -46114.62, -20892.98, 32664.93, -1949.52, -187297.08, 0.00, 0.00, 0.00, 0.00, 0.00, 0.00, 0.00
50, 5832.58, 52426.51, 2061.03, 24747.63, -13016.72, -383.11, 11679.88, -46114.62, -20913.14, 32611.87, -1965.97, -181453.42, 0.00, 0.00, 0.00, 0.00, 0.00, 0.00, 0.00
51, 5838.16, 52431.54, 2065.55, 24754.49, -13010.64, -375.80, 11690.68, -46105.75, -20913.14, 32611.87, -1965.97, -181453.42, 0.00, 0.00, 0.00, 0.00, 0.03, 0.31, 0.96
52, 5838.16, 52431.54, 2065.55, 24754.49, -13010.64, -375.80, 11690.68, -46105.75, -20889.98, 32666.22, -1953.50, -185893.69, 0.00, 0.00, 0.00, 0.00, 0.00, 0.00, 0.00
53, 5833.74, 52428.90, 2060.96, 24747.83, -13016.67, -381.14, 11683.50, -46111.74, -20889.98, 32666.22, -1953.50, -185893.69, 0.00, 0.00, 0.00, 0.00, 0.00, 0.00, 0.00
54, 5833.74, 52428.90, 2060.96, 24747.83, -13016.67, -381.14, 11683.50, -46111.74, -20916.02, 32605.05, -1970.13, -181994.05, 0.00, 0.00, 0.00, 0.00, 0.00, 0.00, 0.00
55, 5826.65, 52431.11, 2057.75, 24744.14, -13020.76, -386.77, 11679.32, -46115.76, -20916.02, 32605.05, -1970.13, -181994.05, 0.00, 0.00, 0.00, 0.00, 0.00, 0.00, 0.00
56, 5826.65, 52431.11, 2057.75, 24744.14, -13020.76, -386.77, 11679.32, -46115.76, -20888.29, 32666.00, -1954.08, -184473.70, 0.00, 0.00, 0.00, 0.00, 0.00, 0.00, 0.00
57, 5838.88, 52430.51, 2068.79, 24759.07, -13006.10, -373.68, 11694.54, -46101.39, -20888.29, 32666.00, -1954.08, -184473.70, 0.00, 0.00, 0.00, 0.00, 0.00, 0.00, 0.00
58, 5838.88, 52430.51, 2068.79, 24759.07, -13006.10, -373.68, 11694.54, -46101.39, -20912.92, 32613.29, -1966.98, -182957.50, 0.00, 0.00, 0.00, 0.00, 0.00, 0.00, 0.00
59, 5822.20, 52416.96, 2054.55, 24739.85, -13026.17, -391.07, 11676.62, -46117.10, -20912.92, 32613.29, -1966.98, -182957.50, 0.00, 0.00, 0.00, 0.00, 0.00, 0.00, 0.00
60, 5822.20, 52416.96, 2054.55, 24739.85, -13026.17, -391.07, 11676.62, -46117.10, -20880.84, 32667.03, -1947.64, -183195.97, 0.00, 0.00, 0.00, 0.00, 0.03, 0.30, 0.96
61, 5845.34, 52445.46, 2079.38, 24768.30, -12997.34, -364.45, 11704.45, -46096.52, -20880.84, 32667.03, -1947.64, -183195.97, 0.00, 0.00, 0.00, 0.00, 0.00, 0.00, 0.00
62, 5845.34, 52445.46, 2079.38, 24768.30, -12997.34, -364.45, 11704.45, -46096.52, -20903.46, 32622.21, -1961.63, -184216.36, 0.00, 0.00, 0.00, 0.00, 0.00, 0.00, 0.00
63, 5818.09, 52411.87, 2050.59, 24736.25, -13024.79, -391.71, 11674.23, -46123.05, -20903.46, 32622.21, -1961.63, -184216.36, 0.00, 0.00, 0.00, 0.00, 0.00, 0.00, 0.00
64, 5818.09, 52411.87, 2050.59, 24736.25, -13024.79, -391.71, 11674.23, -46123.05, -20874.65, 32668.55, -1948.09, -182197.05, 0.00, 0.00, 0.00, 0.00, 0.00, 0.00, 0.00
65, 5846.52, 52443.85, 2081.91, 24775.10, -12990.70, -356.93, 11715.40, -46087.33, -20874.65, 32668.55, -1948.09, -182197.05, 0.00, 0.00, 0.00, 0.00, 0.00, 0.00, 0.00
66, 5846.52, 52443.85, 2081.91, 24775.10, -12990.70, -356.93, 11715.40, -46087.33, -20893.54, 32633.61, -1962.17, -185647.09, 0.00, 0.00, 0.00, 0.00, 0.00, 0.00, 0.00
67, 5809.58, 52408.58, 2044.29, 24730.39, -13031.67, -395.83, 11669.67, -46128.48, -20893.54, 32633.61, -1962.17, -185647.09, 0.00, 0.00, 0.00, 0.00, 0.00, 0.00, 0.00
68, 5809.58, 52408.58, 2044.29, 24730.39, -13031.67, -395.83, 11669.67, -46128.48, -20878.90, 32660.72, -1958.37, -181539.00, 0.00, 0.00, 0.00, 0.00, 0.00, 0.00, 0.00
69, 5842.23, 52440.43, 2077.44, 24775.79, -12990.50, -353.81, 11717.68, -46083.93, -20878.90, 32660.72, -1958.37, -181539.00, 0.00, 0.00, 0.00, 0.00, 0.00, 0.00, 0.00
70, 5842.23, 52440.43, 2077.44, 24775.79, -12990.50, -353.81, 11717.68, -46083.93, -20887.28, 32643.31, -1958.91, -187127.53, 0.00, 0.00, 0.00, 0.00, 0.03, 0.30, 0.96
71, 5810.27, 52395.06, 2039.98, 24727.67, -13028.63, -397.01, 11671.68, -46123.56, -20887.28, 32643.31, -1958.91, -187127.53, 0.00, 0.00, 0.00, 0.00, 0.00, 0.00, 0.00
72, 5810.27, 52395.06, 2039.98, 24727.67, -13028.63, -397.01, 11671.68, -46123.56, -20877.20, 32655.47, -1957.86, -180804.55, 0.00, 0.00, 0.00, 0.00, 0.00, 0.00, 0.00
73, 5854.70, 52454.49, 2092.03, 24786.29, -12981.78, -346.50, 11726.40, -46078.28, -20877.20, 32655.47, -1957.86, -180804.55, 0.00, 0.00, 0.00, 0.00, 0.00, 0.00, 0.00
74, 5854.70, 52454.49, 2092.03, 24786.29, -12981.78, -346.50, 11726.40, -46078.28, -20886.12, 32645.75, -1955.26, -187500.02, 0.00, 0.00, 0.00, 0.00, 0.00, 0.00, 0.00
75, 5810.07, 52399.48, 2042.86, 24729.50, -13031.25, -395.54, 11669.98, -46126.45, -20886.12, 32645.75, -1955.26, -187500.02, 0.00, 0.00, 0.00, 0.00, 0.00, 0.00, 0.00
76, 5810.07, 52399.48, 2042.86, 24729.50, -13031.25, -395.54, 11669.98, -46126.45, -20877.71, 32653.73, -1963.38, -179664.05, 0.00, 0.00, 0.00, 0.00, 0.00, 0.00, 0.00
77, 5854.75, 52455.88, 2091.05, 24783.48, -12981.04, -346.12, 11729.08, -46075.30, -20877.71, 32653.73, -1963.38, -179664.05, 0.00, 0.00, 0.00, 0.00, 0.00, 0.00, 0.00
78, 5854.75, 52455.88, 2091.05, 24783.48, -12981.04, -346.12, 11729.08, -46075.30, -20875.66, 32659.36, -1950.95, -187500.02, 0.00, 0.00, 0.00, 0.00, 0.00, 0.00, 0.00
79, 5811.48, 52406.23, 2046.26, 24731.91, -13026.75, -395.54, 11672.95, -46126.78, -20875.66, 32659.36, -1950.95, -187500.02, 0.00, 0.00, 0.00, 0.00, 0.00, 0.00, 0.00
80, 5811.48, 52406.23, 2046.26, 24731.91, -13026.75, -395.54, 11672.95, -46126.78, -20877.78, 32643.65, -1956.36, -178846.83, 0.00, 0.00, 0.00, 0.00, 0.03, 0.31, 0.96
81, 5858.08, 52459.70, 2097.00, 24788.46, -12977.09, -344.89, 11731.11, -46074.70, -20877.78, 32643.65, -1956.36, -178846.83, 0.00, 0.00, 0.00, 0.00, 0.00, 0.00, 0.00
82, 5858.08, 52459.70, 2097.00, 24788.46, -12977.09, -344.89, 11731.11, -46074.70, -20869.02, 32666.96, -1940.89, -187500.02, 0.00, 0.00, 0.00, 0.00, 0.00, 0.00, 0.00
83, 5823.84, 52413.65, 2056.41, 24738.84, -13021.57, -389.77, 11679.03, -46120.75, -20869.02, 32666.96, -1940.89, -187500.02, 0.00, 0.00, 0.00, 0.00, 0.00, 0.00, 0.00
84, 5823.84, 52413.65, 2056.41, 24738.84, -13021.57, -389.77, 11679.03, -46120.75, -20880.31, 32639.96, -1955.51, -178522.03, 0.00, 0.00, 0.00, 0.00, 0.00, 0.00, 0.00
85, 5861.92, 52465.58, 2102.03, 24790.14, -12974.67, -342.72, 11733.64, -46075.84, -20880.31, 32639.96, -1955.51, -178522.03, 0.00, 0.00, 0.00, 0.00, 0.00, 0.00, 0.00
86, 5861.92, 52465.58, 2102.03, 24790.14, -12974.67, -342.72, 11733.64, -46075.84, -20858.51, 32679.30, -1921.04, -187500.02, 0.00, 0.00, 0.00, 0.00, 0.00, 0.00, 0.00
87, 5835.17, 52428.52, 2075.83, 24755.09, -13000.91, -373.74, 11696.91, -46108.23, -20858.51, 32679.30, -1921.04, -187500.02, 0.00, 0.00, 0.00, 0.00, 0.00, 0.00, 0.00
88, 5835.17, 52428.52, 2075.83, 24755.09, -13000.91, -373.74, 11696.91, -46108.23, -20876.06, 32640.90, -1946.30, -178859.09, 0.00, 0.00, 0.00, 0.00, 0.00, 0.00, 0.00
89, 5854.30, 52452.05, 2088.99, 24768.44, -12991.01, -357.96, 11721.63, -46085.23, -20876.06, 32640.90, -1946.30, -178859.09, 0.00, 0.00, 0.00, 0.00, 0.00, 0.00, 0.00
90, 5854.30, 52452.05, 2088.99, 24768.44, -12991.01, -357.96, 11721.63, -46085.23, -20863.01, 32678.32, -1931.28, -187500.02, 0.00, 0.00, 0.00, 0.00, 0.03, 0.31, 0.96
91, 5833.98, 52425.70, 2064.00, 24730.82, -13022.48, -391.24, 11681.63, -46119.63, -20863.01, 32678.32, -1931.28, -187500.02, 0.00, 0.00, 0.00, 0.00, 0.00, 0.00, 0.00
92, 5833.98, 52425.70, 2064.00, 24730.82, -13022.48, -391.24, 11681.63, -46119.63, -20888.96, 32622.50, -1946.64, -179799.95, 0.00, 0.00, 0.00, 0.00, 0.00, 0.00, 0.00
93, 5854.88, 52459.50, 2093.04, 24756.97, -12997.16, -364.27, 11715.62, -46091.04, -20888.96, 32622.50, -1946.64, -179799.95, 0.00, 0.00, 0.00, 0.00, 0.00, 0.00, 0.00
94, 5854.88, 52459.50, 2093.04, 24756.97, -12997.16, -364.27, 11715.62, -46091.04, -20859.14, 32681.58, -1901.93, -187500.02, 0.00, 0.00, 0.00, 0.00, 0.00, 0.00, 0.00
95, 5844.42, 52447.41, 2084.77, 24735.80, -13004.83, -379.04, 11697.76, -46106.11, -20859.14, 32681.58, -1901.93, -187500.02, 0.00, 0.00, 0.00, 0.00, 0.00, 0.00, 0.00
96, 5844.42, 52447.41, 2084.77, 24735.80, -13004.83, -379.04, 11697.76, -46106.11, -20889.18, 32619.78, -1932.64, -181159.98, 0.00, 0.00, 0.00, 0.00, 0.00, 0.00, 0.00
97, 5858.62, 52461.62, 2095.16, 24752.99, -12996.24, -365.97, 11712.85, -46094.79, -20889.18, 32619.78, -1932.64, -181159.98, 0.00, 0.00, 0.00, 0.00, 0.00, 0.00, 0.00
98, 5858.62, 52461.62, 2095.16, 24752.99, -12996.24, -365.97, 11712.85, -46094.79, -20858.11, 32683.52, -1904.35, -186653.13, 0.00, 0.00, 0.00, 0.00, 0.00, 0.00, 0.00
99, 5853.61, 52455.79, 2090.92, 24748.86, -12999.80, -372.07, 11705.54, -46101.68, -20858.11, 32683.52, -1904.35, -186653.13, 0.00, 0.00, 0.00, 0.00, 0.03, 0.31, 0.96
100, 5853.61, 52455.79, 2090.92, 24748.86, -12999.80, -372.07, 11705.54, -46101.68, -20887.19, 32624.63, -1926.54, -181599.84, 0.00, 0.00, 0.00, 0.00, 0.00, 0.00, 0.00
101, 5855.60, 52461.04, 2094.22, 24749.86, -12998.21, -372.02, 11708.56, -46099.64, -20887.19, 32624.63, -1926.54, -181599.84, 0.00, 0.00, 0.00, 0.00, 0.00, 0.00, 0.00
102, 5855.60, 52461.04, 2094.22, 24749.86, -12998.21, -372.02, 11708.56, -46099.64, -20856.39, 32682.72, -1904.03, -185255.83, 0.00, 0.00, 0.00, 0.00, 0.00, 0.00, 0.00
103, 5869.32, 52473.09, 2104.77, 24760.03, -12990.39, -364.38, 11714.21, -46094.35, -20856.39, 32682.72, -1904.03, -185255.83, 0.00, 0.00, 0.00, 0.00, 0.00, 0.00, 0.00
104, 5869.32, 52473.09, 2104.77, 24760.03, -12990.39, -364.38, 11714.21, -46094.35, -20884.55, 32618.28, -1924.26, -182337.61, 0.00, 0.00, 0.00, 0.00, 0.00, 0.00, 0.00
105, 5853.77, 52450.11, 2089.13, 24744.07, -13007.08, -377.74, 11698.37, -46108.94, -20884.55, 32618.28, -1924.26, -182337.61, 0.00, 0.00, 0.00, 0.00, 0.00, 0.00, 0.00
106, 5853.77, 52450.11, 2089.13, 24744.07, -13007.08, -377.74, 11698.37, -46108.94, -20862.63, 32672.13, -1907.10, -183869.11, 0.00, 0.00, 0.00, 0.00, 0.00, 0.00, 0.00
107, 5870.95, 52466.58, 2102.81, 24766.47, -12989.07, -359.80, 11717.30, -46093.83, -20862.63, 32672.13, -1907.10, -183869.11, 0.00, 0.00, 0.00, 0.00, 0.00, 0.00, 0.00
108, 5870.95, 52466.58, 2102.81, 24766.47, -12989.07, -359.80, 11717.30, -46093.83, -20884.82, 32623.96, -1924.04, -183422.98, 0.00, 0.00, 0.00, 0.00, 0.00, 0.00, 0.00
109, 5854.19, 52448.23, 2086.60, 24741.35, -13010.21, -381.16, 11694.32, -46118.04, -20884.82, 32623.96, -1924.04, -183422.98, 0.00, 0.00, 0.00, 0.00, 0.03, 0.31, 0.96
110, 5854.19, 52448.23, 2086.60, 24741.35, -13010.21, -381.16, 11694.32, -46118.04, -20858.49, 32670.47, -1907.48, -182662.89, 0.00, 0.00, 0.00, 0.00, 0.00, 0.00, 0.00
111, 5886.13, 52482.50, 2117.63, 24776.48, -12977.71, -351.91, 11729.73, -46087.06, -20858.49, 32670.47, -1907.48, -182662.89, 0.00, 0.00, 0.00, 0.00, 0.00, 0.00, 0.00
112, 5886.13, 52482.50, 2117.63, 24776.48, -12977.71, -351.91, 11729.73, -46087.06, -20880.24, 32625.34, -1917.15, -184735.69, 0.00, 0.00, 0.00, 0.00, 0.00, 0.00, 0.00
113, 5852.76, 52446.73, 2081.75, 24739.67, -13012.85, -385.90, 11689.54, -46122.04, -20880.24, 32625.34, -1917.15, -184735.69, 0.00, 0.00, 0.00, 0.00, 0.00, 0.00, 0.00
114, 5852.76, 52446.73, 2081.75, 24739.67, -13012.85, -385.90, 11689.54, -46122.04, -20856.23, 32667.34, -1908.93, -181778.06, 0.00, 0.00, 0.00, 0.00, 0.00, 0.00, 0.00
115, 5882.96, 52487.75, 2119.15, 24779.81, -12973.96, -347.64, 11733.15, -46083.04, -20856.23, 32667.34, -1908.93, -181778.06, 0.00, 0.00, 0.00, 0.00, 0.00, 0.00, 0.00
116, 5882.96, 52487.75, 2119.15, 24779.81, -12973.96, -347.64, 11733.15, -46083.04, -20873.98, 32634.57, -1917.51, -186194.11, 0.00, 0.00, 0.00, 0.00, 0.00, 0.00, 0.00
117, 5844.40, 52432.03, 2074.17, 24731.40, -13018.06, -390.55, 11684.89, -46126.78, -20873.98, 32634.57, -1917.51, -186194.11, 0.00, 0.00, 0.00, 0.00, 0.00, 0.00, 0.00
118, 5844.40, 52432.03, 2074.17, 24731.40, -13018.06, -390.55, 11684.89, -46126.78, -20858.07, 32660.23, -1917.04, -181264.28, 0.00, 0.00, 0.00, 0.00, 0.00, 0.00, 0.00
119, 5882.46, 52480.75, 2117.25, 24781.94, -12974.76, -345.63, 11736.14, -46083.66, -20858.07, 32660.23, -1917.04, -181264.28, 0.00, 0.00, 0.00, 0.00, 0.03, 0.31, 0.96
120, 5882.46, 52480.75, 2117.25, 24781.94, -12974.76, -345.63, 11736.14, -46083.66, -20869.96, 32642.24, -1918.27, -187500.02, 0.00, 0.00, 0.00, 0.00, 0.00, 0.00, 0.00
121, 5835.08, 52438.31, 2072.50, 24726.06, -13018.55, -393.44, 11682.94, -46125.48, -20869.96, 32642.24, -1918.27, -187500.02, 0.00, 0.00, 0.00, 0.00, 0.00, 0.00, 0.00
122, 5835.08, 52438.31, 2072.50, 24726.06, -13018.55, -393.44, 11682.94, -46125.48, -20856.08, 32656.79, -1916.53, -179936.44, 0.00, 0.00, 0.00, 0.00, 0.00, 0.00, 0.00
123, 5879.58, 52480.96, 2118.57, 24785.69, -12970.05, -343.03, 11742.20, -46078.34, -20856.08, 32656.79, -1916.53, -179936.44, 0.00, 0.00, 0.00, 0.00, 0.00, 0.00, 0.00
124, 5879.58, 52480.96, 2118.57, 24785.69, -12970.05, -343.03, 11742.20, -46078.34, -20859.34, 32657.73, -1911.72, -187500.02, 0.00, 0.00, 0.00, 0.00, 0.00, 0.00, 0.00
125, 5833.74, 52425.34, 2068.21, 24727.55, -13020.70, -392.72, 11685.49, -46127.65, -20859.34, 32657.73, -1911.72, -187500.02, 0.00, 0.00, 0.00, 0.00, 0.00, 0.00, 0.00
126, 5833.74, 52425.34, 2068.21, 24727.55, -13020.70, -392.72, 11685.49, -46127.65, -20859.38, 32650.31, -1925.63, -178889.77, 0.00, 0.00, 0.00, 0.00, 0.00, 0.00, 0.00
127, 5876.59, 52479.21, 2116.64, 24784.75, -12971.92, -343.05, 11742.22, -46077.14, -20859.38, 32650.31, -1925.63, -178889.77, 0.00, 0.00, 0.00, 0.00, 0.00, 0.00, 0.00
128, 5876.59, 52479.21, 2116.64, 24784.75, -12971.92, -343.05, 11742.22, -46077.14, -20850.42, 32666.67, -1913.26, -187500.02, 0.00, 0.00, 0.00, 0.00, 0.00, 0.00, 0.00
129, 5836.60, 52425.30, 2068.81, 24729.84, -13018.21, -391.27, 11688.35, -46125.01, -20850.42, 32666.67, -1913.26, -187500.02, 0.00, 0.00, 0.00, 0.00, 0.03, 0.31, 0.96
130, 5836.60, 52425.30, 2068.81, 24729.84, -13018.21, -391.27, 11688.35, -46125.01, -20859.07, 32643.58, -1923.05, -178426.77, 0.00, 0.00, 0.00, 0.00, 0.00, 0.00, 0.00
131, 5877.44, 52477.09, 2116.51, 24782.05, -12968.73, -342.03, 11745.93, -46075.44, -20859.07, 32643.58, -1923.05, -178426.77, 0.00, 0.00, 0.00, 0.00, 0.00, 0.00, 0.00
132, 5877.44, 52477.09, 2116.51, 24782.05, -12968.73, -342.03, 11745.93, -46075.44, -20846.96, 32671.41, -1910.49, -187500.02, 0.00, 0.00, 0.00, 0.00, 0.00, 0.00, 0.00
133, 5834.25, 52422.75, 2070.49, 24731.36, -13016.56, -387.89, 11690.41, -46123.65, -20846.96, 32671.41, -1910.49, -187500.02, 0.00, 0.00, 0.00, 0.00, 0.00, 0.00, 0.00
134, 5834.25, 52422.75, 2070.49, 24731.36, -13016.56, -387.89, 11690.41, -46123.65, -20859.70, 32638.66, -1930.54, -178481.73, 0.00, 0.00, 0.00, 0.00, 0.00, 0.00, 0.00
135, 5871.94, 52467.43, 2111.08, 24777.18, -12977.94, -347.21, 11738.69, -46081.05, -20859.70, 32638.66, -1930.54, -178481.73, 0.00, 0.00, 0.00, 0.00, 0.00, 0.00, 0.00
136, 5871.94, 52467.43, 2111.08, 24777.18, -12977.94, -347.21, 11738.69, -46081.05, -20844.79, 32678.36, -1911.21, -187500.02, 0.00, 0.00, 0.00, 0.00, 0.00, 0.00, 0.00
137, 5844.42, 52436.43, 2078.20, 24736.16, -13011.38, -383.11, 11696.51, -46117.95, -20844.79, 32678.36, -1911.21, -187500.02, 0.00, 0.00, 0.00, 0.00, 0.00, 0.00, 0.00
138, 5844.42, 52436.43, 2078.20, 24736.16, -13011.38, -383.11, 11696.51, -46117.95, -20862.13, 32629.72, -1929.29, -179063.44, 0.00, 0.00, 0.00, 0.00, 0.03, 0.31, 0.96
139, 5869.55, 52475.68, 2107.81, 24771.10, -12984.37, -353.00, 11732.01, -46089.68, -20862.13, 32629.72, -1929.29, -179063.44, 0.00, 0.00, 0.00, 0.00, 0.00, 0.00, 0.00
140, 5869.55, 52475.68, 2107.81, 24771.10, -12984.37, -353.00, 11732.01, -46089.68, -20840.21, 32678.52, -1909.20, -187500.02, 0.00, 0.00, 0.00, 0.00, 0.00, 0.00, 0.00
141, 5844.35, 52436.09, 2078.82, 24739.11, -13008.47, -380.31, 11699.75, -46116.18, -20840.21, 32678.52, -1909.20, -187500.02, 0.00, 0.00, 0.00, 0.00, 0.00, 0.00, 0.00
142, 5844.35, 52436.09, 2078.82, 24739.11, -13008.47, -380.31, 11699.75, -46116.18, -20867.48, 32623.51, -1933.16, -180113.55, 0.00, 0.00, 0.00, 0.00, 0.00, 0.00, 0.00
143, 5859.80, 52456.77, 2095.83, 24761.28, -12993.65, -362.10, 11723.29, -46097.25, -20867.48, 32623.51, -1933.16, -180113.55, 0.00, 0.00, 0.00, 0.00, 0.00, 0.00, 0.00
144, 5859.80, 52456.77, 2095.83, 24761.28, -12993.65, -362.10, 11723.29, -46097.25, -20844.99, 32677.60, -1916.77, -187290.41, 0.00, 0.00, 0.00, 0.00, 0.00, 0.00, 0.00
145, 5847.75, 52443.45, 2084.75, 24744.72, -13006.86, -375.62, 11706.06, -46111.20, -20844.99, 32677.60, -1916.77, -187290.41, 0.00, 0.00, 0.00, 0.00, 0.00, 0.00, 0.00
146, 5847.75, 52443.45, 2084.75, 24744.72, -13006.86, -375.62, 11706.06, -46111.20, -20867.07, 32624.52, -1933.18, -181235.20, 0.00, 0.00, 0.00, 0.00, 0.00, 0.00, 0.00
147, 5855.15, 52451.43, 2092.10, 24755.67, -12997.14, -365.72, 11717.70, -46101.84, -20867.07, 32624.52, -1933.18, -181235.20, 0.00, 0.00, 0.00, 0.00, 0.00, 0.00, 0.00
148, 5855.15, 52451.43, 2092.10, 24755.67, -12997.14, -365.72, 11717.70, -46101.84, -20836.07, 32686.01, -1912.44, -185894.47, 0.00, 0.00, 0.00, 0.00, 0.03, 0.30, 0.96
149, 5854.64, 52448.79, 2088.70, 24747.07, -12999.89, -371.46, 11712.96, -46107.20, -20836.07, 32686.01, -1912.44, -185894.47, 0.00, 0.00, 0.00, 0.00, 0.00, 0.00, 0.00
150, 5854.64, 52448.79, 2088.70, 24747.07, -12999.89, -371.46, 11712.96, -46107.20, -20866.56, 32621.43, -1935.12, -181741.17, 0.00, 0.00, 0.00, 0.00, 0.00, 0.00, 0.00
151, 5844.31, 52446.73, 2083.32, 24744.63, -13003.93, -373.97, 11709.77, -46106.55, -20866.56, 32621.43, -1935.12, -181741.17, 0.00, 0.00, 0.00, 0.00, 0.00, 0.00, 0.00
152, 5844.31, 52446.73, 2083.32, 24744.63, -13003.93, -373.97, 11709.77, -46106.55, -20833.57, 32686.03, -1913.60, -184482.19, 0.00, 0.00, 0.00, 0.00, 0.00, 0.00, 0.00
153, 5855.04, 52467.61, 2095.27, 24753.51, -12990.88, -363.80, 11724.05, -46095.78, -20833.57, 32686.03, -1913.60, -184482.19, 0.00, 0.00, 0.00, 0.00, 0.00, 0.00, 0.00
154, 5855.04, 52467.61, 2095.27, 24753.51, -12990.88, -363.80, 11724.05, -46095.78, -20855.88, 32630.95, -1928.80, -182649.69, 0.00, 0.00, 0.00, 0.00, 0.00, 0.00, 0.00
155, 5844.02, 52445.75, 2081.60, 24739.02, -13005.34, -378.26, 11708.47, -46111.00, -20855.88, 32630.95, -1928.80, -182649.69, 0.00, 0.00, 0.00, 0.00, 0.00, 0.00, 0.00
156, 5844.02, 52445.75, 2081.60, 24739.02, -13005.34, -378.26, 11708.47, -46111.00, -20829.25, 32684.75, -1910.05, -183179.38, 0.00, 0.00, 0.00, 0.00, 0.00, 0.00, 0.00
157, 5861.32, 52459.95, 2101.11, 24763.81, -12983.59, -355.86, 11731.92, -46090.61, -20829.25, 32684.75, -1910.05, -183179.38, 0.00, 0.00, 0.00, 0.00, 0.00, 0.00, 0.00
158, 5861.32, 52459.95, 2101.11, 24763.81, -12983.59, -355.86, 11731.92, -46090.61, -20851.90, 32636.07, -1927.59, -183856.81, 0.00, 0.00, 0.00, 0.00, 0.03, 0.31, 0.97
159, 5839.04, 52432.23, 2072.39, 24731.94, -13012.07, -383.76, 11701.67, -46116.43, -20851.90, 32636.07, -1927.59, -183856.81, 0.00, 0.00, 0.00, 0.00, 0.00, 0.00, 0.00
160, 5839.04, 52432.23, 2072.39, 24731.94, -13012.07, -383.76, 11701.67, -46116.43, -20827.02, 32681.76, -1917.94, -182135.13, 0.00, 0.00, 0.00, 0.00, 0.00, 0.00, 0.00
161, 5864.81, 52474.25, 2105.27, 24767.63, -12976.53, -349.36, 11741.21, -46080.09, -20827.02, 32681.76, -1917.94, -182135.13, 0.00, 0.00, 0.00, 0.00, 0.00, 0.00, 0.00
162, 5864.81, 52474.25, 2105.27, 24767.63, -12976.53, -349.36, 11741.21, -46080.09, -20849.15, 32643.13, -1929.87, -185335.56, 0.00, 0.00, 0.00, 0.00, 0.00, 0.00, 0.00
163, 5829.00, 52428.63, 2064.07, 24725.30, -13019.09, -388.72, 11695.73, -46120.45, -20849.15, 32643.13, -1929.87, -185335.56, 0.00, 0.00, 0.00, 0.00, 0.00, 0.00, 0.00
164, 5829.00, 52428.63, 2064.07, 24725.30, -13019.09, -388.72, 11695.73, -46120.45, -20828.09, 32677.85, -1922.25, -181448.30, 0.00, 0.00, 0.00, 0.00, 0.00, 0.00, 0.00
165, 5866.24, 52470.56, 2104.30, 24770.04, -12975.12, -346.90, 11745.84, -46076.27, -20828.09, 32677.85, -1922.25, -181448.30, 0.00, 0.00, 0.00, 0.00, 0.00, 0.00, 0.00
166, 5866.24, 52470.56, 2104.30, 24770.04, -12975.12, -346.90, 11745.84, -46076.27, -20840.50, 32649.57, -1925.27, -186836.19, 0.00, 0.00, 0.00, 0.00, 0.00, 0.00, 0.00
167, 5825.47, 52419.44, 2058.62, 24717.09, -13024.43, -396.65, 11689.00, -46129.42, -20840.50, 32649.57, -1925.27, -186836.19, 0.00, 0.00, 0.00, 0.00, 0.00, 0.00, 0.00
168, 5825.47, 52419.44, 2058.62, 24717.09, -13024.43, -396.65, 11689.00, -46129.42, -20834.40, 32664.70, -1926.56, -180709.25, 0.00, 0.00, 0.00, 0.00, 0.03, 0.31, 0.97
169, 5864.94, 52470.54, 2102.38, 24768.75, -12981.09, -350.39, 11741.04, -46086.84, -20834.40, 32664.70, -1926.56, -180709.25, 0.00, 0.00, 0.00, 0.00, 0.00, 0.00, 0.00
170, 5864.94, 52470.54, 2102.38, 24768.75, -12981.09, -350.39, 11741.04, -46086.84, -20847.02, 32647.61, -1933.34, -187500.02, 0.00, 0.00, 0.00, 0.00, 0.00, 0.00, 0.00
171, 5825.22, 52422.02, 2056.09, 24712.56, -13027.04, -399.49, 11685.38, -46133.98, -20847.02, 32647.61, -1933.34, -187500.02, 0.00, 0.00, 0.00, 0.00, 0.00, 0.00, 0.00
172, 5825.22, 52422.02, 2056.09, 24712.56, -13027.04, -399.49, 11685.38, -46133.98, -20836.54, 32655.85, -1938.19, -179402.92, 0.00, 0.00, 0.00, 0.00, 0.00, 0.00, 0.00
173, 5868.16, 52471.25, 2101.49, 24770.45, -12981.67, -349.89, 11742.62, -46085.09, -20836.54, 32655.85, -1938.19, -179402.92, 0.00, 0.00, 0.00, 0.00, 0.00, 0.00, 0.00
174, 5868.16, 52471.25, 2101.49, 24770.45, -12981.67, -349.89, 11742.62, -46085.09, -20843.94, 32656.66, -1932.80, -187500.02, 0.00, 0.00, 0.00, 0.00, 0.00, 0.00, 0.00
175, 5817.71, 52410.77, 2050.53, 24708.80, -13032.83, -403.09, 11680.15, -46141.82, -20843.94, 32656.66, -1932.80, -187500.02, 0.00, 0.00, 0.00, 0.00, 0.00, 0.00, 0.00
176, 5817.71, 52410.77, 2050.53, 24708.80, -13032.83, -403.09, 11680.15, -46141.82, -20838.82, 32647.96, -1935.95, -178629.50, 0.00, 0.00, 0.00, 0.00, 0.00, 0.00, 0.00
177, 5869.57, 52477.96, 2106.14, 24770.81, -12976.75, -347.50, 11744.75, -46081.76, -20838.82, 32647.96, -1935.95, -178629.50, 0.00, 0.00, 0.00, 0.00, 0.00, 0.00, 0.00
178, 5869.57, 52477.96, 2106.14, 24770.81, -12976.75, -347.50, 11744.75, -46081.76, -20829.81, 32670.96, -1916.77, -187500.02, 0.00, 0.00, 0.00, 0.00, 0.04, 0.31, 0.97
179, 5839.15, 52427.31, 2064.21, 24719.64, -13021.32, -393.06, 11690.97, -46130.22, -20829.81, 32670.96, -1916.77, -187500.02, 0.00, 0.00, 0.00, 0.00, 0.00, 0.00, 0.00
180, 5839.15, 52427.31, 2064.21, 24719.64, -13021.32, -393.06, 11690.97, -46130.22, -20839.71, 32639.47, -1933.52, -178382.00, 0.00, 0.00, 0.00, 0.00, 0.00, 0.00, 0.00
181, 5876.88, 52483.21, 2109.60, 24771.77, -12979.41, -348.15, 11742.67, -46084.24, -20839.71, 32639.47, -1933.52, -178382.00, 0.00, 0.00, 0.00, 0.00, 0.00, 0.00, 0.00
182, 5876.88, 52483.21, 2109.60, 24771.77, -12979.41, -348.15, 11742.67, -46084.24, -20825.48, 32674.72, -1911.68, -187500.02, 0.00, 0.00, 0.00, 0.00, 0.00, 0.00, 0.00
183, 5842.88, 52442.33, 2071.31, 24721.56, -13016.90, -391.67, 11695.55, -46127.65, -20825.48, 32674.72, -1911.68, -187500.02, 0.00, 0.00, 0.00, 0.00, 0.00, 0.00, 0.00
184, 5842.88, 52442.33, 2071.31, 24721.56, -13016.90, -391.67, 11695.55, -46127.65, -20838.15, 32636.90, -1930.12, -178628.30, 0.00, 0.00, 0.00, 0.00, 0.00, 0.00, 0.00
185, 5873.90, 52476.86, 2107.32, 24765.89, -12981.83, -352.51, 11740.68, -46087.06, -20838.15, 32636.90, -1930.12, -178628.30, 0.00, 0.00, 0.00, 0.00, 0.00, 0.00, 0.00
186, 5873.90, 52476.86, 2107.32, 24765.89, -12981.83, -352.51, 11740.68, -46087.06, -20816.65, 32684.20, -1907.10, -187500.02, 0.00, 0.00, 0.00, 0.00, 0.00, 0.00, 0.00
187, 5849.47, 52446.51, 2079.54, 24731.73, -13009.83, -383.20, 11705.32, -46116.95, -20816.65, 32684.20, -1907.10, -187500.02, 0.00, 0.00, 0.00, 0.00, 0.03, 0.31, 0.96
188, 5849.47, 52446.51, 2079.54, 24731.73, -13009.83, -383.20, 11705.32, -46116.95, -20831.54, 32637.37, -1924.66, -179440.78, 0.00, 0.00, 0.00, 0.00, 0.00, 0.00, 0.00
189, 5871.00, 52479.93, 2106.74, 24764.66, -12983.01, -353.54, 11739.96, -46088.67, -20831.54, 32637.37, -1924.66, -179440.78, 0.00, 0.00, 0.00, 0.00, 0.00, 0.00, 0.00
190, 5871.00, 52479.93, 2106.74, 24764.66, -12983.01, -353.54, 11739.96, -46088.67, -20806.21, 32694.83, -1901.82, -187500.02, 0.00, 0.00, 0.00, 0.00, 0.00, 0.00, 0.00
191, 5858.48, 52458.11, 2089.66, 24742.15, -12998.68, -373.16, 11717.39, -46106.44, -20806.21, 32694.83, -1901.82, -187500.02, 0.00, 0.00, 0.00, 0.00, 0.00, 0.00, 0.00
192, 5858.48, 52458.11, 2089.66, 24742.15, -12998.68, -373.16, 11717.39, -46106.44, -20830.37, 32641.37, -1925.49, -180662.91, 0.00, 0.00, 0.00, 0.00, 0.00, 0.00, 0.00
193, 5871.00, 52469.89, 2100.13, 24757.84, -12985.45, -357.05, 11737.79, -46088.51, -20830.37, 32641.37, -1925.49, -180662.91, 0.00, 0.00, 0.00, 0.00, 0.00, 0.00, 0.00
194, 5871.00, 52469.89, 2100.13, 24757.84, -12985.45, -357.05, 11737.79, -46088.51, -20799.68, 32706.08, -1899.90, -186597.44, 0.00, 0.00, 0.00, 0.00, 0.00, 0.00, 0.00
195, 5861.57, 52463.88, 2092.46, 24748.16, -12991.59, -364.62, 11727.13, -46093.90, -20799.68, 32706.08, -1899.90, -186597.44, 0.00, 0.00, 0.00, 0.00, 0.00, 0.00, 0.00
196, 5861.57, 52463.88, 2092.46, 24748.16, -12991.59, -364.62, 11727.13, -46093.90, -20832.85, 32639.45, -1932.31, -181380.89, 0.00, 0.00, 0.00, 0.00, 0.00, 0.00, 0.00
197, 5857.21, 52465.46, 2091.16, 24747.09, -12994.92, -367.40, 11727.20, -46099.89, -20832.85, 32639.45, -1932.31, -181380.89, 0.00, 0.00, 0.00, 0.00, 0.03, 0.32, 0.97
198, 5857.21, 52465.46, 2091.16, 24747.09, -12994.92, -367.40, 11727.20, -46099.89, -20806.48, 32695.28, -1908.88, -185184.42, 0.00, 0.00, 0.00, 0.00, 0.00, 0.00, 0.00
199, 5858.82, 52461.78, 2091.45, 24749.08, -12993.16, -365.23, 11726.26, -46101.48, -20806.48, 32695.28, -1908.88, -185184.42, 0.00, 0.00, 0.00, 0.00, 0.00, 0.00, 0.00
200, 5858.82, 52461.78, 2091.45, 24749.08, -12993.16, -365.23, 11726.26, -46101.48, -20840.81, 32629.66, -1931.10, -182085.17, 0.00, 0.00, 0.00, 0.00, 0.00, 0.00, 0.00
201, 5852.11, 52459.36, 2082.96, 24737.99, -13003.69, -377.01, 11714.42, -46110.98, -20840.81, 32629.66, -1931.10, -182085.17, 0.00, 0.00, 0.00, 0.00, 0.00, 0.00, 0.00
202, 5852.11, 52459.36, 2082.96, 24737.99, -13003.69, -377.01, 11714.42, -46110.98, -20806.32, 32685.42, -1914.16, -183846.72, 0.00, 0.00, 0.00, 0.00, 0.00, 0.00, 0.00
