%OpenBCI Raw EEG Data
%
%Sample Rate = 250.0 Hz
%First Column = SampleIndex
%Other Columns = EEG data in microvolts followed by Accel Data (in G) interleaved with Aux Data
0, 0.00, 0.00, 0.00, 0.00, 0.00, 0.00, 0.00, 0.00, -11198.27, 34346.34, -4664.90, -14164.81, 0.00, 0.00, 0.00, 0.00, 0.08, 0.35, 0.95
1, 2741.20, 57993.43, 1805.84, 27518.46, -19175.49, -1397.90, 9790.67, -49990.37, -11198.27, 34346.34, -4664.90, -14164.81, 0.00, 0.00, 0.00, 0.00, 0.00, 0.00, 0.00
2, 2741.20, 57993.43, 1805.84, 27518.46, -19175.49, -1397.90, 9790.67, -49990.37, -11368.43, 34234.36, -4199.71, -11518.12, 0.00, 0.00, 0.00, 0.00, 0.00, 0.00, 0.00
3, 2721.91, 57956.75, 1778.80, 27492.69, -19194.16, -1412.81, 9753.25, -50019.92, -11368.43, 34234.36, -4199.71, -11518.12, 0.00, 0.00, 0.00, 0.00, 0.00, 0.00, 0.00
4, 2721.91, 57956.75, 1778.80, 27492.69, -19194.16, -1412.81, 9753.25, -50019.92, -11371.38, 34209.30, -4230.34, -11509.27, 0.00, 0.00, 0.00, 0.00, 0.00, 0.00, 0.00
5, 2741.37, 57981.25, 1797.77, 27507.87, -19179.61, -1406.33, 9795.96, -49990.66, -11371.38, 34209.30, -4230.34, -11509.27, 0.00, 0.00, 0.00, 0.00, 0.00, 0.00, 0.00
6, 2741.37, 57981.25, 1797.77, 27507.87, -19179.61, -1406.33, 9795.96, -49990.66, -11366.73, 34239.12, -4194.24, -11530.97, 0.00, 0.00, 0.00, 0.00, 0.00, 0.00, 0.00
7, 2736.55, 57962.47, 1786.02, 27494.14, -19193.46, -1411.45, 9761.03, -50009.43, -11366.73, 34239.12, -4194.24, -11530.97, 0.00, 0.00, 0.00, 0.00, 0.08, 0.36, 0.95
8, 2736.55, 57962.47, 1786.02, 27494.14, -19193.46, -1411.45, 9761.03, -50009.43, -11372.57, 34205.05, -4233.33, -11497.13, 0.00, 0.00, 0.00, 0.00, 0.00, 0.00, 0.00
9, 2726.51, 57958.54, 1790.29, 27511.31, -19187.88, -1397.50, 9787.49, -49991.89, -11372.57, 34205.05, -4233.33, -11497.13, 0.00, 0.00, 0.00, 0.00, 0.00, 0.00, 0.00
10, 2726.51, 57958.54, 1790.29, 27511.31, -19187.88, -1397.50, 9787.49, -49991.89, -11366.11, 34241.08, -4201.23, -11508.94, 0.00, 0.00, 0.00, 0.00, 0.00, 0.00, 0.00
11, 2720.99, 57947.32, 1780.12, 27494.48, -19195.74, -1412.36, 9773.17, -50008.67, -11366.11, 34241.08, -4201.23, -11508.94, 0.00, 0.00, 0.00, 0.00, 0.00, 0.00, 0.00
12, 2720.99, 57947.32, 1780.12, 27494.48, -19195.74, -1412.36, 9773.17, -50008.67, -11374.56, 34199.29, -4242.85, -11462.18, 0.00, 0.00, 0.00, 0.00, 0.00, 0.00, 0.00
13, 2728.30, 57964.40, 1787.02, 27503.22, -19177.64, -1407.00, 9783.45, -49989.72, -11374.56, 34199.29, -4242.85, -11462.18, 0.00, 0.00, 0.00, 0.00, 0.00, 0.00, 0.00
14, 2728.30, 57964.40, 1787.02, 27503.22, -19177.64, -1407.00, 9783.45, -49989.72, -11361.37, 34241.64, -4196.88, -11543.49, 0.00, 0.00, 0.00, 0.00, 0.00, 0.00, 0.00
15, 2735.34, 57972.53, 1790.35, 27505.88, -19189.38, -1404.34, 9783.04, -49998.01, -11361.37, 34241.64, -4196.88, -11543.49, 0.00, 0.00, 0.00, 0.00, 0.00, 0.00, 0.00
16, 2735.34, 57972.53, 1790.35, 27505.88, -19189.38, -1404.34, 9783.04, -49998.01, -11370.09, 34206.73, -4232.97, -11481.91, 0.00, 0.00, 0.00, 0.00, 0.08, 0.36, 0.95
17, 2736.73, 57971.93, 1795.83, 27506.23, -19185.26, -1405.63, 9792.05, -49991.13, -11370.09, 34206.73, -4232.97, -11481.91, 0.00, 0.00, 0.00, 0.00, 0.00, 0.00, 0.00
18, 2736.73, 57971.93, 1795.83, 27506.23, -19185.26, -1405.63, 9792.05, -49991.13, -11354.91, 34257.98, -4188.45, -11492.35, 0.00, 0.00, 0.00, 0.00, 0.00, 0.00, 0.00
19, 2745.84, 57986.91, 1803.90, 27516.58, -19174.85, -1392.76, 9798.20, -49979.08, -11354.91, 34257.98, -4188.45, -11492.35, 0.00, 0.00, 0.00, 0.00, 0.00, 0.00, 0.00
20, 2745.84, 57986.91, 1803.90, 27516.58, -19174.85, -1392.76, 9798.20, -49979.08, -11358.55, 34217.23, -4222.18, -11423.46, 0.00, 0.00, 0.00, 0.00, 0.00, 0.00, 0.00
21, 2740.61, 57971.41, 1796.66, 27508.49, -19172.12, -1401.07, 9788.72, -49987.04, -11358.55, 34217.23, -4222.18, -11423.46, 0.00, 0.00, 0.00, 0.00, 0.00, 0.00, 0.00
22, 2740.61, 57971.41, 1796.66, 27508.49, -19172.12, -1401.07, 9788.72, -49987.04, -11358.98, 34246.98, -4195.36, -11519.89, 0.00, 0.00, 0.00, 0.00, 0.00, 0.00, 0.00
23, 2752.26, 57987.89, 1803.41, 27515.62, -19172.10, -1394.03, 9811.12, -49973.78, -11358.98, 34246.98, -4195.36, -11519.89, 0.00, 0.00, 0.00, 0.00, 0.00, 0.00, 0.00
24, 2752.26, 57987.89, 1803.41, 27515.62, -19172.10, -1394.03, 9811.12, -49973.78, -11358.44, 34225.06, -4221.82, -11433.19, 0.00, 0.00, 0.00, 0.00, 0.00, 0.00, 0.00
25, 2730.00, 57962.96, 1787.56, 27493.09, -19190.98, -1413.64, 9792.95, -49993.27, -11358.44, 34225.06, -4221.82, -11433.19, 0.00, 0.00, 0.00, 0.00, 0.00, 0.00, 0.00
26, 2730.00, 57962.96, 1787.56, 27493.09, -19190.98, -1413.64, 9792.95, -49993.27, -11362.13, 34244.32, -4199.78, -11494.76, 0.00, 0.00, 0.00, 0.00, 0.09, 0.35, 0.95
27, 2726.69, 57973.32, 1798.20, 27514.28, -19170.31, -1393.85, 9811.88, -49971.48, -11362.13, 34244.32, -4199.78, -11494.76, 0.00, 0.00, 0.00, 0.00, 0.00, 0.00, 0.00
28, 2726.69, 57973.32, 1798.20, 27514.28, -19170.31, -1393.85, 9811.88, -49971.48, -11356.18, 34229.06, -4221.95, -11432.92, 0.00, 0.00, 0.00, 0.00, 0.00, 0.00, 0.00
29, 2731.43, 57969.05, 1792.03, 27500.65, -19173.50, -1400.65, 9801.49, -49978.72, -11356.18, 34229.06, -4221.95, -11432.92, 0.00, 0.00, 0.00, 0.00, 0.00, 0.00, 0.00
30, 2731.43, 57969.05, 1792.03, 27500.65, -19173.50, -1400.65, 9801.49, -49978.72, -11349.57, 34256.75, -4197.21, -11475.09, 0.00, 0.00, 0.00, 0.00, 0.00, 0.00, 0.00
31, 2751.16, 57993.21, 1810.00, 27529.12, -19160.65, -1381.05, 9829.76, -49953.75, -11349.57, 34256.75, -4197.21, -11475.09, 0.00, 0.00, 0.00, 0.00, 0.00, 0.00, 0.00
32, 2751.16, 57993.21, 1810.00, 27529.12, -19160.65, -1381.05, 9829.76, -49953.75, -11361.21, 34228.81, -4212.75, -11424.89, 0.00, 0.00, 0.00, 0.00, 0.00, 0.00, 0.00
33, 2726.02, 57957.69, 1782.60, 27496.51, -19185.78, -1405.66, 9798.56, -49988.40, -11361.21, 34228.81, -4212.75, -11424.89, 0.00, 0.00, 0.00, 0.00, 0.00, 0.00, 0.00
34, 2726.02, 57957.69, 1782.60, 27496.51, -19185.78, -1405.66, 9798.56, -49988.40, -11357.08, 34238.56, -4205.32, -11475.52, 0.00, 0.00, 0.00, 0.00, 0.00, 0.00, 0.00
35, 2745.06, 57976.18, 1813.20, 27527.31, -19157.63, -1381.38, 9840.51, -49948.57, -11357.08, 34238.56, -4205.32, -11475.52, 0.00, 0.00, 0.00, 0.00, 0.00, 0.00, 0.00
36, 2745.06, 57976.18, 1813.20, 27527.31, -19157.63, -1381.38, 9840.51, -49948.57, -11358.75, 34237.15, -4206.20, -11425.36, 0.00, 0.00, 0.00, 0.00, 0.08, 0.36, 0.95
37, 2719.51, 57953.38, 1791.09, 27495.84, -19171.94, -1403.35, 9812.77, -49972.53, -11358.75, 34237.15, -4206.20, -11425.36, 0.00, 0.00, 0.00, 0.00, 0.00, 0.00, 0.00
38, 2719.51, 57953.38, 1791.09, 27495.84, -19171.94, -1403.35, 9812.77, -49972.53, -11352.67, 34249.02, -4207.98, -11437.79, 0.00, 0.00, 0.00, 0.00, 0.00, 0.00, 0.00
39, 2743.92, 57991.98, 1814.38, 27531.31, -19144.49, -1373.85, 9848.38, -49934.62, -11352.67, 34249.02, -4207.98, -11437.79, 0.00, 0.00, 0.00, 0.00, 0.00, 0.00, 0.00
40, 2743.92, 57991.98, 1814.38, 27531.31, -19144.49, -1373.85, 9848.38, -49934.62, -11357.66, 34241.55, -4205.28, -11418.03, 0.00, 0.00, 0.00, 0.00, 0.00, 0.00, 0.00
41, 2723.74, 57946.88, 1782.82, 27497.03, -19172.74, -1400.07, 9818.07, -49969.27, -11357.66, 34241.55, -4205.28, -11418.03, 0.00, 0.00, 0.00, 0.00, 0.00, 0.00, 0.00
42, 2723.74, 57946.88, 1782.82, 27497.03, -19172.74, -1400.07, 9818.07, -49969.27, -11350.91, 34246.25, -4215.20, -11448.92, 0.00, 0.00, 0.00, 0.00, 0.00, 0.00, 0.00
43, 2751.37, 57984.02, 1815.81, 27536.05, -19150.97, -1366.74, 9868.36, -49926.55, -11350.91, 34246.25, -4215.20, -11448.92, 0.00, 0.00, 0.00, 0.00, 0.00, 0.00, 0.00
44, 2751.37, 57984.02, 1815.81, 27536.05, -19150.97, -1366.74, 9868.36, -49926.55, -11343.08, 34260.75, -4195.42, -11401.65, 0.00, 0.00, 0.00, 0.00, 0.00, 0.00, 0.00
45, 2729.73, 57961.09, 1796.12, 27506.93, -19155.71, -1389.00, 9848.29, -49945.57, -11343.08, 34260.75, -4195.42, -11401.65, 0.00, 0.00, 0.00, 0.00, 0.00, 0.00, 0.00
46, 2729.73, 57961.09, 1796.12, 27506.93, -19155.71, -1389.00, 9848.29, -49945.57, -11345.30, 34239.72, -4215.87, -11394.76, 0.00, 0.00, 0.00, 0.00, 0.08, 0.36, 0.96
47, 2745.67, 57981.52, 1812.32, 27540.30, -19144.27, -1360.24, 9870.78, -49921.61, -11345.30, 34239.72, -4215.87, -11394.76, 0.00, 0.00, 0.00, 0.00, 0.00, 0.00, 0.00
48, 2745.67, 57981.52, 1812.32, 27540.30, -19144.27, -1360.24, 9870.78, -49921.61, -11345.97, 34265.34, -4197.72, -11403.97, 0.00, 0.00, 0.00, 0.00, 0.00, 0.00, 0.00
49, 2739.76, 57965.78, 1798.09, 27517.03, -19150.88, -1376.91, 9853.83, -49936.88, -11345.97, 34265.34, -4197.72, -11403.97, 0.00, 0.00, 0.00, 0.00, 0.00, 0.00, 0.00
50, 2739.76, 57965.78, 1798.09, 27517.03, -19150.88, -1376.91, 9853.83, -49936.88, -11340.83, 34246.65, -4216.14, -11389.76, 0.00, 0.00, 0.00, 0.00, 0.00, 0.00, 0.00
51, 2755.41, 57994.13, 1824.91, 27548.57, -19125.72, -1348.82, 9892.88, -49900.13, -11340.83, 34246.65, -4216.14, -11389.76, 0.00, 0.00, 0.00, 0.00, 0.00, 0.00, 0.00
52, 2755.41, 57994.13, 1824.91, 27548.57, -19125.72, -1348.82, 9892.88, -49900.13, -11333.72, 34282.52, -4185.01, -11420.18, 0.00, 0.00, 0.00, 0.00, 0.00, 0.00, 0.00
53, 2736.81, 57968.29, 1804.14, 27518.77, -19138.01, -1374.05, 9875.65, -49920.70, -11333.72, 34282.52, -4185.01, -11420.18, 0.00, 0.00, 0.00, 0.00, 0.00, 0.00, 0.00
54, 2736.81, 57968.29, 1804.14, 27518.77, -19138.01, -1374.05, 9875.65, -49920.70, -11346.71, 34241.04, -4221.40, -11350.95, 0.00, 0.00, 0.00, 0.00, 0.00, 0.00, 0.00
55, 2747.86, 57990.14, 1818.11, 27541.86, -19134.75, -1356.13, 9901.53, -49903.17, -11346.71, 34241.04, -4221.40, -11350.95, 0.00, 0.00, 0.00, 0.00, 0.09, 0.36, 0.95
56, 2747.86, 57990.14, 1818.11, 27541.86, -19134.75, -1356.13, 9901.53, -49903.17, -11347.89, 34274.97, -4187.98, -11416.56, 0.00, 0.00, 0.00, 0.00, 0.00, 0.00, 0.00
57, 2744.57, 57985.09, 1805.75, 27521.84, -19143.35, -1367.19, 9885.15, -49916.18, -11347.89, 34274.97, -4187.98, -11416.56, 0.00, 0.00, 0.00, 0.00, 0.00, 0.00, 0.00
58, 2744.57, 57985.09, 1805.75, 27521.84, -19143.35, -1367.19, 9885.15, -49916.18, -11331.46, 34256.48, -4220.19, -11356.99, 0.00, 0.00, 0.00, 0.00, 0.00, 0.00, 0.00
59, 2750.02, 57986.79, 1817.42, 27542.71, -19123.30, -1348.17, 9903.48, -49888.91, -11331.46, 34256.48, -4220.19, -11356.99, 0.00, 0.00, 0.00, 0.00, 0.00, 0.00, 0.00
60, 2750.02, 57986.79, 1817.42, 27542.71, -19123.30, -1348.17, 9903.48, -49888.91, -11336.58, 34285.86, -4186.79, -11426.43, 0.00, 0.00, 0.00, 0.00, 0.00, 0.00, 0.00
61, 2733.17, 57957.76, 1805.26, 27529.28, -19128.80, -1355.14, 9896.30, -49902.05, -11336.58, 34285.86, -4186.79, -11426.43, 0.00, 0.00, 0.00, 0.00, 0.00, 0.00, 0.00
62, 2733.17, 57957.76, 1805.26, 27529.28, -19128.80, -1355.14, 9896.30, -49902.05, -11349.90, 34236.55, -4230.49, -11316.91, 0.00, 0.00, 0.00, 0.00, 0.00, 0.00, 0.00
63, 2739.09, 57970.27, 1807.23, 27529.32, -19131.73, -1356.44, 9906.65, -49898.19, -11349.90, 34236.55, -4230.49, -11316.91, 0.00, 0.00, 0.00, 0.00, 0.00, 0.00, 0.00
64, 2739.09, 57970.27, 1807.23, 27529.32, -19131.73, -1356.44, 9906.65, -49898.19, -11338.57, 34287.08, -4190.80, -11407.21, 0.00, 0.00, 0.00, 0.00, 0.00, 0.00, 0.00
65, 2743.70, 57987.15, 1818.18, 27539.34, -19119.48, -1346.96, 9924.31, -49878.70, -11338.57, 34287.08, -4190.80, -11407.21, 0.00, 0.00, 0.00, 0.00, 0.08, 0.36, 0.95
66, 2743.70, 57987.15, 1818.18, 27539.34, -19119.48, -1346.96, 9924.31, -49878.70, -11335.69, 34253.60, -4224.77, -11308.60, 0.00, 0.00, 0.00, 0.00, 0.00, 0.00, 0.00
67, 2738.16, 57979.15, 1807.88, 27531.43, -19132.69, -1352.71, 9918.65, -49882.88, -11335.69, 34253.60, -4224.77, -11308.60, 0.00, 0.00, 0.00, 0.00, 0.00, 0.00, 0.00
68, 2738.16, 57979.15, 1807.88, 27531.43, -19132.69, -1352.71, 9918.65, -49882.88, -11336.33, 34284.67, -4194.93, -11389.40, 0.00, 0.00, 0.00, 0.00, 0.00, 0.00, 0.00
69, 2736.37, 57972.09, 1812.68, 27541.97, -19116.26, -1338.69, 9928.38, -49873.16, -11336.33, 34284.67, -4194.93, -11389.40, 0.00, 0.00, 0.00, 0.00, 0.00, 0.00, 0.00
70, 2736.37, 57972.09, 1812.68, 27541.97, -19116.26, -1338.69, 9928.38, -49873.16, -11329.76, 34262.32, -4226.45, -11313.18, 0.00, 0.00, 0.00, 0.00, 0.00, 0.00, 0.00
71, 2746.49, 57971.53, 1807.09, 27538.80, -19122.56, -1340.19, 9929.45, -49868.91, -11329.76, 34262.32, -4226.45, -11313.18, 0.00, 0.00, 0.00, 0.00, 0.00, 0.00, 0.00
72, 2746.49, 57971.53, 1807.09, 27538.80, -19122.56, -1340.19, 9929.45, -49868.91, -11326.39, 34296.14, -4190.97, -11368.95, 0.00, 0.00, 0.00, 0.00, 0.00, 0.00, 0.00
73, 2753.06, 57984.87, 1821.56, 27550.38, -19109.29, -1330.47, 9944.45, -49854.16, -11326.39, 34296.14, -4190.97, -11368.95, 0.00, 0.00, 0.00, 0.00, 0.00, 0.00, 0.00
74, 2753.06, 57984.87, 1821.56, 27550.38, -19109.29, -1330.47, 9944.45, -49854.16, -11338.24, 34263.50, -4220.59, -11305.47, 0.00, 0.00, 0.00, 0.00, 0.00, 0.00, 0.00
75, 2733.39, 57983.04, 1804.75, 27531.07, -19121.02, -1346.89, 9932.29, -49868.35, -11338.24, 34263.50, -4220.59, -11305.47, 0.00, 0.00, 0.00, 0.00, 0.08, 0.36, 0.95
76, 2733.39, 57983.04, 1804.75, 27531.07, -19121.02, -1346.89, 9932.29, -49868.35, -11326.97, 34298.46, -4197.41, -11337.50, 0.00, 0.00, 0.00, 0.00, 0.00, 0.00, 0.00
77, 2752.13, 57982.93, 1824.46, 27558.07, -19105.38, -1325.70, 9959.83, -49839.23, -11326.97, 34298.46, -4197.41, -11337.50, 0.00, 0.00, 0.00, 0.00, 0.00, 0.00, 0.00
78, 2752.13, 57982.93, 1824.46, 27558.07, -19105.38, -1325.70, 9959.83, -49839.23, -11323.88, 34277.38, -4213.10, -11284.79, 0.00, 0.00, 0.00, 0.00, 0.00, 0.00, 0.00
79, 2738.94, 57961.83, 1805.26, 27536.05, -19113.45, -1334.60, 9940.07, -49853.69, -11323.88, 34277.38, -4213.10, -11284.79, 0.00, 0.00, 0.00, 0.00, 0.00, 0.00, 0.00
80, 2738.94, 57961.83, 1805.26, 27536.05, -19113.45, -1334.60, 9940.07, -49853.69, -11315.12, 34309.84, -4197.41, -11308.24, 0.00, 0.00, 0.00, 0.00, 0.00, 0.00, 0.00
81, 2763.12, 57995.15, 1833.98, 27569.31, -19089.10, -1309.25, 9976.90, -49820.50, -11315.12, 34309.84, -4197.41, -11308.24, 0.00, 0.00, 0.00, 0.00, 0.00, 0.00, 0.00
82, 2763.12, 57995.15, 1833.98, 27569.31, -19089.10, -1309.25, 9976.90, -49820.50, -11319.44, 34291.15, -4205.46, -11298.81, 0.00, 0.00, 0.00, 0.00, 0.00, 0.00, 0.00
83, 2740.70, 57976.85, 1814.38, 27538.49, -19106.23, -1336.39, 9950.82, -49845.28, -11319.44, 34291.15, -4205.46, -11298.81, 0.00, 0.00, 0.00, 0.00, 0.00, 0.00, 0.00
84, 2740.70, 57976.85, 1814.38, 27538.49, -19106.23, -1336.39, 9950.82, -49845.28, -11315.21, 34302.55, -4197.30, -11285.31, 0.00, 0.00, 0.00, 0.00, 0.00, 0.00, 0.00
85, 2760.46, 58005.90, 1841.05, 27575.86, -19091.32, -1304.69, 9990.76, -49812.22, -11315.21, 34302.55, -4197.30, -11285.31, 0.00, 0.00, 0.00, 0.00, 0.08, 0.36, 0.95
86, 2760.46, 58005.90, 1841.05, 27575.86, -19091.32, -1304.69, 9990.76, -49812.22, -11308.51, 34304.36, -4193.48, -11279.94, 0.00, 0.00, 0.00, 0.00, 0.00, 0.00, 0.00
87, 2736.52, 57973.70, 1809.69, 27529.73, -19105.00, -1341.93, 9958.28, -49844.95, -11308.51, 34304.36, -4193.48, -11279.94, 0.00, 0.00, 0.00, 0.00, 0.00, 0.00, 0.00
88, 2736.52, 57973.70, 1809.69, 27529.73, -19105.00, -1341.93, 9958.28, -49844.95, -11317.63, 34294.82, -4198.53, -11306.07, 0.00, 0.00, 0.00, 0.00, 0.00, 0.00, 0.00
89, 2762.32, 58003.20, 1835.50, 27571.86, -19091.23, -1305.79, 9991.41, -49809.41, -11317.63, 34294.82, -4198.53, -11306.07, 0.00, 0.00, 0.00, 0.00, 0.00, 0.00, 0.00
90, 2762.32, 58003.20, 1835.50, 27571.86, -19091.23, -1305.79, 9991.41, -49809.41, -11314.12, 34304.32, -4190.73, -11262.80, 0.00, 0.00, 0.00, 0.00, 0.00, 0.00, 0.00
91, 2741.84, 57983.60, 1819.30, 27539.85, -19091.90, -1329.48, 9965.66, -49834.22, -11314.12, 34304.32, -4190.73, -11262.80, 0.00, 0.00, 0.00, 0.00, 0.00, 0.00, 0.00
92, 2741.84, 57983.60, 1819.30, 27539.85, -19091.90, -1329.48, 9965.66, -49834.22, -11308.98, 34295.00, -4199.49, -11267.29, 0.00, 0.00, 0.00, 0.00, 0.00, 0.00, 0.00
93, 2763.01, 57997.16, 1833.27, 27571.64, -19077.84, -1307.62, 10000.53, -49801.29, -11308.98, 34295.00, -4199.49, -11267.29, 0.00, 0.00, 0.00, 0.00, 0.00, 0.00, 0.00
94, 2763.01, 57997.16, 1833.27, 27571.64, -19077.84, -1307.62, 10000.53, -49801.29, -11299.03, 34325.91, -4180.13, -11293.80, 0.00, 0.00, 0.00, 0.00, 0.08, 0.35, 0.95
95, 2749.49, 57992.63, 1824.95, 27548.99, -19084.59, -1325.26, 9985.73, -49817.84, -11299.03, 34325.91, -4180.13, -11293.80, 0.00, 0.00, 0.00, 0.00, 0.00, 0.00, 0.00
96, 2749.49, 57992.63, 1824.95, 27548.99, -19084.59, -1325.26, 9985.73, -49817.84, -11302.63, 34303.09, -4200.34, -11225.92, 0.00, 0.00, 0.00, 0.00, 0.00, 0.00, 0.00
97, 2766.01, 58011.36, 1844.40, 27579.64, -19075.16, -1296.62, 10010.16, -49793.45, -11302.63, 34303.09, -4200.34, -11225.92, 0.00, 0.00, 0.00, 0.00, 0.00, 0.00, 0.00
98, 2766.01, 58011.36, 1844.40, 27579.64, -19075.16, -1296.62, 10010.16, -49793.45, -11300.04, 34328.05, -4174.10, -11255.44, 0.00, 0.00, 0.00, 0.00, 0.00, 0.00, 0.00
99, 2754.63, 57991.24, 1825.15, 27552.14, -19091.25, -1320.27, 9988.95, -49819.24, -11300.04, 34328.05, -4174.10, -11255.44, 0.00, 0.00, 0.00, 0.00, 0.00, 0.00, 0.00
100, 2754.63, 57991.24, 1825.15, 27552.14, -19091.25, -1320.27, 9988.95, -49819.24, -11299.63, 34295.09, -4204.45, -11244.51, 0.00, 0.00, 0.00, 0.00, 0.00, 0.00, 0.00
101, 2766.43, 58015.07, 1842.14, 27571.81, -19065.19, -1309.19, 10012.53, -49796.20, -11299.63, 34295.09, -4204.45, -11244.51, 0.00, 0.00, 0.00, 0.00, 0.00, 0.00, 0.00
102, 2766.43, 58015.07, 1842.14, 27571.81, -19065.19, -1309.19, 10012.53, -49796.20, -11302.76, 34328.28, -4172.11, -11268.83, 0.00, 0.00, 0.00, 0.00, 0.00, 0.00, 0.00
103, 2760.95, 58007.40, 1834.61, 27560.08, -19079.05, -1311.13, 9999.03, -49810.14, -11302.76, 34328.28, -4172.11, -11268.83, 0.00, 0.00, 0.00, 0.00, 0.00, 0.00, 0.00
104, 2760.95, 58007.40, 1834.61, 27560.08, -19079.05, -1311.13, 9999.03, -49810.14, -11306.81, 34295.44, -4203.85, -11214.54, 0.00, 0.00, 0.00, 0.00, 0.08, 0.36, 0.95
105, 2771.17, 58015.02, 1842.68, 27574.99, -19071.96, -1304.07, 10021.07, -49794.66, -11306.81, 34295.44, -4203.85, -11214.54, 0.00, 0.00, 0.00, 0.00, 0.00, 0.00, 0.00
106, 2771.17, 58015.02, 1842.68, 27574.99, -19071.96, -1304.07, 10021.07, -49794.66, -11298.29, 34337.89, -4164.33, -11264.59, 0.00, 0.00, 0.00, 0.00, 0.00, 0.00, 0.00
107, 2767.30, 58009.37, 1842.10, 27565.02, -19081.06, -1308.94, 10017.90, -49803.48, -11298.29, 34337.89, -4164.33, -11264.59, 0.00, 0.00, 0.00, 0.00, 0.00, 0.00, 0.00
108, 2767.30, 58009.37, 1842.10, 27565.02, -19081.06, -1308.94, 10017.90, -49803.48, -11302.38, 34295.55, -4201.75, -11186.42, 0.00, 0.00, 0.00, 0.00, 0.00, 0.00, 0.00
109, 2766.16, 58001.97, 1837.67, 27567.70, -19076.19, -1310.37, 10022.25, -49797.90, -11302.38, 34295.55, -4201.75, -11186.42, 0.00, 0.00, 0.00, 0.00, 0.00, 0.00, 0.00
110, 2766.16, 58001.97, 1837.67, 27567.70, -19076.19, -1310.37, 10022.25, -49797.90, -11302.92, 34334.58, -4169.72, -11278.29, 0.00, 0.00, 0.00, 0.00, 0.00, 0.00, 0.00
111, 2759.10, 58008.18, 1837.11, 27568.15, -19069.55, -1307.73, 10015.66, -49801.79, -11302.92, 34334.58, -4169.72, -11278.29, 0.00, 0.00, 0.00, 0.00, 0.00, 0.00, 0.00
112, 2759.10, 58008.18, 1837.11, 27568.15, -19069.55, -1307.73, 10015.66, -49801.79, -11303.50, 34293.03, -4210.35, -11193.89, 0.00, 0.00, 0.00, 0.00, 0.00, 0.00, 0.00
113, 2760.55, 58006.89, 1835.53, 27569.80, -19071.25, -1302.28, 10023.71, -49792.89, -11303.50, 34293.03, -4210.35, -11193.89, 0.00, 0.00, 0.00, 0.00, 0.00, 0.00, 0.00
114, 2760.55, 58006.89, 1835.53, 27569.80, -19071.25, -1302.28, 10023.71, -49792.89, -11292.37, 34342.85, -4168.29, -11247.31, 0.00, 0.00, 0.00, 0.00, 0.08, 0.36, 0.95
115, 2766.32, 58017.80, 1842.16, 27572.55, -19078.85, -1302.64, 10035.31, -49792.00, -11292.37, 34342.85, -4168.29, -11247.31, 0.00, 0.00, 0.00, 0.00, 0.00, 0.00, 0.00
116, 2766.32, 58017.80, 1842.16, 27572.55, -19078.85, -1302.64, 10035.31, -49792.00, -11295.92, 34303.54, -4201.55, -11193.62, 0.00, 0.00, 0.00, 0.00, 0.00, 0.00, 0.00
117, 2763.70, 58000.59, 1833.25, 27560.64, -19061.57, -1319.13, 10035.37, -49795.80, -11295.92, 34303.54, -4201.55, -11193.62, 0.00, 0.00, 0.00, 0.00, 0.00, 0.00, 0.00
118, 2763.70, 58000.59, 1833.25, 27560.64, -19061.57, -1319.13, 10035.37, -49795.80, -11297.38, 34331.70, -4174.77, -11252.83, 0.00, 0.00, 0.00, 0.00, 0.00, 0.00, 0.00
119, 2762.52, 58005.73, 1836.96, 27578.54, -19067.63, -1294.93, 10033.74, -49792.51, -11297.38, 34331.70, -4174.77, -11252.83, 0.00, 0.00, 0.00, 0.00, 0.00, 0.00, 0.00
120, 2762.52, 58005.73, 1836.96, 27578.54, -19067.63, -1294.93, 10033.74, -49792.51, -11304.35, 34298.32, -4208.07, -11172.61, 0.00, 0.00, 0.00, 0.00, 0.00, 0.00, 0.00
121, 2753.60, 57994.13, 1827.61, 27560.84, -19078.98, -1310.77, 10027.01, -49801.81, -11304.35, 34298.32, -4208.07, -11172.61, 0.00, 0.00, 0.00, 0.00, 0.00, 0.00, 0.00
122, 2753.60, 57994.13, 1827.61, 27560.84, -19078.98, -1310.77, 10027.01, -49801.81, -11293.69, 34338.58, -4179.57, -11263.71, 0.00, 0.00, 0.00, 0.00, 0.00, 0.00, 0.00
123, 2766.27, 58020.43, 1845.11, 27577.40, -19058.97, -1296.56, 10055.47, -49773.38, -11293.69, 34338.58, -4179.57, -11263.71, 0.00, 0.00, 0.00, 0.00, 0.00, 0.00, 0.00
124, 2766.27, 58020.43, 1845.11, 27577.40, -19058.97, -1296.56, 10055.47, -49773.38, -11298.16, 34308.21, -4198.60, -11179.72, 0.00, 0.00, 0.00, 0.00, 0.08, 0.36, 0.95
125, 2748.44, 57995.42, 1826.61, 27555.70, -19073.59, -1316.83, 10029.99, -49801.56, -11298.16, 34308.21, -4198.60, -11179.72, 0.00, 0.00, 0.00, 0.00, 0.00, 0.00, 0.00
126, 2748.44, 57995.42, 1826.61, 27555.70, -19073.59, -1316.83, 10029.99, -49801.56, -11291.50, 34328.05, -4176.71, -11224.15, 0.00, 0.00, 0.00, 0.00, 0.00, 0.00, 0.00
127, 2772.31, 58019.23, 1846.77, 27580.38, -19055.40, -1296.02, 10063.27, -49773.15, -11291.50, 34328.05, -4176.71, -11224.15, 0.00, 0.00, 0.00, 0.00, 0.00, 0.00, 0.00
128, 2772.31, 58019.23, 1846.77, 27580.38, -19055.40, -1296.02, 10063.27, -49773.15, -11294.00, 34310.64, -4190.24, -11180.77, 0.00, 0.00, 0.00, 0.00, 0.00, 0.00, 0.00
129, 2757.42, 57999.13, 1830.74, 27558.38, -19068.72, -1313.01, 10044.87, -49790.95, -11294.00, 34310.64, -4190.24, -11180.77, 0.00, 0.00, 0.00, 0.00, 0.00, 0.00, 0.00
130, 2757.42, 57999.13, 1830.74, 27558.38, -19068.72, -1313.01, 10044.87, -49790.95, -11287.74, 34329.71, -4179.06, -11229.14, 0.00, 0.00, 0.00, 0.00, 0.00, 0.00, 0.00
131, 2772.18, 58022.60, 1847.98, 27587.26, -19046.68, -1286.63, 10074.49, -49763.09, -11287.74, 34329.71, -4179.06, -11229.14, 0.00, 0.00, 0.00, 0.00, 0.00, 0.00, 0.00
132, 2772.18, 58022.60, 1847.98, 27587.26, -19046.68, -1286.63, 10074.49, -49763.09, -11291.72, 34321.53, -4189.70, -11193.60, 0.00, 0.00, 0.00, 0.00, 0.00, 0.00, 0.00
133, 2751.54, 57995.62, 1824.37, 27552.57, -19072.81, -1315.87, 10050.39, -49795.01, -11291.72, 34321.53, -4189.70, -11193.60, 0.00, 0.00, 0.00, 0.00, 0.09, 0.35, 0.95
134, 2751.54, 57995.62, 1824.37, 27552.57, -19072.81, -1315.87, 10050.39, -49795.01, -11284.88, 34330.71, -4181.88, -11191.25, 0.00, 0.00, 0.00, 0.00, 0.00, 0.00, 0.00
135, 2783.75, 58044.73, 1862.21, 27592.71, -19040.65, -1283.68, 10086.27, -49752.90, -11284.88, 34330.71, -4181.88, -11191.25, 0.00, 0.00, 0.00, 0.00, 0.00, 0.00, 0.00
136, 2783.75, 58044.73, 1862.21, 27592.71, -19040.65, -1283.68, 10086.27, -49752.90, -11282.85, 34333.08, -4170.43, -11173.75, 0.00, 0.00, 0.00, 0.00, 0.00, 0.00, 0.00
137, 2756.31, 58006.84, 1830.50, 27555.52, -19059.20, -1311.89, 10047.67, -49789.52, -11282.85, 34333.08, -4170.43, -11173.75, 0.00, 0.00, 0.00, 0.00, 0.00, 0.00, 0.00
138, 2756.31, 58006.84, 1830.50, 27555.52, -19059.20, -1311.89, 10047.67, -49789.52, -11287.47, 34320.59, -4186.35, -11169.77, 0.00, 0.00, 0.00, 0.00, 0.00, 0.00, 0.00
139, 2785.25, 58039.68, 1862.39, 27595.64, -19041.50, -1277.94, 10102.18, -49748.81, -11287.47, 34320.59, -4186.35, -11169.77, 0.00, 0.00, 0.00, 0.00, 0.00, 0.00, 0.00
140, 2785.25, 58039.68, 1862.39, 27595.64, -19041.50, -1277.94, 10102.18, -49748.81, -11275.67, 34348.17, -4161.74, -11178.71, 0.00, 0.00, 0.00, 0.00, 0.00, 0.00, 0.00
141, 2763.21, 58011.25, 1839.08, 27560.50, -19052.76, -1308.29, 10068.97, -49779.21, -11275.67, 34348.17, -4161.74, -11178.71, 0.00, 0.00, 0.00, 0.00, 0.00, 0.00, 0.00
142, 2763.21, 58011.25, 1839.08, 27560.50, -19052.76, -1308.29, 10068.97, -49779.21, -11282.20, 34314.42, -4179.73, -11165.79, 0.00, 0.00, 0.00, 0.00, 0.00, 0.00, 0.00
143, 2783.17, 58038.05, 1862.17, 27592.78, -19031.64, -1284.67, 10099.59, -49750.85, -11282.20, 34314.42, -4179.73, -11165.79, 0.00, 0.00, 0.00, 0.00, 0.09, 0.36, 0.95
144, 2783.17, 58038.05, 1862.17, 27592.78, -19031.64, -1284.67, 10099.59, -49750.85, -11278.27, 34343.03, -4159.82, -11193.75, 0.00, 0.00, 0.00, 0.00, 0.00, 0.00, 0.00
145, 2765.60, 58009.44, 1837.38, 27561.29, -19053.68, -1307.78, 10072.12, -49778.72, -11278.27, 34343.03, -4159.82, -11193.75, 0.00, 0.00, 0.00, 0.00, 0.00, 0.00, 0.00
146, 2765.60, 58009.44, 1837.38, 27561.29, -19053.68, -1307.78, 10072.12, -49778.72, -11284.37, 34320.19, -4189.83, -11158.53, 0.00, 0.00, 0.00, 0.00, 0.00, 0.00, 0.00
147, 2781.83, 58039.86, 1856.80, 27591.60, -19041.61, -1282.54, 10103.41, -49751.32, -11284.37, 34320.19, -4189.83, -11158.53, 0.00, 0.00, 0.00, 0.00, 0.00, 0.00, 0.00
148, 2781.83, 58039.86, 1856.80, 27591.60, -19041.61, -1282.54, 10103.41, -49751.32, -11273.12, 34357.85, -4158.74, -11186.31, 0.00, 0.00, 0.00, 0.00, 0.00, 0.00, 0.00
149, 2772.53, 58018.11, 1844.87, 27569.78, -19045.72, -1299.82, 10087.88, -49773.49, -11273.12, 34357.85, -4158.74, -11186.31, 0.00, 0.00, 0.00, 0.00, 0.00, 0.00, 0.00
150, 2772.53, 58018.11, 1844.87, 27569.78, -19045.72, -1299.82, 10087.88, -49773.49, -11290.89, 34311.98, -4189.83, -11133.11, 0.00, 0.00, 0.00, 0.00, 0.00, 0.00, 0.00
151, 2778.25, 58033.66, 1855.64, 27591.51, -19038.90, -1280.93, 10103.75, -49753.28, -11290.89, 34311.98, -4189.83, -11133.11, 0.00, 0.00, 0.00, 0.00, 0.00, 0.00, 0.00
152, 2778.25, 58033.66, 1855.64, 27591.51, -19038.90, -1280.93, 10103.75, -49753.28, -11283.27, 34350.90, -4161.20, -11177.86, 0.00, 0.00, 0.00, 0.00, 0.00, 0.00, 0.00
153, 2773.43, 58018.71, 1847.22, 27576.75, -19043.30, -1292.56, 10094.56, -49764.53, -11283.27, 34350.90, -4161.20, -11177.86, 0.00, 0.00, 0.00, 0.00, 0.08, 0.35, 0.95
154, 2773.43, 58018.71, 1847.22, 27576.75, -19043.30, -1292.56, 10094.56, -49764.53, -11278.94, 34315.78, -4193.05, -11113.69, 0.00, 0.00, 0.00, 0.00, 0.00, 0.00, 0.00
155, 2780.42, 58037.35, 1858.10, 27586.68, -19042.68, -1285.31, 10114.63, -49750.54, -11278.94, 34315.78, -4193.05, -11113.69, 0.00, 0.00, 0.00, 0.00, 0.00, 0.00, 0.00
156, 2780.42, 58037.35, 1858.10, 27586.68, -19042.68, -1285.31, 10114.63, -49750.54, -11277.55, 34351.86, -4157.83, -11182.38, 0.00, 0.00, 0.00, 0.00, 0.00, 0.00, 0.00
157, 2777.11, 58022.54, 1851.08, 27580.82, -19033.83, -1287.73, 10101.18, -49761.82, -11277.55, 34351.86, -4157.83, -11182.38, 0.00, 0.00, 0.00, 0.00, 0.00, 0.00, 0.00
158, 2777.11, 58022.54, 1851.08, 27580.82, -19033.83, -1287.73, 10101.18, -49761.82, -11279.41, 34321.91, -4189.23, -11133.49, 0.00, 0.00, 0.00, 0.00, 0.00, 0.00, 0.00
159, 2781.16, 58032.10, 1860.89, 27590.05, -19028.69, -1284.09, 10116.31, -49747.65, -11279.41, 34321.91, -4189.23, -11133.49, 0.00, 0.00, 0.00, 0.00, 0.00, 0.00, 0.00
160, 2781.16, 58032.10, 1860.89, 27590.05, -19028.69, -1284.09, 10116.31, -49747.65, -11269.44, 34365.00, -4150.23, -11153.88, 0.00, 0.00, 0.00, 0.00, 0.00, 0.00, 0.00
161, 2787.71, 58039.16, 1861.99, 27587.46, -19037.43, -1282.48, 10115.88, -49750.67, -11269.44, 34365.00, -4150.23, -11153.88, 0.00, 0.00, 0.00, 0.00, 0.00, 0.00, 0.00
162, 2787.71, 58039.16, 1861.99, 27587.46, -19037.43, -1282.48, 10115.88, -49750.67, -11276.70, 34324.46, -4188.16, -11100.19, 0.00, 0.00, 0.00, 0.00, 0.00, 0.00, 0.00
163, 2782.90, 58042.58, 1859.67, 27588.33, -19037.03, -1280.71, 10121.00, -49747.49, -11276.70, 34324.46, -4188.16, -11100.19, 0.00, 0.00, 0.00, 0.00, 0.08, 0.36, 0.95
164, 2782.90, 58042.58, 1859.67, 27588.33, -19037.03, -1280.71, 10121.00, -49747.49, -11274.67, 34362.81, -4153.92, -11173.48, 0.00, 0.00, 0.00, 0.00, 0.00, 0.00, 0.00
165, 2785.16, 58030.76, 1857.77, 27587.93, -19033.31, -1282.83, 10123.10, -49749.71, -11274.67, 34362.81, -4153.92, -11173.48, 0.00, 0.00, 0.00, 0.00, 0.00, 0.00, 0.00
166, 2785.16, 58030.76, 1857.77, 27587.93, -19033.31, -1282.83, 10123.10, -49749.71, -11277.73, 34322.71, -4191.76, -11109.11, 0.00, 0.00, 0.00, 0.00, 0.00, 0.00, 0.00
167, 2777.25, 58028.21, 1848.82, 27576.98, -19037.14, -1292.71, 10116.11, -49750.11, -11277.73, 34322.71, -4191.76, -11109.11, 0.00, 0.00, 0.00, 0.00, 0.00, 0.00, 0.00
168, 2777.25, 58028.21, 1848.82, 27576.98, -19037.14, -1292.71, 10116.11, -49750.11, -11268.97, 34367.08, -4162.95, -11148.02, 0.00, 0.00, 0.00, 0.00, 0.00, 0.00, 0.00
169, 2784.42, 58044.75, 1858.03, 27590.59, -19028.04, -1280.02, 10137.45, -49736.88, -11268.97, 34367.08, -4162.95, -11148.02, 0.00, 0.00, 0.00, 0.00, 0.00, 0.00, 0.00
170, 2784.42, 58044.75, 1858.03, 27590.59, -19028.04, -1280.02, 10137.45, -49736.88, -11277.66, 34331.18, -4188.05, -11097.22, 0.00, 0.00, 0.00, 0.00, 0.00, 0.00, 0.00
171, 2770.16, 58008.72, 1844.33, 27573.89, -19040.78, -1293.16, 10115.59, -49753.24, -11277.66, 34331.18, -4188.05, -11097.22, 0.00, 0.00, 0.00, 0.00, 0.00, 0.00, 0.00
172, 2770.16, 58008.72, 1844.33, 27573.89, -19040.78, -1293.16, 10115.59, -49753.24, -11263.71, 34368.60, -4162.30, -11139.33, 0.00, 0.00, 0.00, 0.00, 0.08, 0.36, 0.95
173, 2792.40, 58050.12, 1871.69, 27604.89, -19012.77, -1263.95, 10152.05, -49715.60, -11263.71, 34368.60, -4162.30, -11139.33, 0.00, 0.00, 0.00, 0.00, 0.00, 0.00, 0.00
174, 2792.40, 58050.12, 1871.69, 27604.89, -19012.77, -1263.95, 10152.05, -49715.60, -11254.48, 34348.46, -4174.46, -11089.44, 0.00, 0.00, 0.00, 0.00, 0.00, 0.00, 0.00
175, 2774.75, 58018.87, 1845.27, 27572.44, -19039.33, -1292.60, 10118.52, -49747.00, -11254.48, 34348.46, -4174.46, -11089.44, 0.00, 0.00, 0.00, 0.00, 0.00, 0.00, 0.00
176, 2774.75, 58018.87, 1845.27, 27572.44, -19039.33, -1292.60, 10118.52, -49747.00, -11266.53, 34362.45, -4164.29, -11138.77, 0.00, 0.00, 0.00, 0.00, 0.00, 0.00, 0.00
177, 2798.57, 58058.27, 1872.43, 27600.92, -19015.50, -1269.98, 10157.82, -49719.29, -11266.53, 34362.45, -4164.29, -11138.77, 0.00, 0.00, 0.00, 0.00, 0.00, 0.00, 0.00
178, 2798.57, 58058.27, 1872.43, 27600.92, -19015.50, -1269.98, 10157.82, -49719.29, -11245.92, 34363.04, -4166.92, -11091.23, 0.00, 0.00, 0.00, 0.00, 0.00, 0.00, 0.00
179, 2777.23, 58037.51, 1850.37, 27569.83, -19028.75, -1296.45, 10121.76, -49736.23, -11245.92, 34363.04, -4166.92, -11091.23, 0.00, 0.00, 0.00, 0.00, 0.00, 0.00, 0.00
180, 2777.23, 58037.51, 1850.37, 27569.83, -19028.75, -1296.45, 10121.76, -49736.23, -11228.04, 34386.93, -4155.93, -11116.46, 0.00, 0.00, 0.00, 0.00, 0.00, 0.00, 0.00
181, 2796.87, 58049.73, 1873.57, 27604.25, -19007.03, -1261.71, 10171.03, -49703.89, -11228.04, 34386.93, -4155.93, -11116.46, 0.00, 0.00, 0.00, 0.00, 0.00, 0.00, 0.00
182, 2796.87, 58049.73, 1873.57, 27604.25, -19007.03, -1261.71, 10171.03, -49703.89, -11253.72, 34372.55, -4161.74, -11085.37, 0.00, 0.00, 0.00, 0.00, 0.08, 0.36, 0.95
183, 2780.00, 58024.48, 1850.46, 27577.78, -19019.32, -1282.72, 10139.58, -49730.48, -11253.72, 34372.55, -4161.74, -11085.37, 0.00, 0.00, 0.00, 0.00, 0.00, 0.00, 0.00
184, 2780.00, 58024.48, 1850.46, 27577.78, -19019.32, -1282.72, 10139.58, -49730.48, -11263.94, 34353.42, -4171.95, -11096.43, 0.00, 0.00, 0.00, 0.00, 0.00, 0.00, 0.00
185, 2802.35, 58062.63, 1878.26, 27610.93, -19001.80, -1256.57, 10180.91, -49704.33, -11263.94, 34353.42, -4171.95, -11096.43, 0.00, 0.00, 0.00, 0.00, 0.00, 0.00, 0.00
186, 2802.35, 58062.63, 1878.26, 27610.93, -19001.80, -1256.57, 10180.91, -49704.33, -11260.61, 34363.62, -4157.58, -11100.19, 0.00, 0.00, 0.00, 0.00, 0.00, 0.00, 0.00
187, 2772.51, 58021.17, 1845.94, 27569.69, -19030.25, -1292.71, 10140.54, -49736.47, -11260.61, 34363.62, -4157.58, -11100.19, 0.00, 0.00, 0.00, 0.00, 0.00, 0.00, 0.00
188, 2772.51, 58021.17, 1845.94, 27569.69, -19030.25, -1292.71, 10140.54, -49736.47, -11249.21, 34359.57, -4176.00, -11082.13, 0.00, 0.00, 0.00, 0.00, 0.00, 0.00, 0.00
189, 2800.79, 58060.96, 1873.72, 27609.30, -19002.47, -1255.97, 10171.41, -49691.59, -11249.21, 34359.57, -4176.00, -11082.13, 0.00, 0.00, 0.00, 0.00, 0.00, 0.00, 0.00
190, 2800.79, 58060.96, 1873.72, 27609.30, -19002.47, -1255.97, 10171.41, -49691.59, -11237.00, 34391.00, -4154.18, -11100.21, 0.00, 0.00, 0.00, 0.00, 0.00, 0.00, 0.00
191, 2783.69, 58050.36, 1855.87, 27577.85, -19018.83, -1283.64, 10147.20, -49717.92, -11237.00, 34391.00, -4154.18, -11100.21, 0.00, 0.00, 0.00, 0.00, 0.00, 0.00, 0.00
192, 2783.69, 58050.36, 1855.87, 27577.85, -19018.83, -1283.64, 10147.20, -49717.92, -11249.14, 34359.59, -4170.23, -11084.74, 0.00, 0.00, 0.00, 0.00, 0.08, 0.36, 0.95
193, 2793.88, 58050.54, 1871.94, 27602.48, -19006.02, -1264.97, 10184.39, -49696.51, -11249.14, 34359.59, -4170.23, -11084.74, 0.00, 0.00, 0.00, 0.00, 0.00, 0.00, 0.00
194, 2793.88, 58050.54, 1871.94, 27602.48, -19006.02, -1264.97, 10184.39, -49696.51, -11241.68, 34384.80, -4145.98, -11097.19, 0.00, 0.00, 0.00, 0.00, 0.00, 0.00, 0.00
195, 2782.64, 58031.09, 1855.13, 27576.82, -19010.27, -1284.64, 10156.32, -49712.00, -11241.68, 34384.80, -4145.98, -11097.19, 0.00, 0.00, 0.00, 0.00, 0.00, 0.00, 0.00
196, 2782.64, 58031.09, 1855.13, 27576.82, -19010.27, -1284.64, 10156.32, -49712.00, -11234.68, 34372.63, -4172.15, -11042.25, 0.00, 0.00, 0.00, 0.00, 0.00, 0.00, 0.00
197, 2806.95, 58076.45, 1875.94, 27607.69, -18995.05, -1257.69, 10185.22, -49684.28, -11234.68, 34372.63, -4172.15, -11042.25, 0.00, 0.00, 0.00, 0.00, 0.00, 0.00, 0.00
198, 2806.95, 58076.45, 1875.94, 27607.69, -18995.05, -1257.69, 10185.22, -49684.28, -11224.84, 34406.08, -4135.79, -11101.13, 0.00, 0.00, 0.00, 0.00, 0.00, 0.00, 0.00
199, 2787.42, 58041.27, 1865.95, 27587.01, -19000.23, -1270.94, 10170.60, -49694.43, -11224.84, 34406.08, -4135.79, -11101.13, 0.00, 0.00, 0.00, 0.00, 0.00, 0.00, 0.00
200, 2787.42, 58041.27, 1865.95, 27587.01, -19000.23, -1270.94, 10170.60, -49694.43, -11221.42, 34383.06, -4167.39, -11015.83, 0.00, 0.00, 0.00, 0.00, 0.00, 0.00, 0.00
201, 2802.98, 58053.43, 1873.66, 27606.15, -18997.98, -1257.64, 10194.76, -49682.34, -11221.42, 34383.06, -4167.39, -11015.83, 0.00, 0.00, 0.00, 0.00, 0.00, 0.00, 0.00
202, 2802.98, 58053.43, 1873.66, 27606.15, -18997.98, -1257.64, 10194.76, -49682.34, -11233.27, 34410.69, -4138.13, -11087.20, 0.00, 0.00, 0.00, 0.00, 0.08, 0.36, 0.95
203, 2786.01, 58045.51, 1862.03, 27590.79, -19006.89, -1266.99, 10181.46, -49691.10, -11233.27, 34410.69, -4138.13, -11087.20, 0.00, 0.00, 0.00, 0.00, 0.00, 0.00, 0.00
204, 2786.01, 58045.51, 1862.03, 27590.79, -19006.89, -1266.99, 10181.46, -49691.10, -11230.95, 34376.49, -4178.61, -11022.52, 0.00, 0.00, 0.00, 0.00, 0.00, 0.00, 0.00
205, 2787.89, 58051.39, 1865.77, 27599.44, -18994.13, -1262.63, 10189.60, -49680.13, -11230.95, 34376.49, -4178.61, -11022.52, 0.00, 0.00, 0.00, 0.00, 0.00, 0.00, 0.00
206, 2787.89, 58051.39, 1865.77, 27599.44, -18994.13, -1262.63, 10189.60, -49680.13, -11225.34, 34414.60, -4136.79, -11061.39, 0.00, 0.00, 0.00, 0.00, 0.00, 0.00, 0.00
207, 2789.30, 58044.13, 1856.78, 27591.78, -19004.55, -1269.11, 10175.92, -49695.61, -11225.34, 34414.60, -4136.79, -11061.39, 0.00, 0.00, 0.00, 0.00, 0.00, 0.00, 0.00
208, 2789.30, 58044.13, 1856.78, 27591.78, -19004.55, -1269.11, 10175.92, -49695.61, -11230.59, 34373.20, -4183.93, -11016.35, 0.00, 0.00, 0.00, 0.00, 0.00, 0.00, 0.00
209, 2782.14, 58038.02, 1859.67, 27594.90, -19005.93, -1268.42, 10183.23, -49689.54, -11230.59, 34373.20, -4183.93, -11016.35, 0.00, 0.00, 0.00, 0.00, 0.00, 0.00, 0.00
210, 2782.14, 58038.02, 1859.67, 27594.90, -19005.93, -1268.42, 10183.23, -49689.54, -11226.19, 34425.55, -4144.19, -11079.60, 0.00, 0.00, 0.00, 0.00, 0.00, 0.00, 0.00
211, 2798.73, 58054.86, 1867.71, 27602.62, -19001.42, -1257.78, 10195.70, -49681.36, -11226.19, 34425.55, -4144.19, -11079.60, 0.00, 0.00, 0.00, 0.00, 0.08, 0.36, 0.95
212, 2798.73, 58054.86, 1867.71, 27602.62, -19001.42, -1257.78, 10195.70, -49681.36, -11246.12, 34368.67, -4177.14, -11023.66, 0.00, 0.00, 0.00, 0.00, 0.00, 0.00, 0.00
213, 2788.29, 58053.43, 1863.26, 27594.03, -19003.88, -1268.06, 10176.06, -49697.29, -11246.12, 34368.67, -4177.14, -11023.66, 0.00, 0.00, 0.00, 0.00, 0.00, 0.00, 0.00
214, 2788.29, 58053.43, 1863.26, 27594.03, -19003.88, -1268.06, 10176.06, -49697.29, -11226.66, 34413.80, -4138.09, -11077.14, 0.00, 0.00, 0.00, 0.00, 0.00, 0.00, 0.00
215, 2805.88, 58054.50, 1874.17, 27608.61, -18991.16, -1256.79, 10196.55, -49679.14, -11226.66, 34413.80, -4138.09, -11077.14, 0.00, 0.00, 0.00, 0.00, 0.00, 0.00, 0.00
216, 2805.88, 58054.50, 1874.17, 27608.61, -18991.16, -1256.79, 10196.55, -49679.14, -11233.36, 34380.02, -4170.52, -11017.46, 0.00, 0.00, 0.00, 0.00, 0.00, 0.00, 0.00
217, 2790.55, 58044.89, 1860.58, 27592.13, -19011.72, -1268.57, 10183.34, -49695.28, -11233.36, 34380.02, -4170.52, -11017.46, 0.00, 0.00, 0.00, 0.00, 0.00, 0.00, 0.00
218, 2790.55, 58044.89, 1860.58, 27592.13, -19011.72, -1268.57, 10183.34, -49695.28, -11224.51, 34416.43, -4139.45, -11062.26, 0.00, 0.00, 0.00, 0.00, 0.00, 0.00, 0.00
219, 2814.33, 58077.96, 1886.11, 27615.82, -18985.50, -1252.32, 10210.08, -49668.01, -11224.51, 34416.43, -4139.45, -11062.26, 0.00, 0.00, 0.00, 0.00, 0.00, 0.00, 0.00
220, 2814.33, 58077.96, 1886.11, 27615.82, -18985.50, -1252.32, 10210.08, -49668.01, -11230.97, 34384.74, -4169.36, -11011.09, 0.00, 0.00, 0.00, 0.00, 0.00, 0.00, 0.00
221, 2792.90, 58047.90, 1863.67, 27595.82, -19001.87, -1265.40, 10180.08, -49694.86, -11230.97, 34384.74, -4169.36, -11011.09, 0.00, 0.00, 0.00, 0.00, 0.08, 0.36, 0.94
222, 2792.90, 58047.90, 1863.67, 27595.82, -19001.87, -1265.40, 10180.08, -49694.86, -11218.52, 34414.04, -4137.51, -11036.96, 0.00, 0.00, 0.00, 0.00, 0.00, 0.00, 0.00
223, 2818.69, 58089.05, 1890.42, 27619.60, -18984.45, -1250.24, 10207.68, -49670.29, -11218.52, 34414.04, -4137.51, -11036.96, 0.00, 0.00, 0.00, 0.00, 0.00, 0.00, 0.00
224, 2818.69, 58089.05, 1890.42, 27619.60, -18984.45, -1250.24, 10207.68, -49670.29, -11230.43, 34396.00, -4153.56, -11011.56, 0.00, 0.00, 0.00, 0.00, 0.00, 0.00, 0.00
225, 2797.92, 58065.96, 1868.56, 27593.27, -19001.60, -1271.21, 10189.49, -49692.31, -11230.43, 34396.00, -4153.56, -11011.56, 0.00, 0.00, 0.00, 0.00, 0.00, 0.00, 0.00
226, 2797.92, 58065.96, 1868.56, 27593.27, -19001.60, -1271.21, 10189.49, -49692.31, -11230.86, 34401.99, -4145.78, -11046.66, 0.00, 0.00, 0.00, 0.00, 0.00, 0.00, 0.00
227, 2819.16, 58099.20, 1894.35, 27622.71, -18985.50, -1246.47, 10209.34, -49667.45, -11230.86, 34401.99, -4145.78, -11046.66, 0.00, 0.00, 0.00, 0.00, 0.00, 0.00, 0.00
228, 2819.16, 58099.20, 1894.35, 27622.71, -18985.50, -1246.47, 10209.34, -49667.45, -11232.00, 34392.76, -4146.85, -10996.48, 0.00, 0.00, 0.00, 0.00, 0.00, 0.00, 0.00
229, 2806.98, 58050.99, 1870.95, 27595.31, -18994.98, -1265.65, 10182.49, -49692.91, -11232.00, 34392.76, -4146.85, -10996.48, 0.00, 0.00, 0.00, 0.00, 0.00, 0.00, 0.00
230, 2806.98, 58050.99, 1870.95, 27595.31, -18994.98, -1265.65, 10182.49, -49692.91, -11222.97, 34405.52, -4142.96, -11032.06, 0.00, 0.00, 0.00, 0.00, 0.00, 0.00, 0.00
231, 2820.50, 58083.35, 1891.34, 27617.50, -18980.50, -1250.71, 10216.96, -49659.50, -11222.97, 34405.52, -4142.96, -11032.06, 0.00, 0.00, 0.00, 0.00, 0.08, 0.35, 0.94
232, 2820.50, 58083.35, 1891.34, 27617.50, -18980.50, -1250.71, 10216.96, -49659.50, -11222.21, 34413.77, -4142.36, -11015.63, 0.00, 0.00, 0.00, 0.00, 0.00, 0.00, 0.00
233, 2804.05, 58061.83, 1872.18, 27593.65, -18994.47, -1269.18, 10194.36, -49690.65, -11222.21, 34413.77, -4142.36, -11015.63, 0.00, 0.00, 0.00, 0.00, 0.00, 0.00, 0.00
234, 2804.05, 58061.83, 1872.18, 27593.65, -18994.47, -1269.18, 10194.36, -49690.65, -11231.59, 34395.94, -4151.39, -11000.59, 0.00, 0.00, 0.00, 0.00, 0.00, 0.00, 0.00
235, 2821.46, 58091.62, 1890.87, 27624.23, -18980.43, -1240.52, 10219.64, -49661.89, -11231.59, 34395.94, -4151.39, -11000.59, 0.00, 0.00, 0.00, 0.00, 0.00, 0.00, 0.00
236, 2821.46, 58091.62, 1890.87, 27624.23, -18980.43, -1240.52, 10219.64, -49661.89, -11224.96, 34411.40, -4139.88, -11016.01, 0.00, 0.00, 0.00, 0.00, 0.00, 0.00, 0.00
237, 2796.56, 58066.66, 1866.91, 27590.66, -18996.32, -1269.58, 10186.67, -49688.73, -11224.96, 34411.40, -4139.88, -11016.01, 0.00, 0.00, 0.00, 0.00, 0.00, 0.00, 0.00
238, 2796.56, 58066.66, 1866.91, 27590.66, -18996.32, -1269.58, 10186.67, -49688.73, -11224.31, 34397.75, -4159.77, -11020.30, 0.00, 0.00, 0.00, 0.00, 0.00, 0.00, 0.00
239, 2816.90, 58085.14, 1886.02, 27620.12, -18984.52, -1244.86, 10220.56, -49660.10, -11224.31, 34397.75, -4159.77, -11020.30, 0.00, 0.00, 0.00, 0.00, 0.00, 0.00, 0.00
240, 2816.90, 58085.14, 1886.02, 27620.12, -18984.52, -1244.86, 10220.56, -49660.10, -11224.11, 34423.81, -4141.42, -11019.03, 0.00, 0.00, 0.00, 0.00, 0.00, 0.00, 0.00
241, 2801.25, 58057.20, 1867.04, 27592.94, -18989.59, -1266.90, 10195.14, -49682.16, -11224.11, 34423.81, -4141.42, -11019.03, 0.00, 0.00, 0.00, 0.00, 0.08, 0.36, 0.95
242, 2801.25, 58057.20, 1867.04, 27592.94, -18989.59, -1266.90, 10195.14, -49682.16, -11217.69, 34401.39, -4159.99, -10958.43, 0.00, 0.00, 0.00, 0.00, 0.00, 0.00, 0.00
243, 2810.35, 58088.67, 1889.21, 27620.36, -18972.63, -1243.29, 10222.15, -49658.13, -11217.69, 34401.39, -4159.99, -10958.43, 0.00, 0.00, 0.00, 0.00, 0.00, 0.00, 0.00
244, 2810.35, 58088.67, 1889.21, 27620.36, -18972.63, -1243.29, 10222.15, -49658.13, -11222.03, 34427.74, -4137.53, -11018.43, 0.00, 0.00, 0.00, 0.00, 0.00, 0.00, 0.00
245, 2800.58, 58069.11, 1868.02, 27596.04, -18994.65, -1262.92, 10200.22, -49679.90, -11222.03, 34427.74, -4137.53, -11018.43, 0.00, 0.00, 0.00, 0.00, 0.00, 0.00, 0.00
246, 2800.58, 58069.11, 1868.02, 27596.04, -18994.65, -1262.92, 10200.22, -49679.90, -11222.90, 34400.99, -4164.35, -10980.47, 0.00, 0.00, 0.00, 0.00, 0.00, 0.00, 0.00
247, 2813.10, 58088.20, 1884.43, 27617.97, -18979.02, -1243.58, 10221.74, -49660.14, -11222.90, 34400.99, -4164.35, -10980.47, 0.00, 0.00, 0.00, 0.00, 0.00, 0.00, 0.00
248, 2813.10, 58088.20, 1884.43, 27617.97, -18979.02, -1243.58, 10221.74, -49660.14, -11222.92, 34429.73, -4134.13, -11001.80, 0.00, 0.00, 0.00, 0.00, 0.00, 0.00, 0.00
249, 2800.96, 58073.52, 1876.54, 27601.10, -18975.18, -1257.91, 10204.31, -49674.65, -11222.92, 34429.73, -4134.13, -11001.80, 0.00, 0.00, 0.00, 0.00, 0.00, 0.00, 0.00
250, 2800.96, 58073.52, 1876.54, 27601.10, -18975.18, -1257.91, 10204.31, -49674.65, -11223.62, 34392.52, -4167.26, -10972.67, 0.00, 0.00, 0.00, 0.00, 0.00, 0.00, 0.00
251, 2810.17, 58084.67, 1880.59, 27608.63, -18984.16, -1252.41, 10211.35, -49665.93, -11223.62, 34392.52, -4167.26, -10972.67, 0.00, 0.00, 0.00, 0.00, 0.09, 0.36, 0.95
252, 2810.17, 58084.67, 1880.59, 27608.63, -18984.16, -1252.41, 10211.35, -49665.93, -11217.87, 34437.42, -4126.44, -11037.18, 0.00, 0.00, 0.00, 0.00, 0.00, 0.00, 0.00
253, 2809.64, 58068.82, 1874.13, 27603.80, -18982.33, -1255.32, 10205.14, -49669.91, -11217.87, 34437.42, -4126.44, -11037.18, 0.00, 0.00, 0.00, 0.00, 0.00, 0.00, 0.00
254, 2809.64, 58068.82, 1874.13, 27603.80, -18982.33, -1255.32, 10205.14, -49669.91, -11228.91, 34390.88, -4170.30, -10923.81, 0.00, 0.00, 0.00, 0.00, 0.00, 0.00, 0.00
255, 2802.69, 58073.92, 1873.68, 27604.89, -18993.33, -1255.88, 10211.95, -49672.23, -11228.91, 34390.88, -4170.30, -10923.81, 0.00, 0.00, 0.00, 0.00, 0.00, 0.00, 0.00
0, 2802.69, 58073.92, 1873.68, 27604.89, -18993.33, -1255.88, 10211.95, -49672.23, -11222.59, 34439.88, -4134.60, -11013.93, 0.00, 0.00, 0.00, 0.00, 0.00, 0.00, 0.00
1, 2815.96, 58079.91, 1877.08, 27608.67, -18982.69, -1249.89, 10216.16, -49666.13, -11222.59, 34439.88, -4134.60, -11013.93, 0.00, 0.00, 0.00, 0.00, 0.00, 0.00, 0.00
2, 2815.96, 58079.91, 1877.08, 27608.67, -18982.69, -1249.89, 10216.16, -49666.13, -11226.90, 34396.61, -4171.60, -10942.05, 0.00, 0.00, 0.00, 0.00, 0.00, 0.00, 0.00
3, 2798.35, 58062.79, 1868.45, 27602.66, -18982.38, -1257.08, 10204.84, -49672.88, -11226.90, 34396.61, -4171.60, -10942.05, 0.00, 0.00, 0.00, 0.00, 0.00, 0.00, 0.00
4, 2798.35, 58062.79, 1868.45, 27602.66, -18982.38, -1257.08, 10204.84, -49672.88, -11229.16, 34429.60, -4140.75, -10995.22, 0.00, 0.00, 0.00, 0.00, 0.08, 0.36, 0.96
5, 2802.01, 58068.29, 1870.71, 27605.92, -18998.51, -1252.88, 10212.69, -49677.29, -11229.16, 34429.60, -4140.75, -10995.22, 0.00, 0.00, 0.00, 0.00, 0.00, 0.00, 0.00
6, 2802.01, 58068.29, 1870.71, 27605.92, -18998.51, -1252.88, 10212.69, -49677.29, -11237.43, 34392.27, -4182.01, -10936.13, 0.00, 0.00, 0.00, 0.00, 0.00, 0.00, 0.00
7, 2794.19, 58067.15, 1864.78, 27600.04, -18994.47, -1259.65, 10203.44, -49680.06, -11237.43, 34392.27, -4182.01, -10936.13, 0.00, 0.00, 0.00, 0.00, 0.00, 0.00, 0.00
8, 2794.19, 58067.15, 1864.78, 27600.04, -18994.47, -1259.65, 10203.44, -49680.06, -11224.98, 34435.07, -4146.56, -11002.33, 0.00, 0.00, 0.00, 0.00, 0.00, 0.00, 0.00
9, 2822.29, 58074.93, 1875.00, 27613.12, -18972.45, -1246.29, 10220.31, -49659.32, -11224.98, 34435.07, -4146.56, -11002.33, 0.00, 0.00, 0.00, 0.00, 0.00, 0.00, 0.00
10, 2822.29, 58074.93, 1875.00, 27613.12, -18972.45, -1246.29, 10220.31, -49659.32, -11229.90, 34401.25, -4177.41, -10941.87, 0.00, 0.00, 0.00, 0.00, 0.00, 0.00, 0.00
11, 2787.06, 58046.94, 1850.90, 27590.75, -19006.16, -1268.68, 10187.17, -49693.94, -11229.90, 34401.25, -4177.41, -10941.87, 0.00, 0.00, 0.00, 0.00, 0.00, 0.00, 0.00
12, 2787.06, 58046.94, 1850.90, 27590.75, -19006.16, -1268.68, 10187.17, -49693.94, -11239.06, 34415.25, -4165.11, -11006.45, 0.00, 0.00, 0.00, 0.00, 0.00, 0.00, 0.00
13, 2806.71, 58088.45, 1872.36, 27617.08, -18991.09, -1244.08, 10214.39, -49671.27, -11239.06, 34415.25, -4165.11, -11006.45, 0.00, 0.00, 0.00, 0.00, 0.00, 0.00, 0.00
14, 2806.71, 58088.45, 1872.36, 27617.08, -18991.09, -1244.08, 10214.39, -49671.27, -11231.26, 34404.12, -4166.70, -10922.87, 0.00, 0.00, 0.00, 0.00, 0.08, 0.36, 0.95
15, 2811.78, 58081.07, 1880.09, 27611.49, -18982.73, -1252.59, 10210.75, -49677.71, -11231.26, 34404.12, -4166.70, -10922.87, 0.00, 0.00, 0.00, 0.00, 0.00, 0.00, 0.00
16, 2811.78, 58081.07, 1880.09, 27611.49, -18982.73, -1252.59, 10210.75, -49677.71, -11229.34, 34422.07, -4138.94, -10966.44, 0.00, 0.00, 0.00, 0.00, 0.00, 0.00, 0.00
17, 2807.80, 58059.82, 1864.14, 27600.27, -19000.88, -1260.55, 10205.16, -49680.24, -11229.34, 34422.07, -4138.94, -10966.44, 0.00, 0.00, 0.00, 0.00, 0.00, 0.00, 0.00
18, 2807.80, 58059.82, 1864.14, 27600.27, -19000.88, -1260.55, 10205.16, -49680.24, -11252.63, 34392.81, -4197.77, -10963.22, 0.00, 0.00, 0.00, 0.00, 0.00, 0.00, 0.00
19, 2796.14, 58051.48, 1858.50, 27574.97, -19011.81, -1281.76, 10182.43, -49699.37, -11252.63, 34392.81, -4197.77, -10963.22, 0.00, 0.00, 0.00, 0.00, 0.00, 0.00, 0.00
20, 2796.14, 58051.48, 1858.50, 27574.97, -19011.81, -1281.76, 10182.43, -49699.37, -11236.83, 34413.10, -4148.24, -10976.61, 0.00, 0.00, 0.00, 0.00, 0.00, 0.00, 0.00
21, 2834.00, 58101.95, 1896.59, 27618.62, -18992.30, -1246.13, 10209.76, -49674.05, -11236.83, 34413.10, -4148.24, -10976.61, 0.00, 0.00, 0.00, 0.00, 0.00, 0.00, 0.00
22, 2834.00, 58101.95, 1896.59, 27618.62, -18992.30, -1246.13, 10209.76, -49674.05, -11247.49, 34394.04, -4143.59, -10969.25, 0.00, 0.00, 0.00, 0.00, 0.00, 0.00, 0.00
23, 2817.62, 58079.04, 1877.75, 27577.51, -19014.72, -1275.82, 10182.45, -49706.75, -11247.49, 34394.04, -4143.59, -10969.25, 0.00, 0.00, 0.00, 0.00, 0.00, 0.00, 0.00
24, 2817.62, 58079.04, 1877.75, 27577.51, -19014.72, -1275.82, 10182.45, -49706.75, -11237.16, 34412.36, -4133.58, -10962.64, 0.00, 0.00, 0.00, 0.00, 0.08, 0.36, 0.95
25, 2842.07, 58118.85, 1912.04, 27610.80, -18972.14, -1244.63, 10224.92, -49659.27, -11237.16, 34412.36, -4133.58, -10962.64, 0.00, 0.00, 0.00, 0.00, 0.00, 0.00, 0.00
26, 2842.07, 58118.85, 1912.04, 27610.80, -18972.14, -1244.63, 10224.92, -49659.27, -11240.40, 34408.16, -4127.70, -10970.15, 0.00, 0.00, 0.00, 0.00, 0.00, 0.00, 0.00
27, 2816.72, 58083.40, 1875.36, 27570.99, -19010.09, -1276.53, 10181.40, -49699.55, -11240.40, 34408.16, -4127.70, -10970.15, 0.00, 0.00, 0.00, 0.00, 0.00, 0.00, 0.00
28, 2816.72, 58083.40, 1875.36, 27570.99, -19010.09, -1276.53, 10181.40, -49699.55, -11240.78, 34406.42, -4138.36, -10929.87, 0.00, 0.00, 0.00, 0.00, 0.00, 0.00, 0.00
29, 2846.27, 58114.02, 1908.75, 27615.36, -18978.46, -1243.03, 10223.02, -49662.78, -11240.78, 34406.42, -4138.36, -10929.87, 0.00, 0.00, 0.00, 0.00, 0.00, 0.00, 0.00
30, 2846.27, 58114.02, 1908.75, 27615.36, -18978.46, -1243.03, 10223.02, -49662.78, -11235.22, 34420.61, -4113.23, -10942.54, 0.00, 0.00, 0.00, 0.00, 0.00, 0.00, 0.00
31, 2826.85, 58088.27, 1885.41, 27581.45, -18997.53, -1273.89, 10185.13, -49695.08, -11235.22, 34420.61, -4113.23, -10942.54, 0.00, 0.00, 0.00, 0.00, 0.00, 0.00, 0.00
32, 2826.85, 58088.27, 1885.41, 27581.45, -18997.53, -1273.89, 10185.13, -49695.08, -11234.72, 34402.15, -4132.86, -10926.16, 0.00, 0.00, 0.00, 0.00, 0.00, 0.00, 0.00
33, 2847.66, 58135.95, 1918.34, 27614.64, -18983.43, -1245.08, 10223.69, -49663.07, -11234.72, 34402.15, -4132.86, -10926.16, 0.00, 0.00, 0.00, 0.00, 0.00, 0.00, 0.00
34, 2847.66, 58135.95, 1918.34, 27614.64, -18983.43, -1245.08, 10223.69, -49663.07, -11228.09, 34441.33, -4100.58, -10936.26, 0.00, 0.00, 0.00, 0.00, 0.08, 0.36, 0.95
35, 2836.03, 58101.66, 1893.71, 27590.81, -18986.71, -1261.85, 10195.01, -49684.02, -11228.09, 34441.33, -4100.58, -10936.26, 0.00, 0.00, 0.00, 0.00, 0.00, 0.00, 0.00
36, 2836.03, 58101.66, 1893.71, 27590.81, -18986.71, -1261.85, 10195.01, -49684.02, -11228.60, 34413.59, -4138.22, -10894.82, 0.00, 0.00, 0.00, 0.00, 0.00, 0.00, 0.00
37, 2862.72, 58129.98, 1912.12, 27613.88, -18983.76, -1245.80, 10218.48, -49663.85, -11228.60, 34413.59, -4138.22, -10894.82, 0.00, 0.00, 0.00, 0.00, 0.00, 0.00, 0.00
38, 2862.72, 58129.98, 1912.12, 27613.88, -18983.76, -1245.80, 10218.48, -49663.85, -11236.31, 34428.12, -4101.92, -10958.03, 0.00, 0.00, 0.00, 0.00, 0.00, 0.00, 0.00
39, 2828.61, 58093.75, 1897.28, 27590.30, -18989.35, -1265.06, 10195.39, -49689.09, -11236.31, 34428.12, -4101.92, -10958.03, 0.00, 0.00, 0.00, 0.00, 0.00, 0.00, 0.00
40, 2828.61, 58093.75, 1897.28, 27590.30, -18989.35, -1265.06, 10195.39, -49689.09, -11241.16, 34386.62, -4140.66, -10925.24, 0.00, 0.00, 0.00, 0.00, 0.00, 0.00, 0.00
41, 2828.93, 58101.46, 1903.05, 27603.55, -18986.38, -1253.06, 10205.99, -49677.09, -11241.16, 34386.62, -4140.66, -10925.24, 0.00, 0.00, 0.00, 0.00, 0.00, 0.00, 0.00
42, 2828.93, 58101.46, 1903.05, 27603.55, -18986.38, -1253.06, 10205.99, -49677.09, -11236.56, 34433.73, -4104.74, -10961.88, 0.00, 0.00, 0.00, 0.00, 0.00, 0.00, 0.00
43, 2836.97, 58098.35, 1896.05, 27594.43, -18993.35, -1259.63, 10199.79, -49685.00, -11236.56, 34433.73, -4104.74, -10961.88, 0.00, 0.00, 0.00, 0.00, 0.08, 0.36, 0.95
44, 2836.97, 58098.35, 1896.05, 27594.43, -18993.35, -1259.63, 10199.79, -49685.00, -11249.01, 34383.02, -4143.41, -10885.99, 0.00, 0.00, 0.00, 0.00, 0.00, 0.00, 0.00
45, 2838.20, 58108.34, 1899.34, 27601.19, -18995.58, -1257.87, 10200.40, -49685.76, -11249.01, 34383.02, -4143.41, -10885.99, 0.00, 0.00, 0.00, 0.00, 0.00, 0.00, 0.00
46, 2838.20, 58108.34, 1899.34, 27601.19, -18995.58, -1257.87, 10200.40, -49685.76, -11245.09, 34426.89, -4108.61, -10939.44, 0.00, 0.00, 0.00, 0.00, 0.00, 0.00, 0.00
47, 2837.33, 58112.48, 1904.93, 27598.66, -18987.47, -1257.84, 10206.23, -49682.14, -11245.09, 34426.89, -4108.61, -10939.44, 0.00, 0.00, 0.00, 0.00, 0.00, 0.00, 0.00
48, 2837.33, 58112.48, 1904.93, 27598.66, -18987.47, -1257.84, 10206.23, -49682.14, -11237.88, 34395.63, -4142.87, -10901.95, 0.00, 0.00, 0.00, 0.00, 0.00, 0.00, 0.00
49, 2831.25, 58105.75, 1897.73, 27598.59, -18987.92, -1258.00, 10198.61, -49678.58, -11237.88, 34395.63, -4142.87, -10901.95, 0.00, 0.00, 0.00, 0.00, 0.00, 0.00, 0.00
50, 2831.25, 58105.75, 1897.73, 27598.59, -18987.92, -1258.00, 10198.61, -49678.58, -11242.79, 34434.11, -4117.71, -10953.83, 0.00, 0.00, 0.00, 0.00, 0.00, 0.00, 0.00
51, 2840.97, 58114.40, 1897.17, 27597.54, -18990.85, -1258.54, 10203.95, -49679.79, -11242.79, 34434.11, -4117.71, -10953.83, 0.00, 0.00, 0.00, 0.00, 0.00, 0.00, 0.00
52, 2840.97, 58114.40, 1897.17, 27597.54, -18990.85, -1258.54, 10203.95, -49679.79, -11243.37, 34400.90, -4147.23, -10881.61, 0.00, 0.00, 0.00, 0.00, 0.00, 0.00, 0.00
53, 2831.70, 58098.51, 1890.67, 27594.72, -19000.14, -1259.99, 10198.68, -49689.40, -11243.37, 34400.90, -4147.23, -10881.61, 0.00, 0.00, 0.00, 0.00, 0.08, 0.36, 0.95
54, 2831.70, 58098.51, 1890.67, 27594.72, -19000.14, -1259.99, 10198.68, -49689.40, -11243.13, 34420.21, -4116.79, -10950.88, 0.00, 0.00, 0.00, 0.00, 0.00, 0.00, 0.00
55, 2841.93, 58104.00, 1904.03, 27613.01, -18982.35, -1244.57, 10203.24, -49679.12, -11243.13, 34420.21, -4116.79, -10950.88, 0.00, 0.00, 0.00, 0.00, 0.00, 0.00, 0.00
56, 2841.93, 58104.00, 1904.03, 27613.01, -18982.35, -1244.57, 10203.24, -49679.12, -11243.02, 34400.88, -4150.14, -10870.93, 0.00, 0.00, 0.00, 0.00, 0.00, 0.00, 0.00
57, 2837.76, 58089.59, 1886.96, 27593.45, -18992.21, -1261.22, 10189.44, -49686.81, -11243.02, 34400.88, -4150.14, -10870.93, 0.00, 0.00, 0.00, 0.00, 0.00, 0.00, 0.00
58, 2837.76, 58089.59, 1886.96, 27593.45, -18992.21, -1261.22, 10189.44, -49686.81, -11248.43, 34427.07, -4125.69, -10915.38, 0.00, 0.00, 0.00, 0.00, 0.00, 0.00, 0.00
59, 2851.70, 58125.11, 1902.42, 27608.45, -18985.88, -1255.12, 10207.21, -49683.59, -11248.43, 34427.07, -4125.69, -10915.38, 0.00, 0.00, 0.00, 0.00, 0.00, 0.00, 0.00
60, 2851.70, 58125.11, 1902.42, 27608.45, -18985.88, -1255.12, 10207.21, -49683.59, -11261.46, 34387.42, -4156.73, -10889.86, 0.00, 0.00, 0.00, 0.00, 0.00, 0.00, 0.00
61, 2841.13, 58097.37, 1882.78, 27588.24, -19013.35, -1263.19, 10181.69, -49701.98, -11261.46, 34387.42, -4156.73, -10889.86, 0.00, 0.00, 0.00, 0.00, 0.00, 0.00, 0.00
62, 2841.13, 58097.37, 1882.78, 27588.24, -19013.35, -1263.19, 10181.69, -49701.98, -11247.71, 34420.59, -4128.57, -10933.56, 0.00, 0.00, 0.00, 0.00, 0.00, 0.00, 0.00
63, 2834.83, 58089.48, 1897.60, 27611.40, -18986.40, -1245.57, 10205.05, -49672.70, -11247.71, 34420.59, -4128.57, -10933.56, 0.00, 0.00, 0.00, 0.00, 0.08, 0.36, 0.95
64, 2834.83, 58089.48, 1897.60, 27611.40, -18986.40, -1245.57, 10205.05, -49672.70, -11250.71, 34396.36, -4145.53, -10875.73, 0.00, 0.00, 0.00, 0.00, 0.00, 0.00, 0.00
65, 2818.38, 58073.43, 1879.11, 27580.89, -19004.77, -1273.22, 10173.82, -49704.00, -11250.71, 34396.36, -4145.53, -10875.73, 0.00, 0.00, 0.00, 0.00, 0.00, 0.00, 0.00
66, 2818.38, 58073.43, 1879.11, 27580.89, -19004.77, -1273.22, 10173.82, -49704.00, -11260.38, 34409.44, -4143.86, -10919.21, 0.00, 0.00, 0.00, 0.00, 0.00, 0.00, 0.00
67, 2852.28, 58119.94, 1905.84, 27612.07, -18988.99, -1251.27, 10210.08, -49681.36, -11260.38, 34409.44, -4143.86, -10919.21, 0.00, 0.00, 0.00, 0.00, 0.00, 0.00, 0.00
68, 2852.28, 58119.94, 1905.84, 27612.07, -18988.99, -1251.27, 10210.08, -49681.36, -11259.11, 34397.48, -4142.29, -10914.83, 0.00, 0.00, 0.00, 0.00, 0.00, 0.00, 0.00
69, 2833.26, 58087.29, 1883.42, 27583.75, -19005.60, -1267.46, 10172.59, -49703.08, -11259.11, 34397.48, -4142.29, -10914.83, 0.00, 0.00, 0.00, 0.00, 0.00, 0.00, 0.00
70, 2833.26, 58087.29, 1883.42, 27583.75, -19005.60, -1267.46, 10172.59, -49703.08, -11250.82, 34414.96, -4135.61, -10901.30, 0.00, 0.00, 0.00, 0.00, 0.00, 0.00, 0.00
71, 2862.05, 58124.39, 1911.97, 27622.44, -18985.68, -1236.48, 10211.86, -49668.64, -11250.82, 34414.96, -4135.61, -10901.30, 0.00, 0.00, 0.00, 0.00, 0.00, 0.00, 0.00
72, 2862.05, 58124.39, 1911.97, 27622.44, -18985.68, -1236.48, 10211.86, -49668.64, -11252.96, 34402.02, -4128.17, -10880.81, 0.00, 0.00, 0.00, 0.00, 0.00, 0.00, 0.00
73, 2838.85, 58103.56, 1889.53, 27586.52, -19003.72, -1267.01, 10174.07, -49703.30, -11252.96, 34402.02, -4128.17, -10880.81, 0.00, 0.00, 0.00, 0.00, 0.08, 0.36, 0.95
74, 2838.85, 58103.56, 1889.53, 27586.52, -19003.72, -1267.01, 10174.07, -49703.30, -11248.60, 34404.16, -4132.77, -10892.25, 0.00, 0.00, 0.00, 0.00, 0.00, 0.00, 0.00
75, 2866.10, 58148.02, 1922.29, 27622.49, -18974.93, -1241.51, 10217.61, -49668.91, -11248.60, 34404.16, -4132.77, -10892.25, 0.00, 0.00, 0.00, 0.00, 0.00, 0.00, 0.00
76, 2866.10, 58148.02, 1922.29, 27622.49, -18974.93, -1241.51, 10217.61, -49668.91, -11244.80, 34421.53, -4113.23, -10899.02, 0.00, 0.00, 0.00, 0.00, 0.00, 0.00, 0.00
77, 2839.21, 58102.44, 1893.24, 27589.61, -18997.51, -1263.25, 10176.73, -49695.95, -11244.80, 34421.53, -4113.23, -10899.02, 0.00, 0.00, 0.00, 0.00, 0.00, 0.00, 0.00
78, 2839.21, 58102.44, 1893.24, 27589.61, -18997.51, -1263.25, 10176.73, -49695.95, -11250.71, 34397.41, -4136.10, -10888.07, 0.00, 0.00, 0.00, 0.00, 0.00, 0.00, 0.00
79, 2857.07, 58124.57, 1913.15, 27621.53, -18980.07, -1237.93, 10207.17, -49672.13, -11250.71, 34397.41, -4136.10, -10888.07, 0.00, 0.00, 0.00, 0.00, 0.00, 0.00, 0.00
80, 2857.07, 58124.57, 1913.15, 27621.53, -18980.07, -1237.93, 10207.17, -49672.13, -11245.63, 34424.84, -4117.15, -10896.68, 0.00, 0.00, 0.00, 0.00, 0.00, 0.00, 0.00
81, 2836.59, 58097.03, 1893.75, 27593.54, -18998.87, -1257.04, 10182.25, -49692.89, -11245.63, 34424.84, -4117.15, -10896.68, 0.00, 0.00, 0.00, 0.00, 0.00, 0.00, 0.00
82, 2836.59, 58097.03, 1893.75, 27593.54, -18998.87, -1257.04, 10182.25, -49692.89, -11251.47, 34395.89, -4147.48, -10859.95, 0.00, 0.00, 0.00, 0.00, 0.08, 0.36, 0.95
83, 2857.00, 58121.71, 1907.94, 27616.18, -18991.27, -1242.09, 10205.81, -49677.53, -11251.47, 34395.89, -4147.48, -10859.95, 0.00, 0.00, 0.00, 0.00, 0.00, 0.00, 0.00
84, 2857.00, 58121.71, 1907.94, 27616.18, -18991.27, -1242.09, 10205.81, -49677.53, -11247.22, 34421.64, -4129.02, -10913.86, 0.00, 0.00, 0.00, 0.00, 0.00, 0.00, 0.00
85, 2839.45, 58099.94, 1889.17, 27593.14, -19003.14, -1263.79, 10181.76, -49697.67, -11247.22, 34421.64, -4129.02, -10913.86, 0.00, 0.00, 0.00, 0.00, 0.00, 0.00, 0.00
86, 2839.45, 58099.94, 1889.17, 27593.14, -19003.14, -1263.79, 10181.76, -49697.67, -11252.58, 34390.26, -4156.08, -10876.67, 0.00, 0.00, 0.00, 0.00, 0.00, 0.00, 0.00
87, 2845.15, 58113.55, 1893.93, 27607.94, -18989.13, -1246.96, 10192.82, -49677.02, -11252.58, 34390.26, -4156.08, -10876.67, 0.00, 0.00, 0.00, 0.00, 0.00, 0.00, 0.00
88, 2845.15, 58113.55, 1893.93, 27607.94, -18989.13, -1246.96, 10192.82, -49677.02, -11249.43, 34430.58, -4129.86, -10891.56, 0.00, 0.00, 0.00, 0.00, 0.00, 0.00, 0.00
89, 2842.61, 58090.66, 1884.30, 27593.59, -19002.07, -1257.93, 10179.39, -49697.05, -11249.43, 34430.58, -4129.86, -10891.56, 0.00, 0.00, 0.00, 0.00, 0.00, 0.00, 0.00
90, 2842.61, 58090.66, 1884.30, 27593.59, -19002.07, -1257.93, 10179.39, -49697.05, -11257.52, 34380.34, -4164.38, -10850.36, 0.00, 0.00, 0.00, 0.00, 0.00, 0.00, 0.00
91, 2847.57, 58104.27, 1898.18, 27609.30, -18993.57, -1248.03, 10196.33, -49679.12, -11257.52, 34380.34, -4164.38, -10850.36, 0.00, 0.00, 0.00, 0.00, 0.00, 0.00, 0.00
92, 2847.57, 58104.27, 1898.18, 27609.30, -18993.57, -1248.03, 10196.33, -49679.12, -11245.92, 34429.48, -4124.17, -10924.71, 0.00, 0.00, 0.00, 0.00, 0.09, 0.36, 0.95
93, 2844.19, 58100.43, 1894.65, 27599.93, -18997.55, -1255.34, 10188.30, -49687.52, -11245.92, 34429.48, -4124.17, -10924.71, 0.00, 0.00, 0.00, 0.00, 0.00, 0.00, 0.00
94, 2844.19, 58100.43, 1894.65, 27599.93, -18997.55, -1255.34, 10188.30, -49687.52, -11261.88, 34381.88, -4168.62, -10837.85, 0.00, 0.00, 0.00, 0.00, 0.00, 0.00, 0.00
95, 2841.62, 58093.55, 1887.67, 27601.47, -18996.61, -1253.35, 10182.83, -49687.08, -11261.88, 34381.88, -4168.62, -10837.85, 0.00, 0.00, 0.00, 0.00, 0.00, 0.00, 0.00
96, 2841.62, 58093.55, 1887.67, 27601.47, -18996.61, -1253.35, 10182.83, -49687.08, -11249.63, 34427.41, -4130.22, -10904.77, 0.00, 0.00, 0.00, 0.00, 0.00, 0.00, 0.00
97, 2849.56, 58108.16, 1897.77, 27606.42, -18983.38, -1247.41, 10191.84, -49680.24, -11249.63, 34427.41, -4130.22, -10904.77, 0.00, 0.00, 0.00, 0.00, 0.00, 0.00, 0.00
98, 2849.56, 58108.16, 1897.77, 27606.42, -18983.38, -1247.41, 10191.84, -49680.24, -11251.17, 34394.24, -4158.30, -10839.57, 0.00, 0.00, 0.00, 0.00, 0.00, 0.00, 0.00
99, 2849.87, 58110.11, 1896.30, 27600.63, -19001.80, -1254.13, 10189.96, -49689.16, -11251.17, 34394.24, -4158.30, -10839.57, 0.00, 0.00, 0.00, 0.00, 0.00, 0.00, 0.00
100, 2849.87, 58110.11, 1896.30, 27600.63, -19001.80, -1254.13, 10189.96, -49689.16, -11249.03, 34426.82, -4127.63, -10927.59, 0.00, 0.00, 0.00, 0.00, 0.00, 0.00, 0.00
101, 2842.83, 58101.14, 1898.49, 27613.52, -18987.16, -1241.08, 10195.52, -49675.95, -11249.03, 34426.82, -4127.63, -10927.59, 0.00, 0.00, 0.00, 0.00, 0.00, 0.00, 0.00
102, 2842.83, 58101.14, 1898.49, 27613.52, -18987.16, -1241.08, 10195.52, -49675.95, -11241.92, 34403.94, -4155.88, -10819.18, 0.00, 0.00, 0.00, 0.00, 0.08, 0.36, 0.95
103, 2839.03, 58097.50, 1889.33, 27593.41, -18995.43, -1255.81, 10193.51, -49683.48, -11241.92, 34403.94, -4155.88, -10819.18, 0.00, 0.00, 0.00, 0.00, 0.00, 0.00, 0.00
104, 2839.03, 58097.50, 1889.33, 27593.41, -18995.43, -1255.81, 10193.51, -49683.48, -11239.19, 34440.71, -4131.59, -10879.20, 0.00, 0.00, 0.00, 0.00, 0.00, 0.00, 0.00
105, 2850.09, 58118.78, 1902.49, 27613.48, -18990.33, -1238.09, 10199.88, -49669.87, -11239.19, 34440.71, -4131.59, -10879.20, 0.00, 0.00, 0.00, 0.00, 0.00, 0.00, 0.00
106, 2850.09, 58118.78, 1902.49, 27613.48, -18990.33, -1238.09, 10199.88, -49669.87, -11251.80, 34396.94, -4162.41, -10822.13, 0.00, 0.00, 0.00, 0.00, 0.00, 0.00, 0.00
107, 2835.92, 58101.50, 1883.22, 27585.70, -18998.63, -1261.42, 10171.88, -49693.80, -11251.80, 34396.94, -4162.41, -10822.13, 0.00, 0.00, 0.00, 0.00, 0.00, 0.00, 0.00
108, 2835.92, 58101.50, 1883.22, 27585.70, -18998.63, -1261.42, 10171.88, -49693.80, -11250.04, 34422.09, -4134.63, -10904.30, 0.00, 0.00, 0.00, 0.00, 0.00, 0.00, 0.00
109, 2863.53, 58132.91, 1913.80, 27618.46, -18979.65, -1237.55, 10206.03, -49668.91, -11250.04, 34422.09, -4134.63, -10904.30, 0.00, 0.00, 0.00, 0.00, 0.00, 0.00, 0.00
110, 2863.53, 58132.91, 1913.80, 27618.46, -18979.65, -1237.55, 10206.03, -49668.91, -11250.95, 34397.90, -4142.78, -10827.61, 0.00, 0.00, 0.00, 0.00, 0.00, 0.00, 0.00
111, 2853.78, 58114.49, 1895.81, 27593.94, -18998.83, -1260.15, 10182.34, -49695.70, -11250.95, 34397.90, -4142.78, -10827.61, 0.00, 0.00, 0.00, 0.00, 0.00, 0.00, 0.00
112, 2853.78, 58114.49, 1895.81, 27593.94, -18998.83, -1260.15, 10182.34, -49695.70, -11247.29, 34419.63, -4134.58, -10888.54, 0.00, 0.00, 0.00, 0.00, 0.08, 0.36, 0.95
113, 2864.09, 58132.66, 1909.08, 27621.05, -18984.21, -1235.78, 10204.89, -49664.68, -11247.29, 34419.63, -4134.58, -10888.54, 0.00, 0.00, 0.00, 0.00, 0.00, 0.00, 0.00
114, 2864.09, 58132.66, 1909.08, 27621.05, -18984.21, -1235.78, 10204.89, -49664.68, -11254.13, 34413.95, -4152.46, -10833.82, 0.00, 0.00, 0.00, 0.00, 0.00, 0.00, 0.00
115, 2837.11, 58083.38, 1878.55, 27586.46, -19008.32, -1263.92, 10168.19, -49699.23, -11254.13, 34413.95, -4152.46, -10833.82, 0.00, 0.00, 0.00, 0.00, 0.00, 0.00, 0.00
116, 2837.11, 58083.38, 1878.55, 27586.46, -19008.32, -1263.92, 10168.19, -49699.23, -11255.11, 34402.29, -4149.42, -10879.17, 0.00, 0.00, 0.00, 0.00, 0.00, 0.00, 0.00
117, 2862.74, 58127.61, 1911.07, 27620.36, -18981.12, -1241.10, 10203.26, -49671.09, -11255.11, 34402.29, -4149.42, -10879.17, 0.00, 0.00, 0.00, 0.00, 0.00, 0.00, 0.00
118, 2862.74, 58127.61, 1911.07, 27620.36, -18981.12, -1241.10, 10203.26, -49671.09, -11249.16, 34410.66, -4144.08, -10850.16, 0.00, 0.00, 0.00, 0.00, 0.00, 0.00, 0.00
119, 2845.27, 58104.18, 1886.96, 27595.57, -19002.20, -1258.58, 10173.69, -49694.05, -11249.16, 34410.66, -4144.08, -10850.16, 0.00, 0.00, 0.00, 0.00, 0.00, 0.00, 0.00
120, 2845.27, 58104.18, 1886.96, 27595.57, -19002.20, -1258.58, 10173.69, -49694.05, -11241.81, 34421.95, -4142.38, -10870.03, 0.00, 0.00, 0.00, 0.00, 0.00, 0.00, 0.00
121, 2875.64, 58140.57, 1916.97, 27626.46, -18976.68, -1233.37, 10217.72, -49657.57, -11241.81, 34421.95, -4142.38, -10870.03, 0.00, 0.00, 0.00, 0.00, 0.08, 0.36, 0.96
122, 2875.64, 58140.57, 1916.97, 27626.46, -18976.68, -1233.37, 10217.72, -49657.57, -11249.12, 34418.31, -4130.09, -10854.63, 0.00, 0.00, 0.00, 0.00, 0.00, 0.00, 0.00
123, 2839.72, 58093.07, 1887.20, 27595.78, -19002.45, -1258.58, 10169.57, -49697.76, -11249.12, 34418.31, -4130.09, -10854.63, 0.00, 0.00, 0.00, 0.00, 0.00, 0.00, 0.00
124, 2839.72, 58093.07, 1887.20, 27595.78, -19002.45, -1258.58, 10169.57, -49697.76, -11253.12, 34399.78, -4155.61, -10825.08, 0.00, 0.00, 0.00, 0.00, 0.00, 0.00, 0.00
125, 2855.88, 58122.18, 1907.10, 27621.10, -18985.35, -1236.03, 10200.98, -49667.14, -11253.12, 34399.78, -4155.61, -10825.08, 0.00, 0.00, 0.00, 0.00, 0.00, 0.00, 0.00
126, 2855.88, 58122.18, 1907.10, 27621.10, -18985.35, -1236.03, 10200.98, -49667.14, -11246.01, 34432.41, -4134.25, -10837.51, 0.00, 0.00, 0.00, 0.00, 0.00, 0.00, 0.00
127, 2838.11, 58094.77, 1884.36, 27594.99, -18997.69, -1256.64, 10176.68, -49685.71, -11246.01, 34432.41, -4134.25, -10837.51, 0.00, 0.00, 0.00, 0.00, 0.00, 0.00, 0.00
128, 2838.11, 58094.77, 1884.36, 27594.99, -18997.69, -1256.64, 10176.68, -49685.71, -11246.53, 34407.52, -4157.00, -10836.44, 0.00, 0.00, 0.00, 0.00, 0.00, 0.00, 0.00
129, 2857.83, 58128.64, 1908.15, 27623.76, -18980.21, -1233.01, 10206.66, -49657.53, -11246.53, 34407.52, -4157.00, -10836.44, 0.00, 0.00, 0.00, 0.00, 0.00, 0.00, 0.00
130, 2857.83, 58128.64, 1908.15, 27623.76, -18980.21, -1233.01, 10206.66, -49657.53, -11244.54, 34427.52, -4130.83, -10884.47, 0.00, 0.00, 0.00, 0.00, 0.00, 0.00, 0.00
131, 2844.86, 58107.27, 1894.22, 27595.15, -18996.77, -1258.02, 10179.14, -49688.57, -11244.54, 34427.52, -4130.83, -10884.47, 0.00, 0.00, 0.00, 0.00, 0.09, 0.36, 0.95
132, 2844.86, 58107.27, 1894.22, 27595.15, -18996.77, -1258.02, 10179.14, -49688.57, -11245.45, 34401.14, -4154.45, -10848.93, 0.00, 0.00, 0.00, 0.00, 0.00, 0.00, 0.00
133, 2867.01, 58135.12, 1911.36, 27624.05, -18986.17, -1235.49, 10214.72, -49664.14, -11245.45, 34401.14, -4154.45, -10848.93, 0.00, 0.00, 0.00, 0.00, 0.00, 0.00, 0.00
134, 2867.01, 58135.12, 1911.36, 27624.05, -18986.17, -1235.49, 10214.72, -49664.14, -11237.85, 34438.29, -4120.77, -10842.29, 0.00, 0.00, 0.00, 0.00, 0.00, 0.00, 0.00
135, 2859.17, 58130.89, 1901.04, 27601.68, -18984.23, -1247.83, 10182.07, -49678.11, -11237.85, 34438.29, -4120.77, -10842.29, 0.00, 0.00, 0.00, 0.00, 0.00, 0.00, 0.00
136, 2859.17, 58130.89, 1901.04, 27601.68, -18984.23, -1247.83, 10182.07, -49678.11, -11245.34, 34398.37, -4156.37, -10804.83, 0.00, 0.00, 0.00, 0.00, 0.00, 0.00, 0.00
137, 2847.12, 58119.27, 1903.03, 27610.71, -18979.69, -1244.23, 10196.62, -49665.39, -11245.34, 34398.37, -4156.37, -10804.83, 0.00, 0.00, 0.00, 0.00, 0.00, 0.00, 0.00
138, 2847.12, 58119.27, 1903.03, 27610.71, -18979.69, -1244.23, 10196.62, -49665.39, -11240.71, 34436.73, -4124.39, -10849.13, 0.00, 0.00, 0.00, 0.00, 0.00, 0.00, 0.00
139, 2841.04, 58101.48, 1891.34, 27601.86, -18995.12, -1245.82, 10180.75, -49681.98, -11240.71, 34436.73, -4124.39, -10849.13, 0.00, 0.00, 0.00, 0.00, 0.00, 0.00, 0.00
140, 2841.04, 58101.48, 1891.34, 27601.86, -18995.12, -1245.82, 10180.75, -49681.98, -11249.07, 34402.39, -4164.06, -10802.08, 0.00, 0.00, 0.00, 0.00, 0.00, 0.00, 0.00
141, 2858.18, 58125.48, 1909.84, 27614.69, -18985.41, -1234.82, 10203.44, -49665.08, -11249.07, 34402.39, -4164.06, -10802.08, 0.00, 0.00, 0.00, 0.00, 0.09, 0.36, 0.95
142, 2858.18, 58125.48, 1909.84, 27614.69, -18985.41, -1234.82, 10203.44, -49665.08, -11237.09, 34442.07, -4121.19, -10893.84, 0.00, 0.00, 0.00, 0.00, 0.00, 0.00, 0.00
143, 2861.20, 58123.52, 1906.11, 27612.47, -18985.46, -1241.89, 10194.36, -49669.71, -11237.09, 34442.07, -4121.19, -10893.84, 0.00, 0.00, 0.00, 0.00, 0.00, 0.00, 0.00
144, 2861.20, 58123.52, 1906.11, 27612.47, -18985.46, -1241.89, 10194.36, -49669.71, -11248.47, 34400.27, -4162.90, -10819.96, 0.00, 0.00, 0.00, 0.00, 0.00, 0.00, 0.00
145, 2862.07, 58127.65, 1907.01, 27613.37, -18988.23, -1238.35, 10199.61, -49669.96, -11248.47, 34400.27, -4162.90, -10819.96, 0.00, 0.00, 0.00, 0.00, 0.00, 0.00, 0.00
146, 2862.07, 58127.65, 1907.01, 27613.37, -18988.23, -1238.35, 10199.61, -49669.96, -11237.79, 34442.54, -4123.90, -10830.00, 0.00, 0.00, 0.00, 0.00, 0.00, 0.00, 0.00
147, 2862.90, 58126.27, 1906.56, 27617.43, -18982.75, -1238.06, 10198.14, -49670.13, -11237.79, 34442.54, -4123.90, -10830.00, 0.00, 0.00, 0.00, 0.00, 0.00, 0.00, 0.00
148, 2862.90, 58126.27, 1906.56, 27617.43, -18982.75, -1238.06, 10198.14, -49670.13, -11250.19, 34395.73, -4165.81, -10818.33, 0.00, 0.00, 0.00, 0.00, 0.00, 0.00, 0.00
149, 2848.44, 58105.23, 1893.80, 27603.49, -18994.49, -1248.55, 10180.01, -49682.36, -11250.19, 34395.73, -4165.81, -10818.33, 0.00, 0.00, 0.00, 0.00, 0.00, 0.00, 0.00
150, 2848.44, 58105.23, 1893.80, 27603.49, -18994.49, -1248.55, 10180.01, -49682.36, -11241.54, 34440.19, -4135.45, -10838.09, 0.00, 0.00, 0.00, 0.00, 0.00, 0.00, 0.00
151, 2865.14, 58126.04, 1904.91, 27618.42, -18983.92, -1232.03, 10199.86, -49662.02, -11241.54, 34440.19, -4135.45, -10838.09, 0.00, 0.00, 0.00, 0.00, 0.09, 0.35, 0.95
152, 2865.14, 58126.04, 1904.91, 27618.42, -18983.92, -1232.03, 10199.86, -49662.02, -11239.95, 34407.89, -4161.54, -10780.54, 0.00, 0.00, 0.00, 0.00, 0.00, 0.00, 0.00
153, 2852.44, 58119.96, 1898.27, 27604.74, -18985.21, -1244.50, 10193.02, -49672.05, -11239.95, 34407.89, -4161.54, -10780.54, 0.00, 0.00, 0.00, 0.00, 0.00, 0.00, 0.00
154, 2852.44, 58119.96, 1898.27, 27604.74, -18985.21, -1244.50, 10193.02, -49672.05, -11234.46, 34445.49, -4132.59, -10878.91, 0.00, 0.00, 0.00, 0.00, 0.00, 0.00, 0.00
155, 2861.25, 58136.91, 1910.67, 27619.58, -18980.56, -1232.07, 10211.55, -49658.27, -11234.46, 34445.49, -4132.59, -10878.91, 0.00, 0.00, 0.00, 0.00, 0.00, 0.00, 0.00
156, 2861.25, 58136.91, 1910.67, 27619.58, -18980.56, -1232.07, 10211.55, -49658.27, -11240.98, 34406.60, -4157.76, -10786.84, 0.00, 0.00, 0.00, 0.00, 0.00, 0.00, 0.00
157, 2851.41, 58119.56, 1894.89, 27604.89, -18985.88, -1244.43, 10180.73, -49677.60, -11240.98, 34406.60, -4157.76, -10786.84, 0.00, 0.00, 0.00, 0.00, 0.00, 0.00, 0.00
158, 2851.41, 58119.56, 1894.89, 27604.89, -18985.88, -1244.43, 10180.73, -49677.60, -11233.85, 34436.75, -4137.08, -10825.31, 0.00, 0.00, 0.00, 0.00, 0.00, 0.00, 0.00
159, 2861.72, 58143.93, 1911.19, 27623.71, -18976.32, -1227.22, 10205.92, -49654.42, -11233.85, 34436.75, -4137.08, -10825.31, 0.00, 0.00, 0.00, 0.00, 0.00, 0.00, 0.00
160, 2861.72, 58143.93, 1911.19, 27623.71, -18976.32, -1227.22, 10205.92, -49654.42, -11242.70, 34416.75, -4157.11, -10796.56, 0.00, 0.00, 0.00, 0.00, 0.08, 0.35, 0.95
161, 2840.88, 58103.34, 1887.14, 27597.25, -18993.01, -1248.70, 10181.06, -49679.84, -11242.70, 34416.75, -4157.11, -10796.56, 0.00, 0.00, 0.00, 0.00, 0.00, 0.00, 0.00
162, 2840.88, 58103.34, 1887.14, 27597.25, -18993.01, -1248.70, 10181.06, -49679.84, -11234.43, 34434.61, -4141.15, -10849.69, 0.00, 0.00, 0.00, 0.00, 0.00, 0.00, 0.00
163, 2859.57, 58132.46, 1912.97, 27627.40, -18976.61, -1225.68, 10213.36, -49654.89, -11234.43, 34434.61, -4141.15, -10849.69, 0.00, 0.00, 0.00, 0.00, 0.00, 0.00, 0.00
164, 2859.57, 58132.46, 1912.97, 27627.40, -18976.61, -1225.68, 10213.36, -49654.89, -11248.27, 34409.55, -4153.71, -10848.44, 0.00, 0.00, 0.00, 0.00, 0.00, 0.00, 0.00
165, 2840.03, 58098.53, 1881.86, 27592.04, -19001.04, -1256.93, 10179.45, -49691.84, -11248.27, 34409.55, -4153.71, -10848.44, 0.00, 0.00, 0.00, 0.00, 0.00, 0.00, 0.00
166, 2840.03, 58098.53, 1881.86, 27592.04, -19001.04, -1256.93, 10179.45, -49691.84, -11242.57, 34420.14, -4155.52, -10805.48, 0.00, 0.00, 0.00, 0.00, 0.00, 0.00, 0.00
167, 2858.90, 58133.06, 1909.82, 27627.43, -18973.97, -1224.45, 10208.62, -49653.55, -11242.57, 34420.14, -4155.52, -10805.48, 0.00, 0.00, 0.00, 0.00, 0.00, 0.00, 0.00
168, 2858.90, 58133.06, 1909.82, 27627.43, -18973.97, -1224.45, 10208.62, -49653.55, -11243.91, 34420.50, -4153.67, -10830.13, 0.00, 0.00, 0.00, 0.00, 0.00, 0.00, 0.00
169, 2840.68, 58108.36, 1883.69, 27599.15, -18994.29, -1247.50, 10171.32, -49690.86, -11243.91, 34420.50, -4153.67, -10830.13, 0.00, 0.00, 0.00, 0.00, 0.00, 0.00, 0.00
170, 2840.68, 58108.36, 1883.69, 27599.15, -18994.29, -1247.50, 10171.32, -49690.86, -11240.29, 34418.49, -4161.38, -10795.89, 0.00, 0.00, 0.00, 0.00, 0.08, 0.35, 0.96
171, 2870.01, 58136.24, 1907.23, 27627.56, -18978.53, -1226.46, 10205.96, -49658.58, -11240.29, 34418.49, -4161.38, -10795.89, 0.00, 0.00, 0.00, 0.00, 0.00, 0.00, 0.00
172, 2870.01, 58136.24, 1907.23, 27627.56, -18978.53, -1226.46, 10205.96, -49658.58, -11244.22, 34425.84, -4147.79, -10832.21, 0.00, 0.00, 0.00, 0.00, 0.00, 0.00, 0.00
173, 2846.18, 58105.95, 1891.87, 27600.22, -18992.59, -1251.47, 10180.62, -49687.23, -11244.22, 34425.84, -4147.79, -10832.21, 0.00, 0.00, 0.00, 0.00, 0.00, 0.00, 0.00
174, 2846.18, 58105.95, 1891.87, 27600.22, -18992.59, -1251.47, 10180.62, -49687.23, -11241.27, 34413.91, -4164.91, -10811.25, 0.00, 0.00, 0.00, 0.00, 0.00, 0.00, 0.00
175, 2855.59, 58131.68, 1909.08, 27629.79, -18981.39, -1224.16, 10208.91, -49660.01, -11241.27, 34413.91, -4164.91, -10811.25, 0.00, 0.00, 0.00, 0.00, 0.00, 0.00, 0.00
176, 2855.59, 58131.68, 1909.08, 27629.79, -18981.39, -1224.16, 10208.91, -49660.01, -11245.39, 34428.01, -4147.99, -10836.95, 0.00, 0.00, 0.00, 0.00, 0.00, 0.00, 0.00
177, 2847.08, 58110.62, 1885.97, 27597.97, -18990.18, -1249.48, 10173.31, -49685.38, -11245.39, 34428.01, -4147.99, -10836.95, 0.00, 0.00, 0.00, 0.00, 0.00, 0.00, 0.00
178, 2847.08, 58110.62, 1885.97, 27597.97, -18990.18, -1249.48, 10173.31, -49685.38, -11234.95, 34403.09, -4167.08, -10800.41, 0.00, 0.00, 0.00, 0.00, 0.00, 0.00, 0.00
179, 2859.59, 58140.68, 1904.64, 27617.59, -18980.10, -1236.54, 10199.21, -49663.74, -11234.95, 34403.09, -4167.08, -10800.41, 0.00, 0.00, 0.00, 0.00, 0.00, 0.00, 0.00
180, 2859.59, 58140.68, 1904.64, 27617.59, -18980.10, -1236.54, 10199.21, -49663.74, -11236.45, 34438.18, -4141.29, -10830.56, 0.00, 0.00, 0.00, 0.00, 0.08, 0.35, 0.95
181, 2843.39, 58114.40, 1880.97, 27593.27, -18994.11, -1252.10, 10170.62, -49688.44, -11236.45, 34438.18, -4141.29, -10830.56, 0.00, 0.00, 0.00, 0.00, 0.00, 0.00, 0.00
182, 2843.39, 58114.40, 1880.97, 27593.27, -18994.11, -1252.10, 10170.62, -49688.44, -11239.08, 34401.19, -4175.66, -10789.59, 0.00, 0.00, 0.00, 0.00, 0.00, 0.00, 0.00
183, 2858.27, 58138.61, 1900.48, 27617.35, -18981.62, -1235.54, 10199.59, -49664.57, -11239.08, 34401.19, -4175.66, -10789.59, 0.00, 0.00, 0.00, 0.00, 0.00, 0.00, 0.00
184, 2858.27, 58138.61, 1900.48, 27617.35, -18981.62, -1235.54, 10199.59, -49664.57, -11239.35, 34437.46, -4140.44, -10858.88, 0.00, 0.00, 0.00, 0.00, 0.00, 0.00, 0.00
185, 2845.51, 58113.41, 1894.06, 27601.41, -18985.21, -1251.32, 10184.77, -49683.52, -11239.35, 34437.46, -4140.44, -10858.88, 0.00, 0.00, 0.00, 0.00, 0.00, 0.00, 0.00
186, 2845.51, 58113.41, 1894.06, 27601.41, -18985.21, -1251.32, 10184.77, -49683.52, -11239.33, 34400.09, -4173.70, -10793.19, 0.00, 0.00, 0.00, 0.00, 0.00, 0.00, 0.00
187, 2851.52, 58126.02, 1895.05, 27612.16, -18992.25, -1239.00, 10185.51, -49674.25, -11239.33, 34400.09, -4173.70, -10793.19, 0.00, 0.00, 0.00, 0.00, 0.00, 0.00, 0.00
188, 2851.52, 58126.02, 1895.05, 27612.16, -18992.25, -1239.00, 10185.51, -49674.25, -11245.41, 34429.31, -4140.37, -10872.92, 0.00, 0.00, 0.00, 0.00, 0.00, 0.00, 0.00
189, 2857.78, 58118.18, 1886.78, 27605.83, -18992.57, -1243.29, 10172.88, -49684.33, -11245.41, 34429.31, -4140.37, -10872.92, 0.00, 0.00, 0.00, 0.00, 0.00, 0.00, 0.00
190, 2857.78, 58118.18, 1886.78, 27605.83, -18992.57, -1243.29, 10172.88, -49684.33, -11251.13, 34392.52, -4184.63, -10756.55, 0.00, 0.00, 0.00, 0.00, 0.08, 0.36, 0.96
191, 2845.62, 58114.67, 1890.22, 27609.75, -18994.42, -1244.23, 10178.89, -49685.22, -11251.13, 34392.52, -4184.63, -10756.55, 0.00, 0.00, 0.00, 0.00, 0.00, 0.00, 0.00
192, 2845.62, 58114.67, 1890.22, 27609.75, -18994.42, -1244.23, 10178.89, -49685.22, -11245.43, 34430.07, -4154.14, -10853.74, 0.00, 0.00, 0.00, 0.00, 0.00, 0.00, 0.00
193, 2850.74, 58104.14, 1889.17, 27610.21, -18991.47, -1244.93, 10173.98, -49686.29, -11245.43, 34430.07, -4154.14, -10853.74, 0.00, 0.00, 0.00, 0.00, 0.00, 0.00, 0.00
194, 2850.74, 58104.14, 1889.17, 27610.21, -18991.47, -1244.93, 10173.98, -49686.29, -11245.14, 34394.80, -4190.91, -10801.61, 0.00, 0.00, 0.00, 0.00, 0.00, 0.00, 0.00
195, 2855.03, 58113.84, 1888.30, 27611.76, -18993.44, -1243.96, 10174.83, -49680.98, -11245.14, 34394.80, -4190.91, -10801.61, 0.00, 0.00, 0.00, 0.00, 0.00, 0.00, 0.00
196, 2855.03, 58113.84, 1888.30, 27611.76, -18993.44, -1243.96, 10174.83, -49680.98, -11234.03, 34442.05, -4143.88, -10877.70, 0.00, 0.00, 0.00, 0.00, 0.00, 0.00, 0.00
197, 2864.69, 58134.00, 1902.65, 27619.56, -18982.13, -1236.57, 10186.94, -49673.62, -11234.03, 34442.05, -4143.88, -10877.70, 0.00, 0.00, 0.00, 0.00, 0.00, 0.00, 0.00
198, 2864.69, 58134.00, 1902.65, 27619.56, -18982.13, -1236.57, 10186.94, -49673.62, -11241.85, 34395.29, -4175.48, -10744.62, 0.00, 0.00, 0.00, 0.00, 0.00, 0.00, 0.00
199, 2849.45, 58128.41, 1891.27, 27604.27, -19004.03, -1248.28, 10170.13, -49694.12, -11241.85, 34395.29, -4175.48, -10744.62, 0.00, 0.00, 0.00, 0.00, 0.08, 0.35, 0.95
200, 2849.45, 58128.41, 1891.27, 27604.27, -19004.03, -1248.28, 10170.13, -49694.12, -11236.29, 34433.96, -4139.07, -10836.01, 0.00, 0.00, 0.00, 0.00, 0.00, 0.00, 0.00
201, 2871.77, 58150.79, 1916.19, 27629.50, -18968.49, -1226.24, 10191.01, -49663.65, -11236.29, 34433.96, -4139.07, -10836.01, 0.00, 0.00, 0.00, 0.00, 0.00, 0.00, 0.00
202, 2871.77, 58150.79, 1916.19, 27629.50, -18968.49, -1226.24, 10191.01, -49663.65, -11232.38, 34408.65, -4159.55, -10781.32, 0.00, 0.00, 0.00, 0.00, 0.00, 0.00, 0.00
203, 2842.20, 58108.23, 1887.05, 27596.58, -18987.72, -1256.26, 10164.54, -49687.59, -11232.38, 34408.65, -4159.55, -10781.32, 0.00, 0.00, 0.00, 0.00, 0.00, 0.00, 0.00
204, 2842.20, 58108.23, 1887.05, 27596.58, -18987.72, -1256.26, 10164.54, -49687.59, -11234.25, 34429.66, -4139.34, -10834.90, 0.00, 0.00, 0.00, 0.00, 0.00, 0.00, 0.00
205, 2859.66, 58140.73, 1914.70, 27621.90, -18972.47, -1235.16, 10191.17, -49665.91, -11234.25, 34429.66, -4139.34, -10834.90, 0.00, 0.00, 0.00, 0.00, 0.00, 0.00, 0.00
206, 2859.66, 58140.73, 1914.70, 27621.90, -18972.47, -1235.16, 10191.17, -49665.91, -11235.30, 34407.80, -4154.79, -10782.41, 0.00, 0.00, 0.00, 0.00, 0.00, 0.00, 0.00
207, 2849.27, 58127.92, 1893.46, 27596.45, -18991.38, -1250.24, 10160.05, -49689.67, -11235.30, 34407.80, -4154.79, -10782.41, 0.00, 0.00, 0.00, 0.00, 0.00, 0.00, 0.00
208, 2849.27, 58127.92, 1893.46, 27596.45, -18991.38, -1250.24, 10160.05, -49689.67, -11229.07, 34430.20, -4145.58, -10841.36, 0.00, 0.00, 0.00, 0.00, 0.00, 0.00, 0.00
209, 2883.11, 58158.41, 1913.22, 27624.77, -18976.34, -1229.59, 10191.46, -49662.29, -11229.07, 34430.20, -4145.58, -10841.36, 0.00, 0.00, 0.00, 0.00, 0.08, 0.36, 0.95
210, 2883.11, 58158.41, 1913.22, 27624.77, -18976.34, -1229.59, 10191.46, -49662.29, -11236.76, 34411.29, -4149.51, -10781.81, 0.00, 0.00, 0.00, 0.00, 0.00, 0.00, 0.00
211, 2846.34, 58116.72, 1889.64, 27592.87, -18994.11, -1257.40, 10155.43, -49697.54, -11236.76, 34411.29, -4149.51, -10781.81, 0.00, 0.00, 0.00, 0.00, 0.00, 0.00, 0.00
212, 2846.34, 58116.72, 1889.64, 27592.87, -18994.11, -1257.40, 10155.43, -49697.54, -11237.36, 34417.93, -4147.88, -10820.66, 0.00, 0.00, 0.00, 0.00, 0.00, 0.00, 0.00
213, 2867.30, 58142.96, 1911.07, 27624.45, -18974.84, -1230.64, 10187.03, -49667.86, -11237.36, 34417.93, -4147.88, -10820.66, 0.00, 0.00, 0.00, 0.00, 0.00, 0.00, 0.00
214, 2867.30, 58142.96, 1911.07, 27624.45, -18974.84, -1230.64, 10187.03, -49667.86, -11244.20, 34410.46, -4159.88, -10811.49, 0.00, 0.00, 0.00, 0.00, 0.00, 0.00, 0.00
215, 2847.25, 58113.64, 1883.56, 27585.00, -18999.59, -1266.25, 10145.79, -49702.68, -11244.20, 34410.46, -4159.88, -10811.49, 0.00, 0.00, 0.00, 0.00, 0.00, 0.00, 0.00
216, 2847.25, 58113.64, 1883.56, 27585.00, -18999.59, -1266.25, 10145.79, -49702.68, -11242.23, 34409.37, -4162.48, -10801.08, 0.00, 0.00, 0.00, 0.00, 0.00, 0.00, 0.00
217, 2866.63, 58142.99, 1907.79, 27624.23, -18984.74, -1232.16, 10181.64, -49675.10, -11242.23, 34409.37, -4162.48, -10801.08, 0.00, 0.00, 0.00, 0.00, 0.00, 0.00, 0.00
218, 2866.63, 58142.99, 1907.79, 27624.23, -18984.74, -1232.16, 10181.64, -49675.10, -11249.66, 34408.99, -4166.10, -10808.95, 0.00, 0.00, 0.00, 0.00, 0.00, 0.00, 0.00
219, 2846.67, 58111.74, 1880.09, 27591.04, -18997.51, -1262.27, 10147.80, -49703.26, -11249.66, 34408.99, -4166.10, -10808.95, 0.00, 0.00, 0.00, 0.00, 0.08, 0.35, 0.95
220, 2846.67, 58111.74, 1880.09, 27591.04, -18997.51, -1262.27, 10147.80, -49703.26, -11245.48, 34405.21, -4175.06, -10828.12, 0.00, 0.00, 0.00, 0.00, 0.00, 0.00, 0.00
221, 2874.64, 58146.59, 1911.97, 27629.26, -18978.42, -1229.82, 10183.48, -49673.78, -11245.48, 34405.21, -4175.06, -10828.12, 0.00, 0.00, 0.00, 0.00, 0.00, 0.00, 0.00
222, 2874.64, 58146.59, 1911.97, 27629.26, -18978.42, -1229.82, 10183.48, -49673.78, -11244.27, 34421.53, -4150.43, -10828.41, 0.00, 0.00, 0.00, 0.00, 0.00, 0.00, 0.00
223, 2852.19, 58124.08, 1891.76, 27597.56, -18993.26, -1257.40, 10152.68, -49700.13, -11244.27, 34421.53, -4150.43, -10828.41, 0.00, 0.00, 0.00, 0.00, 0.00, 0.00, 0.00
224, 2852.19, 58124.08, 1891.76, 27597.56, -18993.26, -1257.40, 10152.68, -49700.13, -11242.41, 34403.80, -4171.66, -10774.26, 0.00, 0.00, 0.00, 0.00, 0.00, 0.00, 0.00
225, 2876.49, 58140.26, 1909.44, 27627.18, -18979.89, -1233.41, 10176.82, -49673.42, -11242.41, 34403.80, -4171.66, -10774.26, 0.00, 0.00, 0.00, 0.00, 0.00, 0.00, 0.00
226, 2876.49, 58140.26, 1909.44, 27627.18, -18979.89, -1233.41, 10176.82, -49673.42, -11248.76, 34415.96, -4155.66, -10832.30, 0.00, 0.00, 0.00, 0.00, 0.00, 0.00, 0.00
227, 2851.39, 58111.07, 1887.78, 27600.96, -18999.85, -1253.40, 10150.06, -49703.48, -11248.76, 34415.96, -4155.66, -10832.30, 0.00, 0.00, 0.00, 0.00, 0.00, 0.00, 0.00
228, 2851.39, 58111.07, 1887.78, 27600.96, -18999.85, -1253.40, 10150.06, -49703.48, -11241.07, 34397.66, -4178.23, -10791.71, 0.00, 0.00, 0.00, 0.00, 0.00, 0.00, 0.00
229, 2862.14, 58146.07, 1907.16, 27625.44, -18983.76, -1231.60, 10178.87, -49676.10, -11241.07, 34397.66, -4178.23, -10791.71, 0.00, 0.00, 0.00, 0.00, 0.09, 0.35, 0.95
230, 2862.14, 58146.07, 1907.16, 27625.44, -18983.76, -1231.60, 10178.87, -49676.10, -11235.37, 34431.72, -4141.85, -10826.29, 0.00, 0.00, 0.00, 0.00, 0.00, 0.00, 0.00
231, 2856.71, 58136.30, 1898.04, 27604.67, -18979.71, -1248.21, 10159.90, -49687.05, -11235.37, 34431.72, -4141.85, -10826.29, 0.00, 0.00, 0.00, 0.00, 0.00, 0.00, 0.00
232, 2856.71, 58136.30, 1898.04, 27604.67, -18979.71, -1248.21, 10159.90, -49687.05, -11234.28, 34402.38, -4171.33, -10767.28, 0.00, 0.00, 0.00, 0.00, 0.00, 0.00, 0.00
233, 2861.49, 58145.67, 1904.99, 27617.48, -18982.71, -1238.38, 10172.73, -49678.20, -11234.28, 34402.38, -4171.33, -10767.28, 0.00, 0.00, 0.00, 0.00, 0.00, 0.00, 0.00
234, 2861.49, 58145.67, 1904.99, 27617.48, -18982.71, -1238.38, 10172.73, -49678.20, -11239.51, 34433.24, -4143.07, -10846.09, 0.00, 0.00, 0.00, 0.00, 0.00, 0.00, 0.00
235, 2860.69, 58122.65, 1897.33, 27608.20, -18991.05, -1246.42, 10160.61, -49694.86, -11239.51, 34433.24, -4143.07, -10846.09, 0.00, 0.00, 0.00, 0.00, 0.00, 0.00, 0.00
236, 2860.69, 58122.65, 1897.33, 27608.20, -18991.05, -1246.42, 10160.61, -49694.86, -11240.85, 34393.43, -4173.52, -10747.14, 0.00, 0.00, 0.00, 0.00, 0.00, 0.00, 0.00
237, 2861.60, 58140.55, 1897.75, 27612.43, -18988.39, -1242.15, 10166.18, -49688.29, -11240.85, 34393.43, -4173.52, -10747.14, 0.00, 0.00, 0.00, 0.00, 0.00, 0.00, 0.00
238, 2861.60, 58140.55, 1897.75, 27612.43, -18988.39, -1242.15, 10166.18, -49688.29, -11236.13, 34432.28, -4139.32, -10842.99, 0.00, 0.00, 0.00, 0.00, 0.08, 0.36, 0.95
239, 2856.60, 58131.59, 1894.56, 27605.07, -18988.41, -1245.80, 10154.82, -49693.04, -11236.13, 34432.28, -4139.32, -10842.99, 0.00, 0.00, 0.00, 0.00, 0.00, 0.00, 0.00
240, 2856.60, 58131.59, 1894.56, 27605.07, -18988.41, -1245.80, 10154.82, -49693.04, -11246.24, 34388.80, -4181.83, -10790.17, 0.00, 0.00, 0.00, 0.00, 0.00, 0.00, 0.00
241, 2854.56, 58157.89, 1897.24, 27608.11, -18995.47, -1246.65, 10153.50, -49698.63, -11246.24, 34388.80, -4181.83, -10790.17, 0.00, 0.00, 0.00, 0.00, 0.00, 0.00, 0.00
242, 2854.56, 58157.89, 1897.24, 27608.11, -18995.47, -1246.65, 10153.50, -49698.63, -11241.74, 34431.01, -4137.44, -10840.75, 0.00, 0.00, 0.00, 0.00, 0.00, 0.00, 0.00
243, 2863.97, 58133.76, 1902.69, 27608.14, -18979.38, -1247.16, 10164.57, -49687.25, -11241.74, 34431.01, -4137.44, -10840.75, 0.00, 0.00, 0.00, 0.00, 0.00, 0.00, 0.00
244, 2863.97, 58133.76, 1902.69, 27608.14, -18979.38, -1247.16, 10164.57, -49687.25, -11243.80, 34387.38, -4175.75, -10759.06, 0.00, 0.00, 0.00, 0.00, 0.00, 0.00, 0.00
245, 2856.22, 58128.05, 1893.86, 27599.46, -18998.92, -1257.20, 10150.35, -49707.39, -11243.80, 34387.38, -4175.75, -10759.06, 0.00, 0.00, 0.00, 0.00, 0.00, 0.00, 0.00
246, 2856.22, 58128.05, 1893.86, 27599.46, -18998.92, -1257.20, 10150.35, -49707.39, -11241.74, 34424.01, -4139.48, -10837.85, 0.00, 0.00, 0.00, 0.00, 0.00, 0.00, 0.00
247, 2873.18, 58151.64, 1909.15, 27616.34, -18978.62, -1238.24, 10167.92, -49688.04, -11241.74, 34424.01, -4139.48, -10837.85, 0.00, 0.00, 0.00, 0.00, 0.00, 0.00, 0.00
248, 2873.18, 58151.64, 1909.15, 27616.34, -18978.62, -1238.24, 10167.92, -49688.04, -11236.74, 34397.75, -4168.00, -10778.73, 0.00, 0.00, 0.00, 0.00, 0.08, 0.36, 0.95
249, 2858.16, 58142.38, 1899.52, 27600.78, -18985.50, -1250.27, 10154.82, -49697.25, -11236.74, 34397.75, -4168.00, -10778.73, 0.00, 0.00, 0.00, 0.00, 0.00, 0.00, 0.00
250, 2858.16, 58142.38, 1899.52, 27600.78, -18985.50, -1250.27, 10154.82, -49697.25, -11235.13, 34424.30, -4142.40, -10819.09, 0.00, 0.00, 0.00, 0.00, 0.00, 0.00, 0.00
251, 2864.13, 58149.00, 1908.59, 27615.78, -18985.35, -1240.12, 10169.80, -49690.47, -11235.13, 34424.30, -4142.40, -10819.09, 0.00, 0.00, 0.00, 0.00, 0.00, 0.00, 0.00
252, 2864.13, 58149.00, 1908.59, 27615.78, -18985.35, -1240.12, 10169.80, -49690.47, -11245.68, 34388.83, -4171.46, -10783.91, 0.00, 0.00, 0.00, 0.00, 0.00, 0.00, 0.00
253, 2859.12, 58146.34, 1897.69, 27597.27, -18993.13, -1256.35, 10152.65, -49709.47, -11245.68, 34388.83, -4171.46, -10783.91, 0.00, 0.00, 0.00, 0.00, 0.00, 0.00, 0.00
254, 2859.12, 58146.34, 1897.69, 27597.27, -18993.13, -1256.35, 10152.65, -49709.47, -11236.60, 34417.64, -4143.59, -10839.61, 0.00, 0.00, 0.00, 0.00, 0.00, 0.00, 0.00
255, 2882.91, 58184.32, 1918.07, 27621.26, -18977.17, -1235.07, 10175.85, -49686.70, -11236.60, 34417.64, -4143.59, -10839.61, 0.00, 0.00, 0.00, 0.00, 0.00, 0.00, 0.00
0, 2882.91, 58184.32, 1918.07, 27621.26, -18977.17, -1235.07, 10175.85, -49686.70, -11241.25, 34400.00, -4157.51, -10767.71, 0.00, 0.00, 0.00, 0.00, 0.00, 0.00, 0.00
1, 2853.29, 58141.64, 1895.14, 27590.81, -18986.60, -1260.10, 10147.76, -49709.07, -11241.25, 34400.00, -4157.51, -10767.71, 0.00, 0.00, 0.00, 0.00, 0.00, 0.00, 0.00
2, 2853.29, 58141.64, 1895.14, 27590.81, -18986.60, -1260.10, 10147.76, -49709.07, -11242.70, 34409.08, -4145.44, -10829.67, 0.00, 0.00, 0.00, 0.00, 0.07, 0.36, 0.95
3, 2881.48, 58193.32, 1921.65, 27627.20, -18972.05, -1231.29, 10175.90, -49684.20, -11242.70, 34409.08, -4145.44, -10829.67, 0.00, 0.00, 0.00, 0.00, 0.00, 0.00, 0.00
4, 2881.48, 58193.32, 1921.65, 27627.20, -18972.05, -1231.29, 10175.90, -49684.20, -11237.54, 34403.27, -4145.40, -10823.99, 0.00, 0.00, 0.00, 0.00, 0.00, 0.00, 0.00
5, 2860.62, 58135.90, 1899.43, 27597.47, -18989.24, -1253.49, 10147.31, -49711.62, -11237.54, 34403.27, -4145.40, -10823.99, 0.00, 0.00, 0.00, 0.00, 0.00, 0.00, 0.00
6, 2860.62, 58135.90, 1899.43, 27597.47, -18989.24, -1253.49, 10147.31, -49711.62, -11234.48, 34411.58, -4144.77, -10777.14, 0.00, 0.00, 0.00, 0.00, 0.00, 0.00, 0.00
7, 2876.76, 58150.12, 1920.53, 27629.30, -18970.93, -1229.01, 10181.78, -49683.50, -11234.48, 34411.58, -4144.77, -10777.14, 0.00, 0.00, 0.00, 0.00, 0.00, 0.00, 0.00
8, 2876.76, 58150.12, 1920.53, 27629.30, -18970.93, -1229.01, 10181.78, -49683.50, -11237.18, 34413.35, -4151.93, -10790.35, 0.00, 0.00, 0.00, 0.00, 0.00, 0.00, 0.00
9, 2849.78, 58126.89, 1890.58, 27593.27, -18993.77, -1255.59, 10147.71, -49714.68, -11237.18, 34413.35, -4151.93, -10790.35, 0.00, 0.00, 0.00, 0.00, 0.00, 0.00, 0.00
10, 2849.78, 58126.89, 1890.58, 27593.27, -18993.77, -1255.59, 10147.71, -49714.68, -11238.19, 34407.13, -4161.34, -10813.42, 0.00, 0.00, 0.00, 0.00, 0.00, 0.00, 0.00
11, 2866.57, 58157.05, 1907.01, 27618.28, -18984.77, -1238.47, 10173.40, -49697.40, -11238.19, 34407.13, -4161.34, -10813.42, 0.00, 0.00, 0.00, 0.00, 0.00, 0.00, 0.00
12, 2866.57, 58157.05, 1907.01, 27618.28, -18984.77, -1238.47, 10173.40, -49697.40, -11245.27, 34403.94, -4161.51, -10804.97, 0.00, 0.00, 0.00, 0.00, 0.08, 0.36, 0.95
13, 2846.76, 58128.73, 1884.25, 27586.21, -18999.34, -1264.39, 10137.52, -49730.24, -11245.27, 34403.94, -4161.51, -10804.97, 0.00, 0.00, 0.00, 0.00, 0.00, 0.00, 0.00
14, 2846.76, 58128.73, 1884.25, 27586.21, -18999.34, -1264.39, 10137.52, -49730.24, -11244.60, 34386.21, -4168.65, -10791.96, 0.00, 0.00, 0.00, 0.00, 0.00, 0.00, 0.00
15, 2872.40, 58173.83, 1912.39, 27619.98, -18974.69, -1236.68, 10171.14, -49693.80, -11244.60, 34386.21, -4168.65, -10791.96, 0.00, 0.00, 0.00, 0.00, 0.00, 0.00, 0.00
16, 2872.40, 58173.83, 1912.39, 27619.98, -18974.69, -1236.68, 10171.14, -49693.80, -11240.09, 34417.13, -4145.49, -10827.45, 0.00, 0.00, 0.00, 0.00, 0.00, 0.00, 0.00
17, 2855.86, 58166.68, 1894.00, 27587.48, -18988.50, -1260.93, 10143.40, -49720.38, -11240.09, 34417.13, -4145.49, -10827.45, 0.00, 0.00, 0.00, 0.00, 0.00, 0.00, 0.00
18, 2855.86, 58166.68, 1894.00, 27587.48, -18988.50, -1260.93, 10143.40, -49720.38, -11235.46, 34394.66, -4163.66, -10781.36, 0.00, 0.00, 0.00, 0.00, 0.00, 0.00, 0.00
19, 2876.33, 58182.21, 1914.25, 27617.19, -18978.33, -1237.97, 10174.04, -49693.20, -11235.46, 34394.66, -4163.66, -10781.36, 0.00, 0.00, 0.00, 0.00, 0.00, 0.00, 0.00
20, 2876.33, 58182.21, 1914.25, 27617.19, -18978.33, -1237.97, 10174.04, -49693.20, -11234.88, 34418.96, -4135.43, -10833.47, 0.00, 0.00, 0.00, 0.00, 0.00, 0.00, 0.00
21, 2859.03, 58133.60, 1894.56, 27594.57, -18989.42, -1253.73, 10151.92, -49717.99, -11234.88, 34418.96, -4135.43, -10833.47, 0.00, 0.00, 0.00, 0.00, 0.00, 0.00, 0.00
22, 2859.03, 58133.60, 1894.56, 27594.57, -18989.42, -1253.73, 10151.92, -49717.99, -11245.68, 34389.36, -4164.26, -10778.37, 0.00, 0.00, 0.00, 0.00, 0.08, 0.35, 0.95
23, 2877.00, 58165.77, 1918.94, 27618.84, -18970.44, -1236.36, 10179.57, -49695.55, -11245.68, 34389.36, -4164.26, -10778.37, 0.00, 0.00, 0.00, 0.00, 0.00, 0.00, 0.00
24, 2877.00, 58165.77, 1918.94, 27618.84, -18970.44, -1236.36, 10179.57, -49695.55, -11235.46, 34423.47, -4129.98, -10819.50, 0.00, 0.00, 0.00, 0.00, 0.00, 0.00, 0.00
25, 2871.17, 58158.84, 1907.90, 27601.14, -18980.50, -1253.42, 10163.76, -49713.90, -11235.46, 34423.47, -4129.98, -10819.50, 0.00, 0.00, 0.00, 0.00, 0.00, 0.00, 0.00
26, 2871.17, 58158.84, 1907.90, 27601.14, -18980.50, -1253.42, 10163.76, -49713.90, -11238.52, 34385.68, -4165.23, -10750.83, 0.00, 0.00, 0.00, 0.00, 0.00, 0.00, 0.00
27, 2869.32, 58168.16, 1912.73, 27615.04, -18981.55, -1238.44, 10171.65, -49702.37, -11238.52, 34385.68, -4165.23, -10750.83, 0.00, 0.00, 0.00, 0.00, 0.00, 0.00, 0.00
28, 2869.32, 58168.16, 1912.73, 27615.04, -18981.55, -1238.44, 10171.65, -49702.37, -11236.29, 34424.37, -4132.19, -10829.46, 0.00, 0.00, 0.00, 0.00, 0.00, 0.00, 0.00
29, 2868.96, 58162.14, 1906.31, 27607.96, -18970.15, -1242.76, 10165.55, -49703.77, -11236.29, 34424.37, -4132.19, -10829.46, 0.00, 0.00, 0.00, 0.00, 0.00, 0.00, 0.00
30, 2868.96, 58162.14, 1906.31, 27607.96, -18970.15, -1242.76, 10165.55, -49703.77, -11232.71, 34392.18, -4164.85, -10779.93, 0.00, 0.00, 0.00, 0.00, 0.00, 0.00, 0.00
31, 2870.77, 58169.63, 1913.87, 27615.27, -18974.62, -1238.82, 10179.32, -49695.01, -11232.71, 34392.18, -4164.85, -10779.93, 0.00, 0.00, 0.00, 0.00, 0.08, 0.36, 0.95
32, 2870.77, 58169.63, 1913.87, 27615.27, -18974.62, -1238.82, 10179.32, -49695.01, -11229.78, 34432.35, -4131.94, -10798.19, 0.00, 0.00, 0.00, 0.00, 0.00, 0.00, 0.00
33, 2868.18, 58148.91, 1903.70, 27607.98, -18972.32, -1244.12, 10174.29, -49700.82, -11229.78, 34432.35, -4131.94, -10798.19, 0.00, 0.00, 0.00, 0.00, 0.00, 0.00, 0.00
34, 2868.18, 58148.91, 1903.70, 27607.98, -18972.32, -1244.12, 10174.29, -49700.82, -11241.16, 34386.44, -4170.52, -10745.47, 0.00, 0.00, 0.00, 0.00, 0.00, 0.00, 0.00
35, 2861.54, 58147.32, 1900.01, 27605.54, -18977.55, -1246.98, 10164.66, -49705.63, -11241.16, 34386.44, -4170.52, -10745.47, 0.00, 0.00, 0.00, 0.00, 0.00, 0.00, 0.00
36, 2861.54, 58147.32, 1900.01, 27605.54, -18977.55, -1246.98, 10164.66, -49705.63, -11235.73, 34428.37, -4140.53, -10830.72, 0.00, 0.00, 0.00, 0.00, 0.00, 0.00, 0.00
37, 2873.45, 58172.02, 1916.13, 27623.13, -18964.16, -1230.28, 10184.04, -49689.76, -11235.73, 34428.37, -4140.53, -10830.72, 0.00, 0.00, 0.00, 0.00, 0.00, 0.00, 0.00
38, 2873.45, 58172.02, 1916.13, 27623.13, -18964.16, -1230.28, 10184.04, -49689.76, -11227.28, 34406.66, -4163.48, -10721.84, 0.00, 0.00, 0.00, 0.00, 0.00, 0.00, 0.00
39, 2860.89, 58153.05, 1899.52, 27605.07, -18978.93, -1247.99, 10170.67, -49703.68, -11227.28, 34406.66, -4163.48, -10721.84, 0.00, 0.00, 0.00, 0.00, 0.00, 0.00, 0.00
40, 2860.89, 58153.05, 1899.52, 27605.07, -18978.93, -1247.99, 10170.67, -49703.68, -11231.64, 34428.57, -4136.77, -10825.84, 0.00, 0.00, 0.00, 0.00, 0.00, 0.00, 0.00
41, 2878.90, 58168.49, 1915.23, 27621.88, -18965.05, -1235.09, 10187.39, -49691.93, -11231.64, 34428.57, -4136.77, -10825.84, 0.00, 0.00, 0.00, 0.00, 0.08, 0.36, 0.95
42, 2878.90, 58168.49, 1915.23, 27621.88, -18965.05, -1235.09, 10187.39, -49691.93, -11232.31, 34397.05, -4155.01, -10761.09, 0.00, 0.00, 0.00, 0.00, 0.00, 0.00, 0.00
43, 2867.55, 58174.93, 1909.17, 27607.31, -18974.24, -1243.56, 10173.93, -49703.91, -11232.31, 34397.05, -4155.01, -10761.09, 0.00, 0.00, 0.00, 0.00, 0.00, 0.00, 0.00
44, 2867.55, 58174.93, 1909.17, 27607.31, -18974.24, -1243.56, 10173.93, -49703.91, -11222.23, 34435.43, -4124.10, -10784.47, 0.00, 0.00, 0.00, 0.00, 0.00, 0.00, 0.00
45, 2883.84, 58175.51, 1926.39, 27633.97, -18951.44, -1223.45, 10203.37, -49674.87, -11222.23, 34435.43, -4124.10, -10784.47, 0.00, 0.00, 0.00, 0.00, 0.00, 0.00, 0.00
46, 2883.84, 58175.51, 1926.39, 27633.97, -18951.44, -1223.45, 10203.37, -49674.87, -11227.30, 34421.15, -4154.25, -10726.96, 0.00, 0.00, 0.00, 0.00, 0.00, 0.00, 0.00
47, 2863.95, 58153.63, 1906.49, 27611.64, -18967.04, -1239.78, 10174.42, -49699.21, -11227.30, 34421.15, -4154.25, -10726.96, 0.00, 0.00, 0.00, 0.00, 0.00, 0.00, 0.00
48, 2863.95, 58153.63, 1906.49, 27611.64, -18967.04, -1239.78, 10174.42, -49699.21, -11213.07, 34447.37, -4134.94, -10778.12, 0.00, 0.00, 0.00, 0.00, 0.00, 0.00, 0.00
49, 2880.25, 58190.95, 1925.63, 27632.72, -18953.85, -1223.71, 10199.30, -49676.15, -11213.07, 34447.37, -4134.94, -10778.12, 0.00, 0.00, 0.00, 0.00, 0.00, 0.00, 0.00
50, 2880.25, 58190.95, 1925.63, 27632.72, -18953.85, -1223.71, 10199.30, -49676.15, -11239.17, 34394.66, -4143.43, -10767.97, 0.00, 0.00, 0.00, 0.00, 0.00, 0.00, 0.00
51, 2855.57, 58145.91, 1901.15, 27600.67, -18976.92, -1255.18, 10168.48, -49714.82, -11239.17, 34394.66, -4143.43, -10767.97, 0.00, 0.00, 0.00, 0.00, 0.08, 0.36, 0.94
52, 2855.57, 58145.91, 1901.15, 27600.67, -18976.92, -1255.18, 10168.48, -49714.82, -11220.37, 34422.18, -4141.51, -10772.89, 0.00, 0.00, 0.00, 0.00, 0.00, 0.00, 0.00
53, 2881.68, 58179.64, 1927.08, 27636.39, -18949.67, -1220.94, 10207.86, -49673.26, -11220.37, 34422.18, -4141.51, -10772.89, 0.00, 0.00, 0.00, 0.00, 0.00, 0.00, 0.00
54, 2881.68, 58179.64, 1927.08, 27636.39, -18949.67, -1220.94, 10207.86, -49673.26, -11229.16, 34422.09, -4140.26, -10769.36, 0.00, 0.00, 0.00, 0.00, 0.00, 0.00, 0.00
55, 2865.09, 58171.46, 1906.18, 27601.70, -18967.42, -1252.46, 10178.67, -49708.54, -11229.16, 34422.09, -4140.26, -10769.36, 0.00, 0.00, 0.00, 0.00, 0.00, 0.00, 0.00
56, 2865.09, 58171.46, 1906.18, 27601.70, -18967.42, -1252.46, 10178.67, -49708.54, -11219.68, 34424.55, -4138.47, -10772.51, 0.00, 0.00, 0.00, 0.00, 0.00, 0.00, 0.00
57, 2887.31, 58190.93, 1935.19, 27644.88, -18948.22, -1216.20, 10212.56, -49667.09, -11219.68, 34424.55, -4138.47, -10772.51, 0.00, 0.00, 0.00, 0.00, 0.00, 0.00, 0.00
58, 2887.31, 58190.93, 1935.19, 27644.88, -18948.22, -1216.20, 10212.56, -49667.09, -11214.38, 34430.38, -4125.89, -10739.23, 0.00, 0.00, 0.00, 0.00, 0.00, 0.00, 0.00
59, 2869.18, 58158.66, 1909.40, 27610.37, -18962.86, -1241.77, 10179.25, -49702.70, -11214.38, 34430.38, -4125.89, -10739.23, 0.00, 0.00, 0.00, 0.00, 0.00, 0.00, 0.00
60, 2869.18, 58158.66, 1909.40, 27610.37, -18962.86, -1241.77, 10179.25, -49702.70, -11221.22, 34415.25, -4144.57, -10769.92, 0.00, 0.00, 0.00, 0.00, 0.00, 0.00, 0.00
61, 2886.77, 58195.94, 1935.21, 27641.15, -18941.67, -1216.09, 10214.88, -49669.53, -11221.22, 34415.25, -4144.57, -10769.92, 0.00, 0.00, 0.00, 0.00, 0.08, 0.36, 0.94
62, 2886.77, 58195.94, 1935.21, 27641.15, -18941.67, -1216.09, 10214.88, -49669.53, -11220.24, 34446.74, -4129.86, -10763.39, 0.00, 0.00, 0.00, 0.00, 0.00, 0.00, 0.00
63, 2864.00, 58166.93, 1906.49, 27608.09, -18965.12, -1243.29, 10184.84, -49700.49, -11220.24, 34446.74, -4129.86, -10763.39, 0.00, 0.00, 0.00, 0.00, 0.00, 0.00, 0.00
64, 2864.00, 58166.93, 1906.49, 27608.09, -18965.12, -1243.29, 10184.84, -49700.49, -11216.22, 34428.66, -4144.39, -10739.03, 0.00, 0.00, 0.00, 0.00, 0.00, 0.00, 0.00
65, 2886.93, 58188.45, 1931.21, 27638.56, -18944.76, -1217.32, 10215.73, -49665.30, -11216.22, 34428.66, -4144.39, -10739.03, 0.00, 0.00, 0.00, 0.00, 0.00, 0.00, 0.00
66, 2886.93, 58188.45, 1931.21, 27638.56, -18944.76, -1217.32, 10215.73, -49665.30, -11191.76, 34463.10, -4122.15, -10754.47, 0.00, 0.00, 0.00, 0.00, 0.00, 0.00, 0.00
67, 2875.69, 58166.81, 1917.22, 27614.71, -18954.64, -1242.85, 10190.47, -49693.00, -11191.76, 34463.10, -4122.15, -10754.47, 0.00, 0.00, 0.00, 0.00, 0.00, 0.00, 0.00
68, 2875.69, 58166.81, 1917.22, 27614.71, -18954.64, -1242.85, 10190.47, -49693.00, -11230.79, 34397.68, -4146.74, -10742.29, 0.00, 0.00, 0.00, 0.00, 0.00, 0.00, 0.00
69, 2883.55, 58207.07, 1933.63, 27635.96, -18954.64, -1223.13, 10211.77, -49682.02, -11230.79, 34397.68, -4146.74, -10742.29, 0.00, 0.00, 0.00, 0.00, 0.00, 0.00, 0.00
70, 2883.55, 58207.07, 1933.63, 27635.96, -18954.64, -1223.13, 10211.77, -49682.02, -11227.24, 34431.34, -4115.74, -10778.59, 0.00, 0.00, 0.00, 0.00, 0.08, 0.36, 0.95
71, 2885.30, 58179.82, 1922.16, 27617.50, -18955.31, -1240.05, 10191.97, -49700.42, -11227.24, 34431.34, -4115.74, -10778.59, 0.00, 0.00, 0.00, 0.00, 0.00, 0.00, 0.00
72, 2885.30, 58179.82, 1922.16, 27617.50, -18955.31, -1240.05, 10191.97, -49700.42, -11224.53, 34399.64, -4140.24, -10735.30, 0.00, 0.00, 0.00, 0.00, 0.00, 0.00, 0.00
73, 2889.88, 58185.28, 1932.87, 27638.60, -18943.44, -1221.21, 10210.92, -49680.59, -11224.53, 34399.64, -4140.24, -10735.30, 0.00, 0.00, 0.00, 0.00, 0.00, 0.00, 0.00
74, 2889.88, 58185.28, 1932.87, 27638.60, -18943.44, -1221.21, 10210.92, -49680.59, -11212.13, 34445.76, -4110.37, -10794.22, 0.00, 0.00, 0.00, 0.00, 0.00, 0.00, 0.00
75, 2872.13, 58170.66, 1920.26, 27619.78, -18948.85, -1236.88, 10201.18, -49688.30, -11212.13, 34445.76, -4110.37, -10794.22, 0.00, 0.00, 0.00, 0.00, 0.00, 0.00, 0.00
76, 2872.13, 58170.66, 1920.26, 27619.78, -18948.85, -1236.88, 10201.18, -49688.30, -11218.09, 34427.52, -4148.98, -10703.07, 0.00, 0.00, 0.00, 0.00, 0.00, 0.00, 0.00
77, 2875.02, 58184.63, 1924.22, 27630.09, -18957.68, -1224.47, 10210.66, -49674.00, -11218.09, 34427.52, -4148.98, -10703.07, 0.00, 0.00, 0.00, 0.00, 0.00, 0.00, 0.00
78, 2875.02, 58184.63, 1924.22, 27630.09, -18957.68, -1224.47, 10210.66, -49674.00, -11200.82, 34485.10, -4122.33, -10759.75, 0.00, 0.00, 0.00, 0.00, 0.00, 0.00, 0.00
79, 2878.59, 58179.49, 1920.71, 27617.81, -18953.18, -1232.36, 10203.15, -49683.75, -11200.82, 34485.10, -4122.33, -10759.75, 0.00, 0.00, 0.00, 0.00, 0.00, 0.00, 0.00
80, 2878.59, 58179.49, 1920.71, 27617.81, -18953.18, -1232.36, 10203.15, -49683.75, -11226.54, 34394.62, -4154.94, -10723.47, 0.00, 0.00, 0.00, 0.00, 0.08, 0.36, 0.95
81, 2880.74, 58190.29, 1924.66, 27622.84, -18959.78, -1234.58, 10197.36, -49698.97, -11226.54, 34394.62, -4154.94, -10723.47, 0.00, 0.00, 0.00, 0.00, 0.00, 0.00, 0.00
82, 2880.74, 58190.29, 1924.66, 27622.84, -18959.78, -1234.58, 10197.36, -49698.97, -11205.40, 34445.38, -4119.67, -10806.46, 0.00, 0.00, 0.00, 0.00, 0.00, 0.00, 0.00
83, 2886.03, 58187.42, 1928.40, 27626.64, -18948.33, -1232.12, 10205.11, -49686.38, -11205.40, 34445.38, -4119.67, -10806.46, 0.00, 0.00, 0.00, 0.00, 0.00, 0.00, 0.00
84, 2886.03, 58187.42, 1928.40, 27626.64, -18948.33, -1232.12, 10205.11, -49686.38, -11229.92, 34391.09, -4138.34, -10717.28, 0.00, 0.00, 0.00, 0.00, 0.00, 0.00, 0.00
85, 2891.20, 58187.60, 1942.46, 27637.80, -18941.31, -1224.99, 10208.00, -49687.55, -11229.92, 34391.09, -4138.34, -10717.28, 0.00, 0.00, 0.00, 0.00, 0.00, 0.00, 0.00
86, 2891.20, 58187.60, 1942.46, 27637.80, -18941.31, -1224.99, 10208.00, -49687.55, -11219.70, 34448.95, -4112.59, -10767.28, 0.00, 0.00, 0.00, 0.00, 0.00, 0.00, 0.00
87, 2887.55, 58185.19, 1920.08, 27628.39, -18961.92, -1231.83, 10200.46, -49690.56, -11219.70, 34448.95, -4112.59, -10767.28, 0.00, 0.00, 0.00, 0.00, 0.00, 0.00, 0.00
88, 2887.55, 58185.19, 1920.08, 27628.39, -18961.92, -1231.83, 10200.46, -49690.56, -11212.39, 34426.40, -4154.74, -10718.40, 0.00, 0.00, 0.00, 0.00, 0.00, 0.00, 0.00
89, 2886.86, 58183.78, 1927.70, 27623.71, -18953.94, -1235.83, 10201.69, -49687.17, -11212.39, 34426.40, -4154.74, -10718.40, 0.00, 0.00, 0.00, 0.00, 0.00, 0.00, 0.00
90, 2886.86, 58183.78, 1927.70, 27623.71, -18953.94, -1235.83, 10201.69, -49687.17, -11217.47, 34469.90, -4118.42, -10762.90, 0.00, 0.00, 0.00, 0.00, 0.09, 0.36, 0.95
91, 2892.90, 58202.38, 1934.12, 27630.13, -18948.18, -1222.73, 10217.14, -49672.82, -11217.47, 34469.90, -4118.42, -10762.90, 0.00, 0.00, 0.00, 0.00, 0.00, 0.00, 0.00
92, 2892.90, 58202.38, 1934.12, 27630.13, -18948.18, -1222.73, 10217.14, -49672.82, -11229.67, 34416.48, -4148.13, -10710.29, 0.00, 0.00, 0.00, 0.00, 0.00, 0.00, 0.00
93, 2879.22, 58183.45, 1917.87, 27598.28, -18965.48, -1248.90, 10186.34, -49712.54, -11229.67, 34416.48, -4148.13, -10710.29, 0.00, 0.00, 0.00, 0.00, 0.00, 0.00, 0.00
94, 2879.22, 58183.45, 1917.87, 27598.28, -18965.48, -1248.90, 10186.34, -49712.54, -11219.17, 34427.77, -4117.12, -10766.59, 0.00, 0.00, 0.00, 0.00, 0.00, 0.00, 0.00
95, 2901.95, 58210.09, 1938.90, 27631.25, -18949.61, -1223.67, 10213.43, -49678.09, -11219.17, 34427.77, -4117.12, -10766.59, 0.00, 0.00, 0.00, 0.00, 0.00, 0.00, 0.00
96, 2901.95, 58210.09, 1938.90, 27631.25, -18949.61, -1223.67, 10213.43, -49678.09, -11220.17, 34416.30, -4126.91, -10730.31, 0.00, 0.00, 0.00, 0.00, 0.00, 0.00, 0.00
97, 2881.23, 58177.32, 1924.37, 27610.82, -18970.33, -1243.65, 10191.28, -49703.86, -11220.17, 34416.30, -4126.91, -10730.31, 0.00, 0.00, 0.00, 0.00, 0.00, 0.00, 0.00
98, 2881.23, 58177.32, 1924.37, 27610.82, -18970.33, -1243.65, 10191.28, -49703.86, -11227.53, 34429.98, -4123.56, -10771.13, 0.00, 0.00, 0.00, 0.00, 0.00, 0.00, 0.00
99, 2890.08, 58198.46, 1935.64, 27628.28, -18950.59, -1230.37, 10211.53, -49684.15, -11227.53, 34429.98, -4123.56, -10771.13, 0.00, 0.00, 0.00, 0.00, 0.00, 0.00, 0.00
100, 2890.08, 58198.46, 1935.64, 27628.28, -18950.59, -1230.37, 10211.53, -49684.15, -11210.92, 34431.88, -4122.27, -10711.58, 0.00, 0.00, 0.00, 0.00, 0.09, 0.36, 0.95
101, 2884.67, 58185.25, 1924.02, 27608.70, -18958.01, -1247.88, 10191.75, -49696.89, -11210.92, 34431.88, -4122.27, -10711.58, 0.00, 0.00, 0.00, 0.00, 0.00, 0.00, 0.00
102, 2884.67, 58185.25, 1924.02, 27608.70, -18958.01, -1247.88, 10191.75, -49696.89, -11211.66, 34437.76, -4114.35, -10757.42, 0.00, 0.00, 0.00, 0.00, 0.00, 0.00, 0.00
103, 2907.16, 58215.81, 1947.26, 27640.37, -18941.58, -1218.59, 10225.48, -49675.57, -11211.66, 34437.76, -4114.35, -10757.42, 0.00, 0.00, 0.00, 0.00, 0.00, 0.00, 0.00
104, 2907.16, 58215.81, 1947.26, 27640.37, -18941.58, -1218.59, 10225.48, -49675.57, -11213.89, 34426.74, -4116.36, -10750.32, 0.00, 0.00, 0.00, 0.00, 0.00, 0.00, 0.00
105, 2887.42, 58192.14, 1926.59, 27611.58, -18961.32, -1244.66, 10191.23, -49705.02, -11213.89, 34426.74, -4116.36, -10750.32, 0.00, 0.00, 0.00, 0.00, 0.00, 0.00, 0.00
106, 2887.42, 58192.14, 1926.59, 27611.58, -18961.32, -1244.66, 10191.23, -49705.02, -11229.83, 34421.39, -4118.51, -10735.23, 0.00, 0.00, 0.00, 0.00, 0.00, 0.00, 0.00
107, 2903.85, 58212.43, 1948.22, 27642.00, -18948.00, -1218.28, 10224.40, -49677.36, -11229.83, 34421.39, -4118.51, -10735.23, 0.00, 0.00, 0.00, 0.00, 0.00, 0.00, 0.00
108, 2903.85, 58212.43, 1948.22, 27642.00, -18948.00, -1218.28, 10224.40, -49677.36, -11215.64, 34438.11, -4105.97, -10743.03, 0.00, 0.00, 0.00, 0.00, 0.00, 0.00, 0.00
109, 2883.89, 58184.72, 1924.55, 27612.72, -18958.68, -1245.82, 10191.21, -49703.04, -11215.64, 34438.11, -4105.97, -10743.03, 0.00, 0.00, 0.00, 0.00, 0.08, 0.36, 0.95
110, 2883.89, 58184.72, 1924.55, 27612.72, -18958.68, -1245.82, 10191.21, -49703.04, -11216.84, 34419.05, -4130.16, -10745.49, 0.00, 0.00, 0.00, 0.00, 0.00, 0.00, 0.00
111, 2907.51, 58216.84, 1947.78, 27638.98, -18932.87, -1223.38, 10228.60, -49668.41, -11216.84, 34419.05, -4130.16, -10745.49, 0.00, 0.00, 0.00, 0.00, 0.00, 0.00, 0.00
112, 2907.51, 58216.84, 1947.78, 27638.98, -18932.87, -1223.38, 10228.60, -49668.41, -11212.69, 34441.94, -4101.99, -10718.17, 0.00, 0.00, 0.00, 0.00, 0.00, 0.00, 0.00
113, 2889.10, 58191.34, 1931.03, 27612.83, -18954.95, -1241.42, 10197.80, -49700.49, -11212.69, 34441.94, -4101.99, -10718.17, 0.00, 0.00, 0.00, 0.00, 0.00, 0.00, 0.00
114, 2889.10, 58191.34, 1931.03, 27612.83, -18954.95, -1241.42, 10197.80, -49700.49, -11209.71, 34425.98, -4127.96, -10743.43, 0.00, 0.00, 0.00, 0.00, 0.00, 0.00, 0.00
115, 2897.01, 58219.90, 1946.84, 27635.32, -18944.69, -1223.56, 10221.21, -49683.55, -11209.71, 34425.98, -4127.96, -10743.43, 0.00, 0.00, 0.00, 0.00, 0.00, 0.00, 0.00
116, 2897.01, 58219.90, 1946.84, 27635.32, -18944.69, -1223.56, 10221.21, -49683.55, -11224.38, 34425.73, -4102.77, -10775.84, 0.00, 0.00, 0.00, 0.00, 0.00, 0.00, 0.00
117, 2879.58, 58178.57, 1919.66, 27604.78, -18963.44, -1248.32, 10189.60, -49712.09, -11224.38, 34425.73, -4102.77, -10775.84, 0.00, 0.00, 0.00, 0.00, 0.00, 0.00, 0.00
118, 2879.58, 58178.57, 1919.66, 27604.78, -18963.44, -1248.32, 10189.60, -49712.09, -11235.64, 34406.38, -4139.19, -10701.84, 0.00, 0.00, 0.00, 0.00, 0.00, 0.00, 0.00
119, 2896.94, 58206.46, 1942.28, 27633.73, -18944.51, -1225.23, 10221.14, -49680.53, -11235.64, 34406.38, -4139.19, -10701.84, 0.00, 0.00, 0.00, 0.00, 0.08, 0.35, 0.94
120, 2896.94, 58206.46, 1942.28, 27633.73, -18944.51, -1225.23, 10221.14, -49680.53, -11210.83, 34449.89, -4098.86, -10750.58, 0.00, 0.00, 0.00, 0.00, 0.00, 0.00, 0.00
121, 2890.82, 58196.03, 1932.02, 27616.25, -18953.16, -1239.31, 10205.18, -49694.12, -11210.83, 34449.89, -4098.86, -10750.58, 0.00, 0.00, 0.00, 0.00, 0.00, 0.00, 0.00
122, 2890.82, 58196.03, 1932.02, 27616.25, -18953.16, -1239.31, 10205.18, -49694.12, -11212.80, 34417.39, -4136.95, -10697.57, 0.00, 0.00, 0.00, 0.00, 0.00, 0.00, 0.00
123, 2894.39, 58211.63, 1937.27, 27628.32, -18951.28, -1229.57, 10221.79, -49686.54, -11212.80, 34417.39, -4136.95, -10697.57, 0.00, 0.00, 0.00, 0.00, 0.00, 0.00, 0.00
124, 2894.39, 58211.63, 1937.27, 27628.32, -18951.28, -1229.57, 10221.79, -49686.54, -11229.65, 34437.24, -4110.73, -10765.63, 0.00, 0.00, 0.00, 0.00, 0.00, 0.00, 0.00
125, 2885.81, 58184.38, 1925.63, 27608.56, -18958.01, -1245.19, 10196.84, -49706.99, -11229.65, 34437.24, -4110.73, -10765.63, 0.00, 0.00, 0.00, 0.00, 0.00, 0.00, 0.00
126, 2885.81, 58184.38, 1925.63, 27608.56, -18958.01, -1245.19, 10196.84, -49706.99, -11237.25, 34392.65, -4150.56, -10704.07, 0.00, 0.00, 0.00, 0.00, 0.00, 0.00, 0.00
127, 2894.55, 58201.21, 1934.32, 27624.16, -18952.15, -1234.06, 10208.42, -49695.70, -11237.25, 34392.65, -4150.56, -10704.07, 0.00, 0.00, 0.00, 0.00, 0.00, 0.00, 0.00
128, 2894.55, 58201.21, 1934.32, 27624.16, -18952.15, -1234.06, 10208.42, -49695.70, -11214.23, 34449.67, -4100.96, -10763.04, 0.00, 0.00, 0.00, 0.00, 0.00, 0.00, 0.00
129, 2891.18, 58207.25, 1935.37, 27618.33, -18950.95, -1238.76, 10210.92, -49689.40, -11214.23, 34449.67, -4100.96, -10763.04, 0.00, 0.00, 0.00, 0.00, 0.07, 0.35, 0.95
130, 2891.18, 58207.25, 1935.37, 27618.33, -18950.95, -1238.76, 10210.92, -49689.40, -11208.86, 34410.98, -4145.42, -10723.67, 0.00, 0.00, 0.00, 0.00, 0.00, 0.00, 0.00
131, 2895.82, 58195.65, 1932.26, 27618.02, -18957.56, -1242.20, 10214.46, -49694.48, -11208.86, 34410.98, -4145.42, -10723.67, 0.00, 0.00, 0.00, 0.00, 0.00, 0.00, 0.00
132, 2895.82, 58195.65, 1932.26, 27618.02, -18957.56, -1242.20, 10214.46, -49694.48, -11235.55, 34438.72, -4103.65, -10777.30, 0.00, 0.00, 0.00, 0.00, 0.00, 0.00, 0.00
133, 2898.62, 58209.35, 1941.38, 27631.22, -18948.36, -1225.43, 10221.27, -49690.43, -11235.55, 34438.72, -4103.65, -10777.30, 0.00, 0.00, 0.00, 0.00, 0.00, 0.00, 0.00
134, 2898.62, 58209.35, 1941.38, 27631.22, -18948.36, -1225.43, 10221.27, -49690.43, -11232.35, 34400.05, -4137.93, -10687.22, 0.00, 0.00, 0.00, 0.00, 0.00, 0.00, 0.00
135, 2887.64, 58204.07, 1929.96, 27610.97, -18956.85, -1248.46, 10199.97, -49708.24, -11232.35, 34400.05, -4137.93, -10687.22, 0.00, 0.00, 0.00, 0.00, 0.00, 0.00, 0.00
136, 2887.64, 58204.07, 1929.96, 27610.97, -18956.85, -1248.46, 10199.97, -49708.24, -11212.48, 34445.11, -4104.43, -10780.72, 0.00, 0.00, 0.00, 0.00, 0.00, 0.00, 0.00
137, 2910.44, 58221.89, 1957.97, 27639.76, -18931.50, -1221.72, 10231.67, -49677.76, -11212.48, 34445.11, -4104.43, -10780.72, 0.00, 0.00, 0.00, 0.00, 0.00, 0.00, 0.00
138, 2910.44, 58221.89, 1957.97, 27639.76, -18931.50, -1221.72, 10231.67, -49677.76, -11230.21, 34407.25, -4121.80, -10703.09, 0.00, 0.00, 0.00, 0.00, 0.00, 0.00, 0.00
139, 2888.09, 58200.16, 1935.37, 27616.59, -18952.94, -1242.65, 10210.75, -49702.43, -11230.21, 34407.25, -4121.80, -10703.09, 0.00, 0.00, 0.00, 0.00, 0.08, 0.36, 0.95
140, 2888.09, 58200.16, 1935.37, 27616.59, -18952.94, -1242.65, 10210.75, -49702.43, -11228.64, 34445.69, -4110.44, -10757.40, 0.00, 0.00, 0.00, 0.00, 0.00, 0.00, 0.00
141, 2909.82, 58211.92, 1947.78, 27638.49, -18942.32, -1220.18, 10232.45, -49681.09, -11228.64, 34445.69, -4110.44, -10757.40, 0.00, 0.00, 0.00, 0.00, 0.00, 0.00, 0.00
142, 2909.82, 58211.92, 1947.78, 27638.49, -18942.32, -1220.18, 10232.45, -49681.09, -11213.56, 34424.86, -4126.24, -10715.05, 0.00, 0.00, 0.00, 0.00, 0.00, 0.00, 0.00
143, 2889.66, 58191.47, 1929.13, 27611.27, -18952.85, -1245.93, 10207.06, -49701.07, -11213.56, 34424.86, -4126.24, -10715.05, 0.00, 0.00, 0.00, 0.00, 0.00, 0.00, 0.00
144, 2889.66, 58191.47, 1929.13, 27611.27, -18952.85, -1245.93, 10207.06, -49701.07, -11235.91, 34430.67, -4121.53, -10756.89, 0.00, 0.00, 0.00, 0.00, 0.00, 0.00, 0.00
145, 2903.33, 58222.80, 1944.67, 27632.25, -18948.09, -1228.07, 10227.98, -49687.70, -11235.91, 34430.67, -4121.53, -10756.89, 0.00, 0.00, 0.00, 0.00, 0.00, 0.00, 0.00
146, 2903.33, 58222.80, 1944.67, 27632.25, -18948.09, -1228.07, 10227.98, -49687.70, -11231.35, 34409.59, -4130.42, -10716.36, 0.00, 0.00, 0.00, 0.00, 0.00, 0.00, 0.00
147, 2880.11, 58199.49, 1923.14, 27606.64, -18961.05, -1248.79, 10205.61, -49713.09, -11231.35, 34409.59, -4130.42, -10716.36, 0.00, 0.00, 0.00, 0.00, 0.00, 0.00, 0.00
148, 2880.11, 58199.49, 1923.14, 27606.64, -18961.05, -1248.79, 10205.61, -49713.09, -11214.27, 34438.47, -4121.57, -10752.42, 0.00, 0.00, 0.00, 0.00, 0.08, 0.36, 0.95
149, 2911.61, 58214.20, 1942.81, 27635.83, -18944.35, -1222.62, 10240.16, -49677.84, -11214.27, 34438.47, -4121.57, -10752.42, 0.00, 0.00, 0.00, 0.00, 0.00, 0.00, 0.00
150, 2911.61, 58214.20, 1942.81, 27635.83, -18944.35, -1222.62, 10240.16, -49677.84, -11233.96, 34425.69, -4120.92, -10717.68, 0.00, 0.00, 0.00, 0.00, 0.00, 0.00, 0.00
151, 2877.56, 58182.55, 1924.02, 27604.16, -18956.98, -1251.07, 10201.07, -49711.80, -11233.96, 34425.69, -4120.92, -10717.68, 0.00, 0.00, 0.00, 0.00, 0.00, 0.00, 0.00
152, 2877.56, 58182.55, 1924.02, 27604.16, -18956.98, -1251.07, 10201.07, -49711.80, -11232.91, 34415.45, -4128.64, -10736.48, 0.00, 0.00, 0.00, 0.00, 0.00, 0.00, 0.00
153, 2898.86, 58223.83, 1940.87, 27629.95, -18950.61, -1233.12, 10233.83, -49686.50, -11232.91, 34415.45, -4128.64, -10736.48, 0.00, 0.00, 0.00, 0.00, 0.00, 0.00, 0.00
154, 2898.86, 58223.83, 1940.87, 27629.95, -18950.61, -1233.12, 10233.83, -49686.50, -11224.31, 34428.23, -4123.05, -10754.32, 0.00, 0.00, 0.00, 0.00, 0.00, 0.00, 0.00
155, 2891.24, 58195.78, 1927.06, 27605.70, -18957.83, -1251.56, 10208.22, -49707.89, -11224.31, 34428.23, -4123.05, -10754.32, 0.00, 0.00, 0.00, 0.00, 0.00, 0.00, 0.00
156, 2891.24, 58195.78, 1927.06, 27605.70, -18957.83, -1251.56, 10208.22, -49707.89, -11235.66, 34408.72, -4127.12, -10719.38, 0.00, 0.00, 0.00, 0.00, 0.00, 0.00, 0.00
157, 2906.29, 58215.72, 1945.05, 27633.57, -18943.44, -1229.68, 10234.66, -49686.43, -11235.66, 34408.72, -4127.12, -10719.38, 0.00, 0.00, 0.00, 0.00, 0.00, 0.00, 0.00
158, 2906.29, 58215.72, 1945.05, 27633.57, -18943.44, -1229.68, 10234.66, -49686.43, -11231.46, 34433.78, -4114.15, -10730.47, 0.00, 0.00, 0.00, 0.00, 0.08, 0.36, 0.95
159, 2883.96, 58189.50, 1920.51, 27605.61, -18960.31, -1249.44, 10208.11, -49712.29, -11231.46, 34433.78, -4114.15, -10730.47, 0.00, 0.00, 0.00, 0.00, 0.00, 0.00, 0.00
160, 2883.96, 58189.50, 1920.51, 27605.61, -18960.31, -1249.44, 10208.11, -49712.29, -11230.37, 34413.10, -4134.18, -10718.33, 0.00, 0.00, 0.00, 0.00, 0.00, 0.00, 0.00
161, 2908.65, 58235.39, 1947.22, 27635.76, -18939.91, -1226.37, 10239.94, -49680.86, -11230.37, 34413.10, -4134.18, -10718.33, 0.00, 0.00, 0.00, 0.00, 0.00, 0.00, 0.00
162, 2908.65, 58235.39, 1947.22, 27635.76, -18939.91, -1226.37, 10239.94, -49680.86, -11219.39, 34442.61, -4106.42, -10738.43, 0.00, 0.00, 0.00, 0.00, 0.00, 0.00, 0.00
163, 2890.33, 58197.86, 1933.47, 27612.00, -18954.37, -1243.74, 10223.87, -49697.71, -11219.39, 34442.61, -4106.42, -10738.43, 0.00, 0.00, 0.00, 0.00, 0.00, 0.00, 0.00
164, 2890.33, 58197.86, 1933.47, 27612.00, -18954.37, -1243.74, 10223.87, -49697.71, -11222.41, 34411.40, -4131.00, -10702.22, 0.00, 0.00, 0.00, 0.00, 0.00, 0.00, 0.00
165, 2904.85, 58228.53, 1949.45, 27635.47, -18933.69, -1227.80, 10244.92, -49682.63, -11222.41, 34411.40, -4131.00, -10702.22, 0.00, 0.00, 0.00, 0.00, 0.00, 0.00, 0.00
166, 2904.85, 58228.53, 1949.45, 27635.47, -18933.69, -1227.80, 10244.92, -49682.63, -11224.38, 34452.91, -4098.28, -10771.73, 0.00, 0.00, 0.00, 0.00, 0.00, 0.00, 0.00
167, 2889.07, 58205.33, 1931.68, 27610.75, -18945.56, -1245.31, 10221.30, -49699.59, -11224.38, 34452.91, -4098.28, -10771.73, 0.00, 0.00, 0.00, 0.00, 0.00, 0.00, 0.00
168, 2889.07, 58205.33, 1931.68, 27610.75, -18945.56, -1245.31, 10221.30, -49699.59, -11223.95, 34410.20, -4134.98, -10689.68, 0.00, 0.00, 0.00, 0.00, 0.08, 0.36, 0.95
169, 2902.04, 58224.66, 1950.08, 27633.71, -18938.43, -1228.47, 10241.32, -49684.44, -11223.95, 34410.20, -4134.98, -10689.68, 0.00, 0.00, 0.00, 0.00, 0.00, 0.00, 0.00
170, 2902.04, 58224.66, 1950.08, 27633.71, -18938.43, -1228.47, 10241.32, -49684.44, -11234.12, 34433.22, -4100.20, -10765.61, 0.00, 0.00, 0.00, 0.00, 0.00, 0.00, 0.00
171, 2897.55, 58209.84, 1936.51, 27614.98, -18950.01, -1243.36, 10229.70, -49703.08, -11234.12, 34433.22, -4100.20, -10765.61, 0.00, 0.00, 0.00, 0.00, 0.00, 0.00, 0.00
172, 2897.55, 58209.84, 1936.51, 27614.98, -18950.01, -1243.36, 10229.70, -49703.08, -11218.92, 34413.23, -4132.88, -10697.52, 0.00, 0.00, 0.00, 0.00, 0.00, 0.00, 0.00
173, 2902.55, 58233.27, 1950.48, 27632.57, -18935.53, -1227.13, 10250.64, -49673.46, -11218.92, 34413.23, -4132.88, -10697.52, 0.00, 0.00, 0.00, 0.00, 0.00, 0.00, 0.00
174, 2902.55, 58233.27, 1950.48, 27632.57, -18935.53, -1227.13, 10250.64, -49673.46, -11196.01, 34471.66, -4098.19, -10745.58, 0.00, 0.00, 0.00, 0.00, 0.00, 0.00, 0.00
175, 2895.49, 58210.47, 1939.13, 27623.00, -18935.46, -1231.78, 10238.35, -49683.79, -11196.01, 34471.66, -4098.19, -10745.58, 0.00, 0.00, 0.00, 0.00, 0.00, 0.00, 0.00
176, 2895.49, 58210.47, 1939.13, 27623.00, -18935.46, -1231.78, 10238.35, -49683.79, -11231.42, 34417.80, -4136.23, -10655.37, 0.00, 0.00, 0.00, 0.00, 0.00, 0.00, 0.00
177, 2895.27, 58207.67, 1939.33, 27623.09, -18938.16, -1234.80, 10244.68, -49688.57, -11231.42, 34417.80, -4136.23, -10655.37, 0.00, 0.00, 0.00, 0.00, 0.00, 0.00, 0.00
178, 2895.27, 58207.67, 1939.33, 27623.09, -18938.16, -1234.80, 10244.68, -49688.57, -11218.16, 34452.17, -4097.14, -10766.70, 0.00, 0.00, 0.00, 0.00, 0.08, 0.36, 0.95
179, 2901.88, 58228.04, 1946.97, 27630.91, -18936.49, -1226.42, 10250.38, -49684.06, -11218.16, 34452.17, -4097.14, -10766.70, 0.00, 0.00, 0.00, 0.00, 0.00, 0.00, 0.00
180, 2901.88, 58228.04, 1946.97, 27630.91, -18936.49, -1226.42, 10250.38, -49684.06, -11225.83, 34413.21, -4135.18, -10683.49, 0.00, 0.00, 0.00, 0.00, 0.00, 0.00, 0.00
181, 2897.57, 58232.62, 1941.70, 27623.11, -18935.15, -1234.42, 10240.45, -49684.57, -11225.83, 34413.21, -4135.18, -10683.49, 0.00, 0.00, 0.00, 0.00, 0.00, 0.00, 0.00
182, 2897.57, 58232.62, 1941.70, 27623.11, -18935.15, -1234.42, 10240.45, -49684.57, -11214.94, 34462.43, -4095.49, -10718.09, 0.00, 0.00, 0.00, 0.00, 0.00, 0.00, 0.00
183, 2914.51, 58223.16, 1950.79, 27633.93, -18931.59, -1223.22, 10254.94, -49675.63, -11214.94, 34462.43, -4095.49, -10718.09, 0.00, 0.00, 0.00, 0.00, 0.00, 0.00, 0.00
184, 2914.51, 58223.16, 1950.79, 27633.93, -18931.59, -1223.22, 10254.94, -49675.63, -11219.57, 34421.17, -4137.02, -10691.60, 0.00, 0.00, 0.00, 0.00, 0.00, 0.00, 0.00
185, 2892.92, 58199.05, 1935.68, 27616.32, -18940.98, -1240.07, 10243.07, -49686.72, -11219.57, 34421.17, -4137.02, -10691.60, 0.00, 0.00, 0.00, 0.00, 0.00, 0.00, 0.00
186, 2892.92, 58199.05, 1935.68, 27616.32, -18940.98, -1240.07, 10243.07, -49686.72, -11212.19, 34463.19, -4104.18, -10734.96, 0.00, 0.00, 0.00, 0.00, 0.00, 0.00, 0.00
187, 2904.32, 58219.96, 1944.89, 27632.79, -18928.55, -1221.48, 10256.23, -49672.48, -11212.19, 34463.19, -4104.18, -10734.96, 0.00, 0.00, 0.00, 0.00, 0.07, 0.36, 0.95
188, 2904.32, 58219.96, 1944.89, 27632.79, -18928.55, -1221.48, 10256.23, -49672.48, -11231.64, 34418.87, -4132.73, -10665.58, 0.00, 0.00, 0.00, 0.00, 0.00, 0.00, 0.00
189, 2892.85, 58211.18, 1930.81, 27611.51, -18940.82, -1240.14, 10236.36, -49691.95, -11231.64, 34418.87, -4132.73, -10665.58, 0.00, 0.00, 0.00, 0.00, 0.00, 0.00, 0.00
190, 2892.85, 58211.18, 1930.81, 27611.51, -18940.82, -1240.14, 10236.36, -49691.95, -11210.58, 34451.37, -4110.96, -10724.88, 0.00, 0.00, 0.00, 0.00, 0.00, 0.00, 0.00
191, 2916.34, 58240.42, 1955.69, 27642.49, -18930.25, -1216.69, 10266.85, -49665.57, -11210.58, 34451.37, -4110.96, -10724.88, 0.00, 0.00, 0.00, 0.00, 0.00, 0.00, 0.00
192, 2916.34, 58240.42, 1955.69, 27642.49, -18930.25, -1216.69, 10266.85, -49665.57, -11209.06, 34438.41, -4122.42, -10700.36, 0.00, 0.00, 0.00, 0.00, 0.00, 0.00, 0.00
193, 2891.20, 58209.75, 1933.96, 27604.13, -18946.79, -1246.69, 10241.21, -49692.00, -11209.06, 34438.41, -4122.42, -10700.36, 0.00, 0.00, 0.00, 0.00, 0.00, 0.00, 0.00
194, 2891.20, 58209.75, 1933.96, 27604.13, -18946.79, -1246.69, 10241.21, -49692.00, -11217.85, 34448.30, -4110.28, -10710.29, 0.00, 0.00, 0.00, 0.00, 0.00, 0.00, 0.00
195, 2914.35, 58230.54, 1959.96, 27643.72, -18918.47, -1214.73, 10273.71, -49659.81, -11217.85, 34448.30, -4110.28, -10710.29, 0.00, 0.00, 0.00, 0.00, 0.00, 0.00, 0.00
196, 2914.35, 58230.54, 1959.96, 27643.72, -18918.47, -1214.73, 10273.71, -49659.81, -11206.23, 34449.18, -4115.27, -10664.02, 0.00, 0.00, 0.00, 0.00, 0.00, 0.00, 0.00
197, 2887.98, 58195.83, 1929.20, 27605.68, -18949.27, -1240.39, 10235.24, -49692.96, -11206.23, 34449.18, -4115.27, -10664.02, 0.00, 0.00, 0.00, 0.00, 0.08, 0.36, 0.95
198, 2887.98, 58195.83, 1929.20, 27605.68, -18949.27, -1240.39, 10235.24, -49692.96, -11225.16, 34438.72, -4123.67, -10733.84, 0.00, 0.00, 0.00, 0.00, 0.00, 0.00, 0.00
199, 2913.55, 58234.03, 1954.21, 27640.17, -18931.57, -1217.07, 10269.87, -49668.39, -11225.16, 34438.72, -4123.67, -10733.84, 0.00, 0.00, 0.00, 0.00, 0.00, 0.00, 0.00
200, 2913.55, 58234.03, 1954.21, 27640.17, -18931.57, -1217.07, 10269.87, -49668.39, -11211.21, 34447.41, -4118.04, -10668.93, 0.00, 0.00, 0.00, 0.00, 0.00, 0.00, 0.00
201, 2901.44, 58228.26, 1935.95, 27608.43, -18938.99, -1242.91, 10245.55, -49690.39, -11211.21, 34447.41, -4118.04, -10668.93, 0.00, 0.00, 0.00, 0.00, 0.00, 0.00, 0.00
202, 2901.44, 58228.26, 1935.95, 27608.43, -18938.99, -1242.91, 10245.55, -49690.39, -11219.44, 34442.83, -4125.48, -10675.77, 0.00, 0.00, 0.00, 0.00, 0.00, 0.00, 0.00
203, 2930.74, 58244.38, 1961.90, 27648.15, -18920.84, -1209.83, 10280.89, -49659.09, -11219.44, 34442.83, -4125.48, -10675.77, 0.00, 0.00, 0.00, 0.00, 0.00, 0.00, 0.00
