%OpenBCI Raw EEG Data
%
%Sample Rate = 250.0 Hz
%First Column = SampleIndex
%Other Columns = EEG data in microvolts followed by Accel Data (in G) interleaved with Aux Data
0, 0.00, 0.00, 0.00, 0.00, 0.00, 0.00, 0.00, 0.00, -7760.86, 37600.50, 6978.86, -11070.37, 0.00, 0.00, 0.00, 0.00, 0.12, 0.33, 0.95
1, 1031.53, 67442.66, 3698.41, 28467.49, -20135.75, -4041.42, 9136.23, -54421.31, -7760.86, 37600.50, 6978.86, -11070.37, 0.00, 0.00, 0.00, 0.00, 0.00, 0.00, 0.00
2, 1031.53, 67442.66, 3698.41, 28467.49, -20135.75, -4041.42, 9136.23, -54421.31, -7798.46, 37398.07, 7114.43, -10461.82, 0.00, 0.00, 0.00, 0.00, 0.00, 0.00, 0.00
3, 1016.71, 67421.45, 3681.20, 28446.48, -20150.10, -4060.78, 9111.69, -54441.81, -7798.46, 37398.07, 7114.43, -10461.82, 0.00, 0.00, 0.00, 0.00, 0.00, 0.00, 0.00
4, 1016.71, 67421.45, 3681.20, 28446.48, -20150.10, -4060.78, 9111.69, -54441.81, -7787.73, 37413.71, 7131.75, -10468.35, 0.00, 0.00, 0.00, 0.00, 0.00, 0.00, 0.00
5, 1041.23, 67460.02, 3709.43, 28477.91, -20128.88, -4033.84, 9144.21, -54414.43, -7787.73, 37413.71, 7131.75, -10468.35, 0.00, 0.00, 0.00, 0.00, 0.00, 0.00, 0.00
6, 1041.23, 67460.02, 3709.43, 28477.91, -20128.88, -4033.84, 9144.21, -54414.43, -7789.25, 37409.55, 7132.20, -10461.55, 0.00, 0.00, 0.00, 0.00, 0.15, 0.28, 0.96
7, 1021.30, 67431.99, 3689.29, 28450.35, -20145.52, -4057.09, 9115.31, -54438.70, -7789.25, 37409.55, 7132.20, -10461.55, 0.00, 0.00, 0.00, 0.00, 0.00, 0.00, 0.00
8, 1021.30, 67431.99, 3689.29, 28450.35, -20145.52, -4057.09, 9115.31, -54438.70, -7788.22, 37409.98, 7128.26, -10465.47, 0.00, 0.00, 0.00, 0.00, 0.00, 0.00, 0.00
9, 1041.75, 67456.00, 3709.54, 28482.20, -20126.09, -4030.76, 9147.76, -54413.44, -7788.22, 37409.98, 7128.26, -10465.47, 0.00, 0.00, 0.00, 0.00, 0.00, 0.00, 0.00
10, 1041.75, 67456.00, 3709.54, 28482.20, -20126.09, -4030.76, 9147.76, -54413.44, -7790.10, 37415.99, 7133.69, -10461.47, 0.00, 0.00, 0.00, 0.00, 0.00, 0.00, 0.00
11, 1017.05, 67423.95, 3681.31, 28445.07, -20147.79, -4058.96, 9112.52, -54442.32, -7790.10, 37415.99, 7133.69, -10461.47, 0.00, 0.00, 0.00, 0.00, 0.00, 0.00, 0.00
12, 1017.05, 67423.95, 3681.31, 28445.07, -20147.79, -4058.96, 9112.52, -54442.32, -7792.04, 37400.17, 7120.86, -10462.67, 0.00, 0.00, 0.00, 0.00, 0.00, 0.00, 0.00
13, 1032.94, 67450.86, 3704.91, 28477.31, -20130.92, -4035.94, 9144.30, -54418.85, -7792.04, 37400.17, 7120.86, -10462.67, 0.00, 0.00, 0.00, 0.00, 0.00, 0.00, 0.00
14, 1032.94, 67450.86, 3704.91, 28477.31, -20130.92, -4035.94, 9144.30, -54418.85, -7793.16, 37414.92, 7132.11, -10477.87, 0.00, 0.00, 0.00, 0.00, 0.00, 0.00, 0.00
15, 1013.05, 67419.27, 3678.96, 28448.16, -20148.76, -4057.47, 9114.59, -54439.30, -7793.16, 37414.92, 7132.11, -10477.87, 0.00, 0.00, 0.00, 0.00, 0.00, 0.00, 0.00
16, 1013.05, 67419.27, 3678.96, 28448.16, -20148.76, -4057.47, 9114.59, -54439.30, -7797.38, 37395.70, 7101.48, -10458.56, 0.00, 0.00, 0.00, 0.00, 0.14, 0.28, 0.96
17, 1019.80, 67430.65, 3686.61, 28464.28, -20141.74, -4041.33, 9137.53, -54424.33, -7797.38, 37395.70, 7101.48, -10458.56, 0.00, 0.00, 0.00, 0.00, 0.00, 0.00, 0.00
18, 1019.80, 67430.65, 3686.61, 28464.28, -20141.74, -4041.33, 9137.53, -54424.33, -7788.71, 37427.08, 7126.54, -10476.26, 0.00, 0.00, 0.00, 0.00, 0.00, 0.00, 0.00
19, 1008.35, 67410.06, 3670.56, 28441.54, -20153.67, -4060.26, 9111.17, -54441.70, -7788.71, 37427.08, 7126.54, -10476.26, 0.00, 0.00, 0.00, 0.00, 0.00, 0.00, 0.00
20, 1008.35, 67410.06, 3670.56, 28441.54, -20153.67, -4060.26, 9111.17, -54441.70, -7797.38, 37394.31, 7092.39, -10458.45, 0.00, 0.00, 0.00, 0.00, 0.00, 0.00, 0.00
21, 1019.28, 67423.32, 3683.50, 28461.79, -20146.95, -4045.35, 9129.26, -54430.30, -7797.38, 37394.31, 7092.39, -10458.45, 0.00, 0.00, 0.00, 0.00, 0.00, 0.00, 0.00
22, 1019.28, 67423.32, 3683.50, 28461.79, -20146.95, -4045.35, 9129.26, -54430.30, -7792.94, 37425.89, 7128.60, -10481.72, 0.00, 0.00, 0.00, 0.00, 0.00, 0.00, 0.00
23, 1011.66, 67412.99, 3674.60, 28446.64, -20153.34, -4057.36, 9114.10, -54443.80, -7792.94, 37425.89, 7128.60, -10481.72, 0.00, 0.00, 0.00, 0.00, 0.00, 0.00, 0.00
24, 1011.66, 67412.99, 3674.60, 28446.64, -20153.34, -4057.36, 9114.10, -54443.80, -7805.21, 37384.61, 7091.00, -10452.48, 0.00, 0.00, 0.00, 0.00, 0.00, 0.00, 0.00
25, 1023.60, 67429.27, 3686.23, 28462.51, -20144.29, -4044.26, 9132.50, -54428.86, -7805.21, 37384.61, 7091.00, -10452.48, 0.00, 0.00, 0.00, 0.00, 0.00, 0.00, 0.00
26, 1023.60, 67429.27, 3686.23, 28462.51, -20144.29, -4044.26, 9132.50, -54428.86, -7793.67, 37426.79, 7123.41, -10484.02, 0.00, 0.00, 0.00, 0.00, 0.14, 0.28, 0.97
27, 1017.67, 67420.77, 3680.62, 28453.63, -20148.11, -4050.49, 9121.79, -54434.18, -7793.67, 37426.79, 7123.41, -10484.02, 0.00, 0.00, 0.00, 0.00, 0.00, 0.00, 0.00
28, 1017.67, 67420.77, 3680.62, 28453.63, -20148.11, -4050.49, 9121.79, -54434.18, -7801.63, 37386.51, 7092.07, -10454.80, 0.00, 0.00, 0.00, 0.00, 0.00, 0.00, 0.00
29, 1021.54, 67430.12, 3688.24, 28459.27, -20145.20, -4045.44, 9130.35, -54431.70, -7801.63, 37386.51, 7092.07, -10454.80, 0.00, 0.00, 0.00, 0.00, 0.00, 0.00, 0.00
30, 1021.54, 67430.12, 3688.24, 28459.27, -20145.20, -4045.44, 9130.35, -54431.70, -7787.19, 37436.00, 7135.66, -10479.84, 0.00, 0.00, 0.00, 0.00, 0.00, 0.00, 0.00
31, 1020.04, 67428.20, 3688.60, 28458.29, -20141.51, -4043.94, 9129.86, -54429.71, -7787.19, 37436.00, 7135.66, -10479.84, 0.00, 0.00, 0.00, 0.00, 0.00, 0.00, 0.00
32, 1020.04, 67428.20, 3688.60, 28458.29, -20141.51, -4043.94, 9129.86, -54429.71, -7796.78, 37391.85, 7099.27, -10450.58, 0.00, 0.00, 0.00, 0.00, 0.00, 0.00, 0.00
33, 1012.76, 67422.45, 3682.23, 28451.78, -20147.97, -4049.53, 9127.09, -54431.64, -7796.78, 37391.85, 7099.27, -10450.58, 0.00, 0.00, 0.00, 0.00, 0.00, 0.00, 0.00
34, 1012.76, 67422.45, 3682.23, 28451.78, -20147.97, -4049.53, 9127.09, -54431.64, -7787.28, 37436.80, 7135.41, -10474.50, 0.00, 0.00, 0.00, 0.00, 0.00, 0.00, 0.00
35, 1022.99, 67430.23, 3691.28, 28462.29, -20139.41, -4041.02, 9133.48, -54425.51, -7787.28, 37436.80, 7135.41, -10474.50, 0.00, 0.00, 0.00, 0.00, 0.00, 0.00, 0.00
36, 1022.99, 67430.23, 3691.28, 28462.29, -20139.41, -4041.02, 9133.48, -54425.51, -7795.06, 37394.33, 7100.39, -10441.84, 0.00, 0.00, 0.00, 0.00, 0.15, 0.28, 0.97
37, 1011.30, 67420.33, 3680.37, 28451.87, -20146.92, -4050.20, 9125.97, -54432.89, -7795.06, 37394.33, 7100.39, -10441.84, 0.00, 0.00, 0.00, 0.00, 0.00, 0.00, 0.00
38, 1011.30, 67420.33, 3680.37, 28451.87, -20146.92, -4050.20, 9125.97, -54432.89, -7782.03, 37442.23, 7135.95, -10471.81, 0.00, 0.00, 0.00, 0.00, 0.00, 0.00, 0.00
39, 1020.49, 67429.04, 3690.16, 28464.37, -20136.24, -4038.22, 9139.23, -54421.63, -7782.03, 37442.23, 7135.95, -10471.81, 0.00, 0.00, 0.00, 0.00, 0.00, 0.00, 0.00
40, 1020.49, 67429.04, 3690.16, 28464.37, -20136.24, -4038.22, 9139.23, -54421.63, -7799.80, 37397.13, 7095.47, -10450.11, 0.00, 0.00, 0.00, 0.00, 0.00, 0.00, 0.00
41, 1002.72, 67404.70, 3668.52, 28445.14, -20156.33, -4054.56, 9118.53, -54442.41, -7799.80, 37397.13, 7095.47, -10450.11, 0.00, 0.00, 0.00, 0.00, 0.00, 0.00, 0.00
42, 1002.72, 67404.70, 3668.52, 28445.14, -20156.33, -4054.56, 9118.53, -54442.41, -7790.05, 37429.87, 7125.65, -10483.86, 0.00, 0.00, 0.00, 0.00, 0.00, 0.00, 0.00
43, 1012.44, 67419.56, 3681.22, 28460.50, -20144.49, -4039.52, 9136.12, -54425.36, -7790.05, 37429.87, 7125.65, -10483.86, 0.00, 0.00, 0.00, 0.00, 0.00, 0.00, 0.00
44, 1012.44, 67419.56, 3681.22, 28460.50, -20144.49, -4039.52, 9136.12, -54425.36, -7804.40, 37391.90, 7092.28, -10453.89, 0.00, 0.00, 0.00, 0.00, 0.00, 0.00, 0.00
45, 994.67, 67396.48, 3660.88, 28438.97, -20163.33, -4059.46, 9111.64, -54447.15, -7804.40, 37391.90, 7092.28, -10453.89, 0.00, 0.00, 0.00, 0.00, 0.15, 0.28, 0.97
46, 994.67, 67396.48, 3660.88, 28438.97, -20163.33, -4059.46, 9111.64, -54447.15, -7795.57, 37423.28, 7112.64, -10475.55, 0.00, 0.00, 0.00, 0.00, 0.00, 0.00, 0.00
47, 1011.57, 67418.55, 3680.06, 28462.40, -20146.21, -4039.27, 9136.61, -54428.69, -7795.57, 37423.28, 7112.64, -10475.55, 0.00, 0.00, 0.00, 0.00, 0.00, 0.00, 0.00
48, 1011.57, 67418.55, 3680.06, 28462.40, -20146.21, -4039.27, 9136.61, -54428.69, -7802.64, 37397.53, 7093.10, -10459.28, 0.00, 0.00, 0.00, 0.00, 0.00, 0.00, 0.00
49, 994.79, 67393.19, 3656.21, 28435.31, -20165.70, -4062.45, 9108.85, -54450.82, -7802.64, 37397.53, 7093.10, -10459.28, 0.00, 0.00, 0.00, 0.00, 0.00, 0.00, 0.00
50, 994.79, 67393.19, 3656.21, 28435.31, -20165.70, -4062.45, 9108.85, -54450.82, -7792.71, 37418.03, 7110.27, -10472.95, 0.00, 0.00, 0.00, 0.00, 0.00, 0.00, 0.00
51, 1013.94, 67423.25, 3682.14, 28466.91, -20144.11, -4036.14, 9141.42, -54425.63, -7792.71, 37418.03, 7110.27, -10472.95, 0.00, 0.00, 0.00, 0.00, 0.00, 0.00, 0.00
52, 1013.94, 67423.25, 3682.14, 28466.91, -20144.11, -4036.14, 9141.42, -54425.63, -7801.79, 37401.82, 7100.57, -10473.33, 0.00, 0.00, 0.00, 0.00, 0.00, 0.00, 0.00
53, 990.16, 67393.21, 3657.48, 28434.84, -20163.33, -4061.31, 9109.92, -54453.05, -7801.79, 37401.82, 7100.57, -10473.33, 0.00, 0.00, 0.00, 0.00, 0.00, 0.00, 0.00
54, 990.16, 67393.21, 3657.48, 28434.84, -20163.33, -4061.31, 9109.92, -54453.05, -7800.92, 37407.66, 7099.34, -10477.80, 0.00, 0.00, 0.00, 0.00, 0.00, 0.00, 0.00
55, 1014.23, 67421.30, 3679.88, 28466.46, -20144.98, -4034.67, 9141.53, -54428.80, -7800.92, 37407.66, 7099.34, -10477.80, 0.00, 0.00, 0.00, 0.00, 0.15, 0.28, 0.97
56, 1014.23, 67421.30, 3679.88, 28466.46, -20144.98, -4034.67, 9141.53, -54428.80, -7798.61, 37412.50, 7104.64, -10464.48, 0.00, 0.00, 0.00, 0.00, 0.00, 0.00, 0.00
57, 997.33, 67397.13, 3660.41, 28438.91, -20159.33, -4057.24, 9114.71, -54448.24, -7798.61, 37412.50, 7104.64, -10464.48, 0.00, 0.00, 0.00, 0.00, 0.00, 0.00, 0.00
58, 997.33, 67397.13, 3660.41, 28438.91, -20159.33, -4057.24, 9114.71, -54448.24, -7791.30, 37410.36, 7100.30, -10461.96, 0.00, 0.00, 0.00, 0.00, 0.00, 0.00, 0.00
59, 1014.50, 67427.90, 3686.41, 28467.65, -20139.44, -4032.66, 9147.94, -54421.78, -7791.30, 37410.36, 7100.30, -10461.96, 0.00, 0.00, 0.00, 0.00, 0.00, 0.00, 0.00
60, 1014.50, 67427.90, 3686.41, 28467.65, -20139.44, -4032.66, 9147.94, -54421.78, -7789.72, 37421.87, 7112.24, -10471.05, 0.00, 0.00, 0.00, 0.00, 0.00, 0.00, 0.00
61, 996.91, 67403.12, 3665.44, 28441.90, -20156.02, -4055.12, 9119.15, -54445.92, -7789.72, 37421.87, 7112.24, -10471.05, 0.00, 0.00, 0.00, 0.00, 0.00, 0.00, 0.00
62, 996.91, 67403.12, 3665.44, 28441.90, -20156.02, -4055.12, 9119.15, -54445.92, -7790.90, 37406.87, 7099.29, -10458.96, 0.00, 0.00, 0.00, 0.00, 0.00, 0.00, 0.00
63, 1017.25, 67432.23, 3689.67, 28468.88, -20137.63, -4032.17, 9151.00, -54420.80, -7790.90, 37406.87, 7099.29, -10458.96, 0.00, 0.00, 0.00, 0.00, 0.00, 0.00, 0.00
64, 1017.25, 67432.23, 3689.67, 28468.88, -20137.63, -4032.17, 9151.00, -54420.80, -7785.78, 37428.96, 7123.59, -10473.85, 0.00, 0.00, 0.00, 0.00, 0.00, 0.00, 0.00
65, 1007.86, 67414.52, 3675.92, 28448.49, -20145.56, -4048.71, 9127.71, -54437.89, -7785.78, 37428.96, 7123.59, -10473.85, 0.00, 0.00, 0.00, 0.00, 0.14, 0.28, 0.97
66, 1007.86, 67414.52, 3675.92, 28448.49, -20145.56, -4048.71, 9127.71, -54437.89, -7786.05, 37407.05, 7098.51, -10448.50, 0.00, 0.00, 0.00, 0.00, 0.00, 0.00, 0.00
67, 1017.38, 67432.20, 3688.64, 28468.99, -20135.72, -4030.56, 9152.41, -54418.81, -7786.05, 37407.05, 7098.51, -10448.50, 0.00, 0.00, 0.00, 0.00, 0.00, 0.00, 0.00
68, 1017.38, 67432.20, 3688.64, 28468.99, -20135.72, -4030.56, 9152.41, -54418.81, -7778.61, 37443.93, 7128.82, -10466.43, 0.00, 0.00, 0.00, 0.00, 0.00, 0.00, 0.00
69, 1005.00, 67415.30, 3675.34, 28450.30, -20141.45, -4044.24, 9135.22, -54430.09, -7778.61, 37443.93, 7128.82, -10466.43, 0.00, 0.00, 0.00, 0.00, 0.00, 0.00, 0.00
70, 1005.00, 67415.30, 3675.34, 28450.30, -20141.45, -4044.24, 9135.22, -54430.09, -7784.26, 37411.50, 7095.99, -10440.99, 0.00, 0.00, 0.00, 0.00, 0.00, 0.00, 0.00
71, 1016.96, 67432.88, 3689.60, 28470.13, -20132.35, -4029.82, 9153.46, -54416.04, -7784.26, 37411.50, 7095.99, -10440.99, 0.00, 0.00, 0.00, 0.00, 0.00, 0.00, 0.00
72, 1016.96, 67432.88, 3689.60, 28470.13, -20132.35, -4029.82, 9153.46, -54416.04, -7779.66, 37441.79, 7130.54, -10478.59, 0.00, 0.00, 0.00, 0.00, 0.00, 0.00, 0.00
73, 1008.82, 67418.65, 3677.71, 28454.87, -20143.88, -4042.45, 9135.40, -54433.56, -7779.66, 37441.79, 7130.54, -10478.59, 0.00, 0.00, 0.00, 0.00, 0.00, 0.00, 0.00
74, 1008.82, 67418.65, 3677.71, 28454.87, -20143.88, -4042.45, 9135.40, -54433.56, -7794.46, 37400.30, 7090.91, -10439.38, 0.00, 0.00, 0.00, 0.00, 0.00, 0.00, 0.00
75, 1013.36, 67427.55, 3683.30, 28463.78, -20140.71, -4037.24, 9146.56, -54425.94, -7794.46, 37400.30, 7090.91, -10439.38, 0.00, 0.00, 0.00, 0.00, 0.14, 0.28, 0.97
76, 1013.36, 67427.55, 3683.30, 28463.78, -20140.71, -4037.24, 9146.56, -54425.94, -7782.63, 37444.11, 7126.67, -10473.54, 0.00, 0.00, 0.00, 0.00, 0.00, 0.00, 0.00
77, 1011.77, 67418.58, 3679.83, 28461.10, -20140.24, -4038.65, 9140.05, -54429.83, -7782.63, 37444.11, 7126.67, -10473.54, 0.00, 0.00, 0.00, 0.00, 0.00, 0.00, 0.00
78, 1011.77, 67418.58, 3679.83, 28461.10, -20140.24, -4038.65, 9140.05, -54429.83, -7793.96, 37397.51, 7088.16, -10446.09, 0.00, 0.00, 0.00, 0.00, 0.00, 0.00, 0.00
79, 1008.02, 67420.33, 3681.47, 28462.93, -20141.31, -4037.33, 9144.50, -54427.82, -7793.96, 37397.51, 7088.16, -10446.09, 0.00, 0.00, 0.00, 0.00, 0.00, 0.00, 0.00
80, 1008.02, 67420.33, 3681.47, 28462.93, -20141.31, -4037.33, 9144.50, -54427.82, -7783.41, 37443.48, 7123.70, -10475.55, 0.00, 0.00, 0.00, 0.00, 0.00, 0.00, 0.00
81, 1008.51, 67419.12, 3678.47, 28463.09, -20142.97, -4036.10, 9142.87, -54429.29, -7783.41, 37443.48, 7123.70, -10475.55, 0.00, 0.00, 0.00, 0.00, 0.00, 0.00, 0.00
82, 1008.51, 67419.12, 3678.47, 28463.09, -20142.97, -4036.10, 9142.87, -54429.29, -7798.61, 37392.97, 7081.95, -10456.97, 0.00, 0.00, 0.00, 0.00, 0.00, 0.00, 0.00
83, 1001.47, 67416.05, 3674.92, 28458.91, -20146.39, -4041.35, 9138.15, -54437.18, -7798.61, 37392.97, 7081.95, -10456.97, 0.00, 0.00, 0.00, 0.00, 0.00, 0.00, 0.00
84, 1001.47, 67416.05, 3674.92, 28458.91, -20146.39, -4041.35, 9138.15, -54437.18, -7781.65, 37441.90, 7123.79, -10473.56, 0.00, 0.00, 0.00, 0.00, 0.14, 0.28, 0.97
85, 1014.59, 67425.58, 3683.77, 28470.20, -20134.07, -4030.94, 9150.56, -54424.77, -7781.65, 37441.90, 7123.79, -10473.56, 0.00, 0.00, 0.00, 0.00, 0.00, 0.00, 0.00
86, 1014.59, 67425.58, 3683.77, 28470.20, -20134.07, -4030.94, 9150.56, -54424.77, -7794.23, 37403.68, 7086.17, -10438.53, 0.00, 0.00, 0.00, 0.00, 0.00, 0.00, 0.00
87, 1004.38, 67412.48, 3673.82, 28457.61, -20146.10, -4041.04, 9139.07, -54435.28, -7794.23, 37403.68, 7086.17, -10438.53, 0.00, 0.00, 0.00, 0.00, 0.00, 0.00, 0.00
88, 1004.38, 67412.48, 3673.82, 28457.61, -20146.10, -4041.04, 9139.07, -54435.28, -7785.25, 37440.45, 7120.15, -10477.47, 0.00, 0.00, 0.00, 0.00, 0.00, 0.00, 0.00
89, 1017.23, 67434.02, 3692.53, 28477.51, -20131.19, -4026.09, 9157.31, -54423.07, -7785.25, 37440.45, 7120.15, -10477.47, 0.00, 0.00, 0.00, 0.00, 0.00, 0.00, 0.00
90, 1017.23, 67434.02, 3692.53, 28477.51, -20131.19, -4026.09, 9157.31, -54423.07, -7791.08, 37404.68, 7091.54, -10441.80, 0.00, 0.00, 0.00, 0.00, 0.00, 0.00, 0.00
91, 1006.70, 67420.26, 3678.99, 28463.00, -20141.36, -4039.63, 9142.94, -54434.03, -7791.08, 37404.68, 7091.54, -10441.80, 0.00, 0.00, 0.00, 0.00, 0.00, 0.00, 0.00
92, 1006.70, 67420.26, 3678.99, 28463.00, -20141.36, -4039.63, 9142.94, -54434.03, -7783.08, 37438.52, 7116.95, -10468.30, 0.00, 0.00, 0.00, 0.00, 0.00, 0.00, 0.00
93, 1021.59, 67437.27, 3692.64, 28480.59, -20125.60, -4020.63, 9167.17, -54413.58, -7783.08, 37438.52, 7116.95, -10468.30, 0.00, 0.00, 0.00, 0.00, 0.00, 0.00, 0.00
94, 1021.59, 67437.27, 3692.64, 28480.59, -20125.60, -4020.63, 9167.17, -54413.58, -7791.86, 37410.67, 7095.74, -10449.26, 0.00, 0.00, 0.00, 0.00, 0.14, 0.28, 0.96
95, 999.19, 67406.04, 3666.80, 28454.69, -20148.94, -4042.20, 9139.65, -54439.82, -7791.86, 37410.67, 7095.74, -10449.26, 0.00, 0.00, 0.00, 0.00, 0.00, 0.00, 0.00
96, 999.19, 67406.04, 3666.80, 28454.69, -20148.94, -4042.20, 9139.65, -54439.82, -7784.40, 37433.76, 7106.20, -10465.96, 0.00, 0.00, 0.00, 0.00, 0.00, 0.00, 0.00
97, 1019.53, 67437.73, 3693.33, 28480.77, -20124.19, -4019.11, 9170.94, -54412.57, -7784.40, 37433.76, 7106.20, -10465.96, 0.00, 0.00, 0.00, 0.00, 0.00, 0.00, 0.00
98, 1019.53, 67437.73, 3693.33, 28480.77, -20124.19, -4019.11, 9170.94, -54412.57, -7788.40, 37417.73, 7103.83, -10452.32, 0.00, 0.00, 0.00, 0.00, 0.00, 0.00, 0.00
99, 1001.72, 67409.17, 3667.36, 28451.33, -20145.92, -4044.46, 9141.59, -54438.88, -7788.40, 37417.73, 7103.83, -10452.32, 0.00, 0.00, 0.00, 0.00, 0.00, 0.00, 0.00
100, 1001.72, 67409.17, 3667.36, 28451.33, -20145.92, -4044.46, 9141.59, -54438.88, -7785.43, 37431.44, 7104.30, -10467.52, 0.00, 0.00, 0.00, 0.00, 0.00, 0.00, 0.00
101, 1020.18, 67431.79, 3686.12, 28478.38, -20130.58, -4021.30, 9170.47, -54415.10, -7785.43, 37431.44, 7104.30, -10467.52, 0.00, 0.00, 0.00, 0.00, 0.00, 0.00, 0.00
102, 1020.18, 67431.79, 3686.12, 28478.38, -20130.58, -4021.30, 9170.47, -54415.10, -7789.85, 37429.02, 7097.04, -10444.39, 0.00, 0.00, 0.00, 0.00, 0.00, 0.00, 0.00
103, 1000.71, 67404.30, 3664.28, 28449.39, -20149.52, -4044.93, 9141.57, -54440.42, -7789.85, 37429.02, 7097.04, -10444.39, 0.00, 0.00, 0.00, 0.00, 0.00, 0.00, 0.00
104, 1000.71, 67404.30, 3664.28, 28449.39, -20149.52, -4044.93, 9141.57, -54440.42, -7789.90, 37424.15, 7096.59, -10455.43, 0.00, 0.00, 0.00, 0.00, 0.14, 0.28, 0.97
105, 1019.08, 67430.92, 3685.36, 28479.16, -20135.10, -4021.75, 9170.29, -54419.86, -7789.90, 37424.15, 7096.59, -10455.43, 0.00, 0.00, 0.00, 0.00, 0.00, 0.00, 0.00
106, 1019.08, 67430.92, 3685.36, 28479.16, -20135.10, -4021.75, 9170.29, -54419.86, -7801.29, 37424.53, 7091.34, -10467.54, 0.00, 0.00, 0.00, 0.00, 0.00, 0.00, 0.00
107, 1000.69, 67405.57, 3661.37, 28449.72, -20154.70, -4045.89, 9140.90, -54445.76, -7801.29, 37424.53, 7091.34, -10467.54, 0.00, 0.00, 0.00, 0.00, 0.00, 0.00, 0.00
108, 1000.69, 67405.57, 3661.37, 28449.72, -20154.70, -4045.89, 9140.90, -54445.76, -7797.81, 37413.46, 7083.92, -10460.30, 0.00, 0.00, 0.00, 0.00, 0.00, 0.00, 0.00
109, 1017.94, 67430.41, 3681.60, 28476.90, -20136.31, -4022.46, 9173.42, -54421.18, -7797.81, 37413.46, 7083.92, -10460.30, 0.00, 0.00, 0.00, 0.00, 0.00, 0.00, 0.00
110, 1017.94, 67430.41, 3681.60, 28476.90, -20136.31, -4022.46, 9173.42, -54421.18, -7793.78, 37435.17, 7099.18, -10470.23, 0.00, 0.00, 0.00, 0.00, 0.00, 0.00, 0.00
111, 998.79, 67407.41, 3663.79, 28451.94, -20149.43, -4043.50, 9148.70, -54439.86, -7793.78, 37435.17, 7099.18, -10470.23, 0.00, 0.00, 0.00, 0.00, 0.00, 0.00, 0.00
112, 998.79, 67407.41, 3663.79, 28451.94, -20149.43, -4043.50, 9148.70, -54439.86, -7790.12, 37418.43, 7086.11, -10444.57, 0.00, 0.00, 0.00, 0.00, 0.00, 0.00, 0.00
113, 1012.47, 67431.34, 3684.04, 28476.84, -20133.31, -4022.91, 9179.03, -54418.72, -7790.12, 37418.43, 7086.11, -10444.57, 0.00, 0.00, 0.00, 0.00, 0.00, 0.00, 0.00
114, 1012.47, 67431.34, 3684.04, 28476.84, -20133.31, -4022.91, 9179.03, -54418.72, -7788.76, 37443.24, 7106.71, -10463.43, 0.00, 0.00, 0.00, 0.00, 0.14, 0.29, 0.97
115, 1001.89, 67410.91, 3664.59, 28454.11, -20146.32, -4039.56, 9156.86, -54436.98, -7788.76, 37443.24, 7106.71, -10463.43, 0.00, 0.00, 0.00, 0.00, 0.00, 0.00, 0.00
116, 1001.89, 67410.91, 3664.59, 28454.11, -20146.32, -4039.56, 9156.86, -54436.98, -7789.38, 37420.46, 7083.94, -10436.14, 0.00, 0.00, 0.00, 0.00, 0.00, 0.00, 0.00
117, 1016.02, 67432.73, 3683.75, 28478.00, -20132.21, -4019.80, 9186.16, -54416.84, -7789.38, 37420.46, 7083.94, -10436.14, 0.00, 0.00, 0.00, 0.00, 0.00, 0.00, 0.00
118, 1016.02, 67432.73, 3683.75, 28478.00, -20132.21, -4019.80, 9186.16, -54416.84, -7783.59, 37453.27, 7114.96, -10461.80, 0.00, 0.00, 0.00, 0.00, 0.00, 0.00, 0.00
119, 1008.47, 67419.70, 3674.78, 28463.07, -20137.11, -4031.56, 9171.48, -54429.96, -7783.59, 37453.27, 7114.96, -10461.80, 0.00, 0.00, 0.00, 0.00, 0.00, 0.00, 0.00
120, 1008.47, 67419.70, 3674.78, 28463.07, -20137.11, -4031.56, 9171.48, -54429.96, -7788.42, 37417.87, 7086.04, -10437.95, 0.00, 0.00, 0.00, 0.00, 0.00, 0.00, 0.00
121, 1014.90, 67436.51, 3684.37, 28475.96, -20129.49, -4022.26, 9189.03, -54419.41, -7788.42, 37417.87, 7086.04, -10437.95, 0.00, 0.00, 0.00, 0.00, 0.00, 0.00, 0.00
122, 1014.90, 67436.51, 3684.37, 28475.96, -20129.49, -4022.26, 9189.03, -54419.41, -7778.00, 37458.37, 7124.24, -10460.04, 0.00, 0.00, 0.00, 0.00, 0.00, 0.00, 0.00
123, 1008.29, 67422.70, 3677.71, 28465.88, -20130.27, -4027.36, 9182.79, -54422.92, -7778.00, 37458.37, 7124.24, -10460.04, 0.00, 0.00, 0.00, 0.00, 0.14, 0.28, 0.97
124, 1008.29, 67422.70, 3677.71, 28465.88, -20130.27, -4027.36, 9182.79, -54422.92, -7785.87, 37422.16, 7090.11, -10429.30, 0.00, 0.00, 0.00, 0.00, 0.00, 0.00, 0.00
125, 1007.37, 67427.92, 3682.38, 28470.94, -20129.06, -4022.78, 9192.36, -54417.58, -7785.87, 37422.16, 7090.11, -10429.30, 0.00, 0.00, 0.00, 0.00, 0.00, 0.00, 0.00
126, 1007.37, 67427.92, 3682.38, 28470.94, -20129.06, -4022.78, 9192.36, -54417.58, -7775.28, 37468.63, 7131.01, -10459.79, 0.00, 0.00, 0.00, 0.00, 0.00, 0.00, 0.00
127, 1008.04, 67428.13, 3681.33, 28468.77, -20125.31, -4024.39, 9193.34, -54416.82, -7775.28, 37468.63, 7131.01, -10459.79, 0.00, 0.00, 0.00, 0.00, 0.00, 0.00, 0.00
128, 1008.04, 67428.13, 3681.33, 28468.77, -20125.31, -4024.39, 9193.34, -54416.82, -7785.58, 37423.93, 7089.03, -10426.98, 0.00, 0.00, 0.00, 0.00, 0.00, 0.00, 0.00
129, 1003.21, 67423.77, 3677.91, 28467.09, -20130.83, -4027.27, 9194.75, -54422.88, -7785.58, 37423.93, 7089.03, -10426.98, 0.00, 0.00, 0.00, 0.00, 0.00, 0.00, 0.00
130, 1003.21, 67423.77, 3677.91, 28467.09, -20130.83, -4027.27, 9194.75, -54422.88, -7778.29, 37458.89, 7125.62, -10469.74, 0.00, 0.00, 0.00, 0.00, 0.00, 0.00, 0.00
131, 1007.50, 67422.42, 3676.17, 28468.01, -20129.78, -4024.90, 9196.63, -54421.85, -7778.29, 37458.89, 7125.62, -10469.74, 0.00, 0.00, 0.00, 0.00, 0.00, 0.00, 0.00
132, 1007.50, 67422.42, 3676.17, 28468.01, -20129.78, -4024.90, 9196.63, -54421.85, -7791.46, 37417.11, 7079.78, -10427.51, 0.00, 0.00, 0.00, 0.00, 0.00, 0.00, 0.00
133, 994.81, 67412.93, 3665.51, 28456.72, -20138.45, -4031.94, 9191.80, -54426.70, -7791.46, 37417.11, 7079.78, -10427.51, 0.00, 0.00, 0.00, 0.00, 0.14, 0.29, 0.97
134, 994.81, 67412.93, 3665.51, 28456.72, -20138.45, -4031.94, 9191.80, -54426.70, -7776.91, 37460.79, 7122.03, -10463.01, 0.00, 0.00, 0.00, 0.00, 0.00, 0.00, 0.00
135, 1010.23, 67430.38, 3681.47, 28473.48, -20124.59, -4020.61, 9207.82, -54416.39, -7776.91, 37460.79, 7122.03, -10463.01, 0.00, 0.00, 0.00, 0.00, 0.00, 0.00, 0.00
136, 1010.23, 67430.38, 3681.47, 28473.48, -20124.59, -4020.61, 9207.82, -54416.39, -7787.71, 37422.45, 7089.53, -10431.25, 0.00, 0.00, 0.00, 0.00, 0.00, 0.00, 0.00
137, 1000.53, 67419.63, 3674.56, 28461.86, -20133.85, -4031.52, 9199.20, -54428.91, -7787.71, 37422.45, 7089.53, -10431.25, 0.00, 0.00, 0.00, 0.00, 0.00, 0.00, 0.00
138, 1000.53, 67419.63, 3674.56, 28461.86, -20133.85, -4031.52, 9199.20, -54428.91, -7776.04, 37458.24, 7119.25, -10462.52, 0.00, 0.00, 0.00, 0.00, 0.00, 0.00, 0.00
139, 1018.23, 67438.72, 3688.95, 28479.12, -20118.78, -4014.53, 9224.03, -54410.63, -7776.04, 37458.24, 7119.25, -10462.52, 0.00, 0.00, 0.00, 0.00, 0.00, 0.00, 0.00
140, 1018.23, 67438.72, 3688.95, 28479.12, -20118.78, -4014.53, 9224.03, -54410.63, -7784.84, 37427.26, 7098.98, -10433.44, 0.00, 0.00, 0.00, 0.00, 0.00, 0.00, 0.00
141, 997.58, 67413.30, 3667.94, 28456.92, -20136.39, -4034.45, 9201.52, -54432.89, -7784.84, 37427.26, 7098.98, -10433.44, 0.00, 0.00, 0.00, 0.00, 0.00, 0.00, 0.00
142, 997.58, 67413.30, 3667.94, 28456.92, -20136.39, -4034.45, 9201.52, -54432.89, -7775.70, 37450.88, 7111.03, -10461.17, 0.00, 0.00, 0.00, 0.00, 0.00, 0.00, 0.00
143, 1009.23, 67433.24, 3685.96, 28480.37, -20116.70, -4012.79, 9233.01, -54407.90, -7775.70, 37450.88, 7111.03, -10461.17, 0.00, 0.00, 0.00, 0.00, 0.14, 0.29, 0.97
144, 1009.23, 67433.24, 3685.96, 28480.37, -20116.70, -4012.79, 9233.01, -54407.90, -7780.35, 37433.47, 7094.89, -10438.69, 0.00, 0.00, 0.00, 0.00, 0.00, 0.00, 0.00
145, 990.96, 67408.19, 3664.86, 28453.37, -20136.60, -4035.74, 9207.76, -54432.33, -7780.35, 37433.47, 7094.89, -10438.69, 0.00, 0.00, 0.00, 0.00, 0.00, 0.00, 0.00
146, 990.96, 67408.19, 3664.86, 28453.37, -20136.60, -4035.74, 9207.76, -54432.33, -7772.77, 37449.30, 7111.21, -10447.61, 0.00, 0.00, 0.00, 0.00, 0.00, 0.00, 0.00
147, 1011.86, 67438.41, 3689.18, 28480.28, -20115.12, -4011.18, 9242.04, -54406.25, -7772.77, 37449.30, 7111.21, -10447.61, 0.00, 0.00, 0.00, 0.00, 0.00, 0.00, 0.00
148, 1011.86, 67438.41, 3689.18, 28480.28, -20115.12, -4011.18, 9242.04, -54406.25, -7771.81, 37443.64, 7105.26, -10437.01, 0.00, 0.00, 0.00, 0.00, 0.00, 0.00, 0.00
149, 991.57, 67411.95, 3666.65, 28452.54, -20132.01, -4033.17, 9218.31, -54427.55, -7771.81, 37443.64, 7105.26, -10437.01, 0.00, 0.00, 0.00, 0.00, 0.00, 0.00, 0.00
150, 991.57, 67411.95, 3666.65, 28452.54, -20132.01, -4033.17, 9218.31, -54427.55, -7767.30, 37448.74, 7110.94, -10445.84, 0.00, 0.00, 0.00, 0.00, 0.00, 0.00, 0.00
151, 1012.24, 67441.38, 3691.61, 28485.15, -20112.10, -4006.86, 9252.57, -54404.03, -7767.30, 37448.74, 7110.94, -10445.84, 0.00, 0.00, 0.00, 0.00, 0.00, 0.00, 0.00
152, 1012.24, 67441.38, 3691.61, 28485.15, -20112.10, -4006.86, 9252.57, -54404.03, -7774.34, 37446.52, 7106.96, -10443.83, 0.00, 0.00, 0.00, 0.00, 0.00, 0.00, 0.00
153, 991.61, 67409.62, 3664.97, 28452.00, -20134.07, -4033.77, 9222.58, -54433.58, -7774.34, 37446.52, 7106.96, -10443.83, 0.00, 0.00, 0.00, 0.00, 0.14, 0.29, 0.96
154, 991.61, 67409.62, 3664.97, 28452.00, -20134.07, -4033.77, 9222.58, -54433.58, -7776.33, 37438.63, 7096.59, -10442.00, 0.00, 0.00, 0.00, 0.00, 0.00, 0.00, 0.00
155, 1006.54, 67429.51, 3682.67, 28480.88, -20119.10, -4010.75, 9256.04, -54410.83, -7776.33, 37438.63, 7096.59, -10442.00, 0.00, 0.00, 0.00, 0.00, 0.00, 0.00, 0.00
156, 1006.54, 67429.51, 3682.67, 28480.88, -20119.10, -4010.75, 9256.04, -54410.83, -7776.93, 37446.57, 7104.19, -10453.31, 0.00, 0.00, 0.00, 0.00, 0.00, 0.00, 0.00
157, 988.86, 67404.61, 3663.09, 28456.27, -20134.21, -4032.05, 9231.05, -54432.53, -7776.93, 37446.57, 7104.19, -10453.31, 0.00, 0.00, 0.00, 0.00, 0.00, 0.00, 0.00
158, 988.86, 67404.61, 3663.09, 28456.27, -20134.21, -4032.05, 9231.05, -54432.53, -7779.10, 37432.46, 7089.86, -10439.25, 0.00, 0.00, 0.00, 0.00, 0.00, 0.00, 0.00
159, 1010.30, 67433.11, 3685.24, 28483.32, -20116.99, -4008.27, 9265.98, -54407.95, -7779.10, 37432.46, 7089.86, -10439.25, 0.00, 0.00, 0.00, 0.00, 0.00, 0.00, 0.00
160, 1010.30, 67433.11, 3685.24, 28483.32, -20116.99, -4008.27, 9265.98, -54407.95, -7773.71, 37455.46, 7112.50, -10449.40, 0.00, 0.00, 0.00, 0.00, 0.00, 0.00, 0.00
161, 995.75, 67410.42, 3668.50, 28458.58, -20130.32, -4028.75, 9243.16, -54430.81, -7773.71, 37455.46, 7112.50, -10449.40, 0.00, 0.00, 0.00, 0.00, 0.00, 0.00, 0.00
162, 995.75, 67410.42, 3668.50, 28458.58, -20130.32, -4028.75, 9243.16, -54430.81, -7780.28, 37429.47, 7085.97, -10435.36, 0.00, 0.00, 0.00, 0.00, 0.14, 0.28, 0.97
163, 1008.13, 67428.30, 3682.61, 28483.10, -20120.01, -4011.76, 9269.45, -54414.70, -7780.28, 37429.47, 7085.97, -10435.36, 0.00, 0.00, 0.00, 0.00, 0.00, 0.00, 0.00
164, 1008.13, 67428.30, 3682.61, 28483.10, -20120.01, -4011.76, 9269.45, -54414.70, -7775.26, 37459.02, 7113.20, -10462.74, 0.00, 0.00, 0.00, 0.00, 0.00, 0.00, 0.00
165, 998.68, 67414.06, 3668.77, 28464.25, -20127.79, -4024.92, 9253.91, -54430.05, -7775.26, 37459.02, 7113.20, -10462.74, 0.00, 0.00, 0.00, 0.00, 0.00, 0.00, 0.00
166, 998.68, 67414.06, 3668.77, 28464.25, -20127.79, -4024.92, 9253.91, -54430.05, -7781.27, 37427.68, 7077.10, -10432.21, 0.00, 0.00, 0.00, 0.00, 0.00, 0.00, 0.00
167, 1009.70, 67426.80, 3679.28, 28480.77, -20122.45, -4011.11, 9275.75, -54416.24, -7781.27, 37427.68, 7077.10, -10432.21, 0.00, 0.00, 0.00, 0.00, 0.00, 0.00, 0.00
168, 1009.70, 67426.80, 3679.28, 28480.77, -20122.45, -4011.11, 9275.75, -54416.24, -7772.06, 37462.46, 7112.44, -10455.36, 0.00, 0.00, 0.00, 0.00, 0.00, 0.00, 0.00
169, 1000.29, 67413.46, 3670.96, 28466.44, -20124.97, -4022.84, 9266.45, -54424.57, -7772.06, 37462.46, 7112.44, -10455.36, 0.00, 0.00, 0.00, 0.00, 0.00, 0.00, 0.00
170, 1000.29, 67413.46, 3670.96, 28466.44, -20124.97, -4022.84, 9266.45, -54424.57, -7779.99, 37425.63, 7079.45, -10426.06, 0.00, 0.00, 0.00, 0.00, 0.00, 0.00, 0.00
171, 1004.09, 67426.36, 3680.26, 28478.27, -20120.71, -4014.33, 9282.21, -54416.57, -7779.99, 37425.63, 7079.45, -10426.06, 0.00, 0.00, 0.00, 0.00, 0.00, 0.00, 0.00
172, 1004.09, 67426.36, 3680.26, 28478.27, -20120.71, -4014.33, 9282.21, -54416.57, -7767.16, 37468.00, 7119.63, -10457.20, 0.00, 0.00, 0.00, 0.00, 0.14, 0.28, 0.97
173, 1008.29, 67421.38, 3677.64, 28474.24, -20119.41, -4016.52, 9281.25, -54420.73, -7767.16, 37468.00, 7119.63, -10457.20, 0.00, 0.00, 0.00, 0.00, 0.00, 0.00, 0.00
174, 1008.29, 67421.38, 3677.64, 28474.24, -20119.41, -4016.52, 9281.25, -54420.73, -7779.21, 37426.09, 7078.10, -10426.66, 0.00, 0.00, 0.00, 0.00, 0.00, 0.00, 0.00
175, 1010.81, 67426.34, 3678.99, 28476.72, -20121.35, -4015.47, 9290.01, -54418.16, -7779.21, 37426.09, 7078.10, -10426.66, 0.00, 0.00, 0.00, 0.00, 0.00, 0.00, 0.00
176, 1010.81, 67426.34, 3678.99, 28476.72, -20121.35, -4015.47, 9290.01, -54418.16, -7768.50, 37469.84, 7120.15, -10459.86, 0.00, 0.00, 0.00, 0.00, 0.00, 0.00, 0.00
177, 1015.84, 67431.55, 3685.29, 28480.53, -20112.37, -4010.84, 9297.14, -54412.97, -7768.50, 37469.84, 7120.15, -10459.86, 0.00, 0.00, 0.00, 0.00, 0.00, 0.00, 0.00
178, 1015.84, 67431.55, 3685.29, 28480.53, -20112.37, -4010.84, 9297.14, -54412.97, -7778.83, 37428.22, 7082.06, -10425.17, 0.00, 0.00, 0.00, 0.00, 0.00, 0.00, 0.00
179, 1010.14, 67426.76, 3678.96, 28476.86, -20120.03, -4015.20, 9296.67, -54417.40, -7778.83, 37428.22, 7082.06, -10425.17, 0.00, 0.00, 0.00, 0.00, 0.00, 0.00, 0.00
180, 1010.14, 67426.76, 3678.96, 28476.86, -20120.03, -4015.20, 9296.67, -54417.40, -7770.45, 37469.75, 7116.97, -10461.08, 0.00, 0.00, 0.00, 0.00, 0.00, 0.00, 0.00
181, 1015.64, 67433.76, 3685.20, 28482.87, -20113.46, -4008.16, 9307.51, -54412.88, -7770.45, 37469.75, 7116.97, -10461.08, 0.00, 0.00, 0.00, 0.00, 0.00, 0.00, 0.00
182, 1015.64, 67433.76, 3685.20, 28482.87, -20113.46, -4008.16, 9307.51, -54412.88, -7778.72, 37430.63, 7084.07, -10423.47, 0.00, 0.00, 0.00, 0.00, 0.14, 0.28, 0.97
183, 1004.73, 67423.38, 3677.20, 28471.52, -20120.77, -4018.46, 9302.30, -54420.37, -7778.72, 37430.63, 7084.07, -10423.47, 0.00, 0.00, 0.00, 0.00, 0.00, 0.00, 0.00
184, 1004.73, 67423.38, 3677.20, 28471.52, -20120.77, -4018.46, 9302.30, -54420.37, -7764.15, 37475.00, 7120.01, -10445.89, 0.00, 0.00, 0.00, 0.00, 0.00, 0.00, 0.00
185, 1016.69, 67438.05, 3689.98, 28487.03, -20108.41, -4003.38, 9324.50, -54402.65, -7764.15, 37475.00, 7120.01, -10445.89, 0.00, 0.00, 0.00, 0.00, 0.00, 0.00, 0.00
186, 1016.69, 67438.05, 3689.98, 28487.03, -20108.41, -4003.38, 9324.50, -54402.65, -7777.22, 37436.58, 7087.81, -10420.61, 0.00, 0.00, 0.00, 0.00, 0.00, 0.00, 0.00
187, 999.03, 67418.52, 3673.35, 28465.30, -20123.01, -4022.17, 9306.15, -54423.75, -7777.22, 37436.58, 7087.81, -10420.61, 0.00, 0.00, 0.00, 0.00, 0.00, 0.00, 0.00
188, 999.03, 67418.52, 3673.35, 28465.30, -20123.01, -4022.17, 9306.15, -54423.75, -7765.31, 37467.16, 7118.05, -10449.19, 0.00, 0.00, 0.00, 0.00, 0.00, 0.00, 0.00
189, 1017.59, 67443.21, 3694.03, 28489.46, -20104.79, -4001.54, 9335.45, -54403.52, -7765.31, 37467.16, 7118.05, -10449.19, 0.00, 0.00, 0.00, 0.00, 0.00, 0.00, 0.00
190, 1017.59, 67443.21, 3694.03, 28489.46, -20104.79, -4001.54, 9335.45, -54403.52, -7778.56, 37434.86, 7092.74, -10435.76, 0.00, 0.00, 0.00, 0.00, 0.00, 0.00, 0.00
191, 997.63, 67417.87, 3671.43, 28464.90, -20124.86, -4024.03, 9311.87, -54428.71, -7778.56, 37434.86, 7092.74, -10435.76, 0.00, 0.00, 0.00, 0.00, 0.00, 0.00, 0.00
192, 997.63, 67417.87, 3671.43, 28464.90, -20124.86, -4024.03, 9311.87, -54428.71, -7768.66, 37459.36, 7110.22, -10447.99, 0.00, 0.00, 0.00, 0.00, 0.14, 0.28, 0.97
193, 1015.86, 67442.09, 3690.34, 28490.85, -20106.29, -4001.14, 9344.73, -54404.57, -7768.66, 37459.36, 7110.22, -10447.99, 0.00, 0.00, 0.00, 0.00, 0.00, 0.00, 0.00
194, 1015.86, 67442.09, 3690.34, 28490.85, -20106.29, -4001.14, 9344.73, -54404.57, -7774.92, 37443.75, 7093.33, -10431.11, 0.00, 0.00, 0.00, 0.00, 0.00, 0.00, 0.00
195, 996.42, 67418.31, 3672.99, 28465.59, -20122.07, -4022.78, 9323.56, -54426.25, -7774.92, 37443.75, 7093.33, -10431.11, 0.00, 0.00, 0.00, 0.00, 0.00, 0.00, 0.00
196, 996.42, 67418.31, 3672.99, 28465.59, -20122.07, -4022.78, 9323.56, -54426.25, -7765.00, 37457.99, 7105.15, -10443.45, 0.00, 0.00, 0.00, 0.00, 0.00, 0.00, 0.00
197, 1018.26, 67446.48, 3697.43, 28499.12, -20101.71, -3996.49, 9359.23, -54401.15, -7765.00, 37457.99, 7105.15, -10443.45, 0.00, 0.00, 0.00, 0.00, 0.00, 0.00, 0.00
198, 1018.26, 67446.48, 3697.43, 28499.12, -20101.71, -3996.49, 9359.23, -54401.15, -7767.59, 37452.54, 7103.90, -10433.68, 0.00, 0.00, 0.00, 0.00, 0.00, 0.00, 0.00
199, 998.92, 67415.14, 3669.66, 28463.80, -20123.65, -4022.73, 9332.17, -54426.05, -7767.59, 37452.54, 7103.90, -10433.68, 0.00, 0.00, 0.00, 0.00, 0.00, 0.00, 0.00
200, 998.92, 67415.14, 3669.66, 28463.80, -20123.65, -4022.73, 9332.17, -54426.05, -7768.88, 37452.02, 7097.73, -10439.90, 0.00, 0.00, 0.00, 0.00, 0.00, 0.00, 0.00
201, 1014.32, 67441.47, 3690.92, 28496.44, -20106.76, -3998.64, 9363.82, -54403.83, -7768.88, 37452.02, 7097.73, -10439.90, 0.00, 0.00, 0.00, 0.00, 0.00, 0.00, 0.00
202, 1014.32, 67441.47, 3690.92, 28496.44, -20106.76, -3998.64, 9363.82, -54403.83, -7774.20, 37452.18, 7102.02, -10447.29, 0.00, 0.00, 0.00, 0.00, 0.15, 0.28, 0.97
203, 993.51, 67410.96, 3665.89, 28464.83, -20125.29, -4024.12, 9337.02, -54431.01, -7774.20, 37452.18, 7102.02, -10447.29, 0.00, 0.00, 0.00, 0.00, 0.00, 0.00, 0.00
204, 993.51, 67410.96, 3665.89, 28464.83, -20125.29, -4024.12, 9337.02, -54431.01, -7772.28, 37447.20, 7088.94, -10433.70, 0.00, 0.00, 0.00, 0.00, 0.00, 0.00, 0.00
205, 1016.45, 67440.73, 3688.73, 28495.93, -20104.83, -3997.41, 9374.68, -54403.38, -7772.28, 37447.20, 7088.94, -10433.70, 0.00, 0.00, 0.00, 0.00, 0.00, 0.00, 0.00
206, 1016.45, 67440.73, 3688.73, 28495.93, -20104.83, -3997.41, 9374.68, -54403.38, -7769.13, 37461.66, 7102.94, -10447.61, 0.00, 0.00, 0.00, 0.00, 0.00, 0.00, 0.00
207, 999.37, 67416.01, 3668.46, 28469.01, -20122.11, -4019.83, 9349.35, -54428.89, -7769.13, 37461.66, 7102.94, -10447.61, 0.00, 0.00, 0.00, 0.00, 0.00, 0.00, 0.00
208, 999.37, 67416.01, 3668.46, 28469.01, -20122.11, -4019.83, 9349.35, -54428.89, -7774.14, 37439.39, 7090.04, -10423.91, 0.00, 0.00, 0.00, 0.00, 0.00, 0.00, 0.00
209, 1015.95, 67448.63, 3696.53, 28497.98, -20101.97, -3995.87, 9386.21, -54401.68, -7774.14, 37439.39, 7090.04, -10423.91, 0.00, 0.00, 0.00, 0.00, 0.00, 0.00, 0.00
210, 1015.95, 67448.63, 3696.53, 28497.98, -20101.97, -3995.87, 9386.21, -54401.68, -7761.08, 37475.07, 7113.29, -10438.49, 0.00, 0.00, 0.00, 0.00, 0.00, 0.00, 0.00
211, 1005.00, 67424.68, 3675.27, 28471.67, -20114.45, -4013.43, 9368.31, -54416.21, -7761.08, 37475.07, 7113.29, -10438.49, 0.00, 0.00, 0.00, 0.00, 0.15, 0.28, 0.96
212, 1005.00, 67424.68, 3675.27, 28471.67, -20114.45, -4013.43, 9368.31, -54416.21, -7771.41, 37446.05, 7084.45, -10416.99, 0.00, 0.00, 0.00, 0.00, 0.00, 0.00, 0.00
213, 1011.89, 67438.05, 3686.76, 28489.98, -20107.58, -3997.97, 9391.08, -54404.25, -7771.41, 37446.05, 7084.45, -10416.99, 0.00, 0.00, 0.00, 0.00, 0.00, 0.00, 0.00
214, 1011.89, 67438.05, 3686.76, 28489.98, -20107.58, -3997.97, 9391.08, -54404.25, -7761.62, 37478.49, 7116.06, -10440.23, 0.00, 0.00, 0.00, 0.00, 0.00, 0.00, 0.00
215, 997.13, 67426.92, 3677.82, 28472.41, -20113.48, -4011.13, 9377.58, -54418.20, -7761.62, 37478.49, 7116.06, -10440.23, 0.00, 0.00, 0.00, 0.00, 0.00, 0.00, 0.00
216, 997.13, 67426.92, 3677.82, 28472.41, -20113.48, -4011.13, 9377.58, -54418.20, -7760.68, 37446.91, 7112.73, -10412.25, 0.00, 0.00, 0.00, 0.00, 0.00, 0.00, 0.00
217, 1034.86, 67463.04, 3722.28, 28516.60, -20077.59, -3980.44, 9418.02, -54390.44, -7760.68, 37446.91, 7112.73, -10412.25, 0.00, 0.00, 0.00, 0.00, 0.00, 0.00, 0.00
218, 1034.86, 67463.04, 3722.28, 28516.60, -20077.59, -3980.44, 9418.02, -54390.44, -7759.97, 37476.61, 7124.24, -10454.25, 0.00, 0.00, 0.00, 0.00, 0.00, 0.00, 0.00
219, 997.36, 67415.66, 3660.63, 28447.89, -20135.61, -4025.71, 9369.78, -54431.10, -7759.97, 37476.61, 7124.24, -10454.25, 0.00, 0.00, 0.00, 0.00, 0.00, 0.00, 0.00
220, 997.36, 67415.66, 3660.63, 28447.89, -20135.61, -4025.71, 9369.78, -54431.10, -7782.81, 37424.69, 7072.25, -10425.39, 0.00, 0.00, 0.00, 0.00, 0.00, 0.00, 0.00
221, 1028.07, 67449.56, 3696.96, 28468.54, -20120.06, -4011.04, 9391.46, -54420.98, -7782.81, 37424.69, 7072.25, -10425.39, 0.00, 0.00, 0.00, 0.00, 0.15, 0.28, 0.96
222, 1028.07, 67449.56, 3696.96, 28468.54, -20120.06, -4011.04, 9391.46, -54420.98, -7773.29, 37467.51, 7140.42, -10458.65, 0.00, 0.00, 0.00, 0.00, 0.00, 0.00, 0.00
223, 1033.75, 67449.70, 3697.51, 28454.31, -20127.88, -4021.62, 9382.35, -54428.93, -7773.29, 37467.51, 7140.42, -10458.65, 0.00, 0.00, 0.00, 0.00, 0.00, 0.00, 0.00
224, 1033.75, 67449.70, 3697.51, 28454.31, -20127.88, -4021.62, 9382.35, -54428.93, -7786.41, 37423.19, 7111.70, -10429.32, 0.00, 0.00, 0.00, 0.00, 0.00, 0.00, 0.00
225, 1035.22, 67453.90, 3701.18, 28449.32, -20132.30, -4023.92, 9385.90, -54431.17, -7786.41, 37423.19, 7111.70, -10429.32, 0.00, 0.00, 0.00, 0.00, 0.00, 0.00, 0.00
226, 1035.22, 67453.90, 3701.18, 28449.32, -20132.30, -4023.92, 9385.90, -54431.17, -7773.31, 37468.34, 7157.07, -10460.04, 0.00, 0.00, 0.00, 0.00, 0.00, 0.00, 0.00
227, 1041.19, 67461.92, 3711.46, 28453.90, -20119.90, -4013.97, 9399.74, -54420.46, -7773.31, 37468.34, 7157.07, -10460.04, 0.00, 0.00, 0.00, 0.00, 0.00, 0.00, 0.00
228, 1041.19, 67461.92, 3711.46, 28453.90, -20119.90, -4013.97, 9399.74, -54420.46, -7782.16, 37430.18, 7120.06, -10422.15, 0.00, 0.00, 0.00, 0.00, 0.00, 0.00, 0.00
229, 1027.71, 67448.04, 3698.12, 28440.67, -20130.54, -4023.25, 9395.02, -54430.54, -7782.16, 37430.18, 7120.06, -10422.15, 0.00, 0.00, 0.00, 0.00, 0.00, 0.00, 0.00
230, 1027.71, 67448.04, 3698.12, 28440.67, -20130.54, -4023.25, 9395.02, -54430.54, -7771.17, 37468.99, 7151.57, -10459.86, 0.00, 0.00, 0.00, 0.00, 0.00, 0.00, 0.00
231, 1038.66, 67459.40, 3709.54, 28457.44, -20121.33, -4011.76, 9409.44, -54420.75, -7771.17, 37468.99, 7151.57, -10459.86, 0.00, 0.00, 0.00, 0.00, 0.14, 0.28, 0.97
232, 1038.66, 67459.40, 3709.54, 28457.44, -20121.33, -4011.76, 9409.44, -54420.75, -7786.12, 37429.13, 7116.82, -10426.57, 0.00, 0.00, 0.00, 0.00, 0.00, 0.00, 0.00
233, 1026.37, 67445.09, 3699.21, 28445.68, -20130.74, -4023.78, 9399.09, -54433.29, -7786.12, 37429.13, 7116.82, -10426.57, 0.00, 0.00, 0.00, 0.00, 0.00, 0.00, 0.00
234, 1026.37, 67445.09, 3699.21, 28445.68, -20130.74, -4023.78, 9399.09, -54433.29, -7773.98, 37467.38, 7153.61, -10450.51, 0.00, 0.00, 0.00, 0.00, 0.00, 0.00, 0.00
235, 1043.07, 67469.30, 3720.40, 28467.27, -20113.19, -4006.33, 9423.27, -54415.16, -7773.98, 37467.38, 7153.61, -10450.51, 0.00, 0.00, 0.00, 0.00, 0.00, 0.00, 0.00
236, 1043.07, 67469.30, 3720.40, 28467.27, -20113.19, -4006.33, 9423.27, -54415.16, -7782.59, 37435.08, 7128.08, -10427.22, 0.00, 0.00, 0.00, 0.00, 0.00, 0.00, 0.00
237, 1030.42, 67446.16, 3699.15, 28445.14, -20131.99, -4025.19, 9404.61, -54435.79, -7782.59, 37435.08, 7128.08, -10427.22, 0.00, 0.00, 0.00, 0.00, 0.00, 0.00, 0.00
238, 1030.42, 67446.16, 3699.15, 28445.14, -20131.99, -4025.19, 9404.61, -54435.79, -7771.97, 37463.71, 7151.46, -10451.54, 0.00, 0.00, 0.00, 0.00, 0.00, 0.00, 0.00
239, 1048.45, 67471.02, 3720.25, 28472.14, -20111.45, -4001.59, 9435.83, -54412.14, -7771.97, 37463.71, 7151.46, -10451.54, 0.00, 0.00, 0.00, 0.00, 0.00, 0.00, 0.00
240, 1048.45, 67471.02, 3720.25, 28472.14, -20111.45, -4001.59, 9435.83, -54412.14, -7776.60, 37444.29, 7131.50, -10426.71, 0.00, 0.00, 0.00, 0.00, 0.00, 0.00, 0.00
241, 1020.54, 67442.77, 3696.80, 28440.85, -20129.96, -4025.75, 9409.75, -54433.94, -7776.60, 37444.29, 7131.50, -10426.71, 0.00, 0.00, 0.00, 0.00, 0.14, 0.28, 0.97
242, 1020.54, 67442.77, 3696.80, 28440.85, -20129.96, -4025.75, 9409.75, -54433.94, -7769.56, 37463.55, 7142.72, -10446.96, 0.00, 0.00, 0.00, 0.00, 0.00, 0.00, 0.00
243, 1041.95, 67467.71, 3718.37, 28471.12, -20112.70, -4000.87, 9442.36, -54410.87, -7769.56, 37463.55, 7142.72, -10446.96, 0.00, 0.00, 0.00, 0.00, 0.00, 0.00, 0.00
244, 1041.95, 67467.71, 3718.37, 28471.12, -20112.70, -4000.87, 9442.36, -54410.87, -7780.66, 37447.26, 7132.08, -10428.90, 0.00, 0.00, 0.00, 0.00, 0.00, 0.00, 0.00
245, 1025.30, 67438.83, 3694.68, 28444.20, -20129.91, -4024.63, 9415.16, -54434.88, -7780.66, 37447.26, 7132.08, -10428.90, 0.00, 0.00, 0.00, 0.00, 0.00, 0.00, 0.00
246, 1025.30, 67438.83, 3694.68, 28444.20, -20129.91, -4024.63, 9415.16, -54434.88, -7773.06, 37458.01, 7136.11, -10433.68, 0.00, 0.00, 0.00, 0.00, 0.00, 0.00, 0.00
247, 1042.60, 67465.95, 3718.19, 28474.65, -20111.25, -3998.88, 9449.54, -54409.33, -7773.06, 37458.01, 7136.11, -10433.68, 0.00, 0.00, 0.00, 0.00, 0.00, 0.00, 0.00
248, 1042.60, 67465.95, 3718.19, 28474.65, -20111.25, -3998.88, 9449.54, -54409.33, -7779.44, 37452.02, 7131.19, -10436.66, 0.00, 0.00, 0.00, 0.00, 0.00, 0.00, 0.00
249, 1016.15, 67435.10, 3692.15, 28446.24, -20131.70, -4024.10, 9420.75, -54434.77, -7779.44, 37452.02, 7131.19, -10436.66, 0.00, 0.00, 0.00, 0.00, 0.00, 0.00, 0.00
250, 1016.15, 67435.10, 3692.15, 28446.24, -20131.70, -4024.10, 9420.75, -54434.77, -7773.74, 37453.05, 7126.18, -10430.71, 0.00, 0.00, 0.00, 0.00, 0.14, 0.28, 0.97
251, 1046.55, 67466.81, 3718.55, 28478.45, -20108.08, -3997.01, 9458.70, -54405.53, -7773.74, 37453.05, 7126.18, -10430.71, 0.00, 0.00, 0.00, 0.00, 0.00, 0.00, 0.00
252, 1046.55, 67466.81, 3718.55, 28478.45, -20108.08, -3997.01, 9458.70, -54405.53, -7772.28, 37465.39, 7142.72, -10435.78, 0.00, 0.00, 0.00, 0.00, 0.00, 0.00, 0.00
253, 1025.99, 67442.41, 3698.19, 28449.19, -20123.88, -4020.99, 9431.34, -54431.70, -7772.28, 37465.39, 7142.72, -10435.78, 0.00, 0.00, 0.00, 0.00, 0.00, 0.00, 0.00
254, 1025.99, 67442.41, 3698.19, 28449.19, -20123.88, -4020.99, 9431.34, -54431.70, -7775.32, 37445.90, 7125.00, -10434.24, 0.00, 0.00, 0.00, 0.00, 0.00, 0.00, 0.00
255, 1042.40, 67471.35, 3721.79, 28478.87, -20107.61, -3996.87, 9463.79, -54406.40, -7775.32, 37445.90, 7125.00, -10434.24, 0.00, 0.00, 0.00, 0.00, 0.00, 0.00, 0.00
0, 1042.40, 67471.35, 3721.79, 28478.87, -20107.61, -3996.87, 9463.79, -54406.40, -7767.72, 37473.35, 7149.63, -10430.73, 0.00, 0.00, 0.00, 0.00, 0.00, 0.00, 0.00
1, 1031.09, 67450.79, 3703.64, 28453.99, -20118.40, -4016.16, 9441.91, -54423.57, -7767.72, 37473.35, 7149.63, -10430.73, 0.00, 0.00, 0.00, 0.00, 0.00, 0.00, 0.00
2, 1031.09, 67450.79, 3703.64, 28453.99, -20118.40, -4016.16, 9441.91, -54423.57, -7767.70, 37452.36, 7128.17, -10411.22, 0.00, 0.00, 0.00, 0.00, 0.00, 0.00, 0.00
3, 1046.08, 67473.84, 3721.23, 28475.99, -20107.07, -3998.44, 9468.04, -54405.11, -7767.70, 37452.36, 7128.17, -10411.22, 0.00, 0.00, 0.00, 0.00, 0.00, 0.00, 0.00
4, 1046.08, 67473.84, 3721.23, 28475.99, -20107.07, -3998.44, 9468.04, -54405.11, -7761.53, 37478.22, 7159.76, -10440.05, 0.00, 0.00, 0.00, 0.00, 0.14, 0.28, 0.97
5, 1032.76, 67454.59, 3706.28, 28457.08, -20118.58, -4013.95, 9449.07, -54423.03, -7761.53, 37478.22, 7159.76, -10440.05, 0.00, 0.00, 0.00, 0.00, 0.00, 0.00, 0.00
6, 1032.76, 67454.59, 3706.28, 28457.08, -20118.58, -4013.95, 9449.07, -54423.03, -7767.97, 37447.82, 7126.72, -10413.10, 0.00, 0.00, 0.00, 0.00, 0.00, 0.00, 0.00
7, 1040.38, 67472.70, 3720.98, 28474.24, -20106.82, -3998.15, 9471.31, -54407.86, -7767.97, 37447.82, 7126.72, -10413.10, 0.00, 0.00, 0.00, 0.00, 0.00, 0.00, 0.00
8, 1040.38, 67472.70, 3720.98, 28474.24, -20106.82, -3998.15, 9471.31, -54407.86, -7757.46, 37483.45, 7160.11, -10444.37, 0.00, 0.00, 0.00, 0.00, 0.00, 0.00, 0.00
9, 1036.54, 67455.04, 3707.33, 28459.18, -20113.33, -4009.08, 9457.87, -54418.92, -7757.46, 37483.45, 7160.11, -10444.37, 0.00, 0.00, 0.00, 0.00, 0.00, 0.00, 0.00
10, 1036.54, 67455.04, 3707.33, 28459.18, -20113.33, -4009.08, 9457.87, -54418.92, -7767.41, 37443.06, 7120.08, -10403.84, 0.00, 0.00, 0.00, 0.00, 0.00, 0.00, 0.00
11, 1037.43, 67462.41, 3711.98, 28468.32, -20113.15, -4002.82, 9469.74, -54412.37, -7767.41, 37443.06, 7120.08, -10403.84, 0.00, 0.00, 0.00, 0.00, 0.00, 0.00, 0.00
12, 1037.43, 67462.41, 3711.98, 28468.32, -20113.15, -4002.82, 9469.74, -54412.37, -7759.79, 37485.44, 7153.03, -10443.32, 0.00, 0.00, 0.00, 0.00, 0.00, 0.00, 0.00
13, 1034.64, 67456.29, 3708.02, 28463.47, -20116.48, -4006.06, 9462.92, -54418.36, -7759.79, 37485.44, 7153.03, -10443.32, 0.00, 0.00, 0.00, 0.00, 0.00, 0.00, 0.00
14, 1034.64, 67456.29, 3708.02, 28463.47, -20116.48, -4006.06, 9462.92, -54418.36, -7775.19, 37441.54, 7114.87, -10409.12, 0.00, 0.00, 0.00, 0.00, 0.15, 0.29, 0.96
15, 1040.79, 67459.04, 3706.86, 28464.23, -20121.35, -4006.01, 9466.21, -54421.09, -7775.19, 37441.54, 7114.87, -10409.12, 0.00, 0.00, 0.00, 0.00, 0.00, 0.00, 0.00
16, 1040.79, 67459.04, 3706.86, 28464.23, -20121.35, -4006.01, 9466.21, -54421.09, -7762.58, 37482.85, 7156.47, -10446.18, 0.00, 0.00, 0.00, 0.00, 0.00, 0.00, 0.00
17, 1047.81, 67466.03, 3716.20, 28468.16, -20112.26, -4002.30, 9470.81, -54416.88, -7762.58, 37482.85, 7156.47, -10446.18, 0.00, 0.00, 0.00, 0.00, 0.00, 0.00, 0.00
18, 1047.81, 67466.03, 3716.20, 28468.16, -20112.26, -4002.30, 9470.81, -54416.88, -7770.63, 37442.14, 7122.23, -10412.51, 0.00, 0.00, 0.00, 0.00, 0.00, 0.00, 0.00
19, 1040.92, 67466.62, 3715.51, 28463.98, -20115.81, -4006.86, 9470.72, -54416.82, -7770.63, 37442.14, 7122.23, -10412.51, 0.00, 0.00, 0.00, 0.00, 0.00, 0.00, 0.00
20, 1040.92, 67466.62, 3715.51, 28463.98, -20115.81, -4006.86, 9470.72, -54416.82, -7751.52, 37488.70, 7170.33, -10445.01, 0.00, 0.00, 0.00, 0.00, 0.00, 0.00, 0.00
21, 1047.89, 67479.06, 3725.03, 28474.56, -20106.64, -3997.72, 9480.27, -54408.91, -7751.52, 37488.70, 7170.33, -10445.01, 0.00, 0.00, 0.00, 0.00, 0.00, 0.00, 0.00
22, 1047.89, 67479.06, 3725.03, 28474.56, -20106.64, -3997.72, 9480.27, -54408.91, -7769.35, 37441.68, 7130.43, -10410.50, 0.00, 0.00, 0.00, 0.00, 0.00, 0.00, 0.00
23, 1044.94, 67464.09, 3711.62, 28460.43, -20118.69, -4009.14, 9469.29, -54421.98, -7769.35, 37441.68, 7130.43, -10410.50, 0.00, 0.00, 0.00, 0.00, 0.00, 0.00, 0.00
24, 1044.94, 67464.09, 3711.62, 28460.43, -20118.69, -4009.14, 9469.29, -54421.98, -7752.68, 37484.14, 7166.15, -10441.77, 0.00, 0.00, 0.00, 0.00, 0.14, 0.28, 0.96
25, 1055.70, 67483.78, 3730.33, 28478.94, -20103.92, -3992.47, 9488.87, -54405.66, -7752.68, 37484.14, 7166.15, -10441.77, 0.00, 0.00, 0.00, 0.00, 0.00, 0.00, 0.00
26, 1055.70, 67483.78, 3730.33, 28478.94, -20103.92, -3992.47, 9488.87, -54405.66, -7768.33, 37448.98, 7134.25, -10411.20, 0.00, 0.00, 0.00, 0.00, 0.00, 0.00, 0.00
27, 1041.10, 67464.11, 3713.72, 28458.75, -20119.38, -4010.15, 9467.95, -54424.51, -7768.33, 37448.98, 7134.25, -10411.20, 0.00, 0.00, 0.00, 0.00, 0.00, 0.00, 0.00
28, 1041.10, 67464.11, 3713.72, 28458.75, -20119.38, -4010.15, 9467.95, -54424.51, -7753.44, 37483.76, 7163.11, -10440.43, 0.00, 0.00, 0.00, 0.00, 0.00, 0.00, 0.00
29, 1060.48, 67486.28, 3731.67, 28480.68, -20101.46, -3991.17, 9493.84, -54401.82, -7753.44, 37483.76, 7163.11, -10440.43, 0.00, 0.00, 0.00, 0.00, 0.00, 0.00, 0.00
30, 1060.48, 67486.28, 3731.67, 28480.68, -20101.46, -3991.17, 9493.84, -54401.82, -7762.83, 37456.88, 7140.80, -10413.41, 0.00, 0.00, 0.00, 0.00, 0.00, 0.00, 0.00
31, 1042.82, 67464.09, 3711.93, 28456.77, -20119.79, -4012.16, 9470.05, -54424.35, -7762.83, 37456.88, 7140.80, -10413.41, 0.00, 0.00, 0.00, 0.00, 0.00, 0.00, 0.00
32, 1042.82, 67464.09, 3711.93, 28456.77, -20119.79, -4012.16, 9470.05, -54424.35, -7754.62, 37478.55, 7156.00, -10438.15, 0.00, 0.00, 0.00, 0.00, 0.00, 0.00, 0.00
33, 1058.53, 67492.56, 3734.78, 28482.74, -20100.52, -3989.18, 9499.63, -54399.81, -7754.62, 37478.55, 7156.00, -10438.15, 0.00, 0.00, 0.00, 0.00, 0.14, 0.28, 0.96
34, 1058.53, 67492.56, 3734.78, 28482.74, -20100.52, -3989.18, 9499.63, -54399.81, -7762.94, 37463.82, 7142.54, -10422.46, 0.00, 0.00, 0.00, 0.00, 0.00, 0.00, 0.00
35, 1037.90, 67457.95, 3705.72, 28453.19, -20126.45, -4014.19, 9468.51, -54429.58, -7762.94, 37463.82, 7142.54, -10422.46, 0.00, 0.00, 0.00, 0.00, 0.00, 0.00, 0.00
36, 1037.90, 67457.95, 3705.72, 28453.19, -20126.45, -4014.19, 9468.51, -54429.58, -7758.80, 37471.89, 7149.36, -10430.53, 0.00, 0.00, 0.00, 0.00, 0.00, 0.00, 0.00
37, 1057.55, 67486.24, 3729.86, 28482.96, -20105.37, -3988.83, 9500.25, -54403.29, -7758.80, 37471.89, 7149.36, -10430.53, 0.00, 0.00, 0.00, 0.00, 0.00, 0.00, 0.00
38, 1057.55, 67486.24, 3729.86, 28482.96, -20105.37, -3988.83, 9500.25, -54403.29, -7761.20, 37465.90, 7145.29, -10420.25, 0.00, 0.00, 0.00, 0.00, 0.00, 0.00, 0.00
39, 1040.09, 67459.71, 3707.13, 28453.03, -20123.28, -4013.05, 9471.13, -54429.47, -7761.20, 37465.90, 7145.29, -10420.25, 0.00, 0.00, 0.00, 0.00, 0.00, 0.00, 0.00
40, 1040.09, 67459.71, 3707.13, 28453.03, -20123.28, -4013.05, 9471.13, -54429.47, -7751.90, 37470.39, 7151.80, -10423.76, 0.00, 0.00, 0.00, 0.00, 0.00, 0.00, 0.00
41, 1060.86, 67491.91, 3733.23, 28484.59, -20101.86, -3987.86, 9504.50, -54399.23, -7751.90, 37470.39, 7151.80, -10423.76, 0.00, 0.00, 0.00, 0.00, 0.00, 0.00, 0.00
42, 1060.86, 67491.91, 3733.23, 28484.59, -20101.86, -3987.86, 9504.50, -54399.23, -7755.05, 37477.41, 7156.00, -10422.71, 0.00, 0.00, 0.00, 0.00, 0.00, 0.00, 0.00
43, 1037.93, 67460.80, 3705.76, 28450.78, -20124.35, -4014.19, 9470.17, -54427.08, -7755.05, 37477.41, 7156.00, -10422.71, 0.00, 0.00, 0.00, 0.00, 0.14, 0.28, 0.96
44, 1037.93, 67460.80, 3705.76, 28450.78, -20124.35, -4014.19, 9470.17, -54427.08, -7760.66, 37462.68, 7139.30, -10420.34, 0.00, 0.00, 0.00, 0.00, 0.00, 0.00, 0.00
45, 1050.31, 67484.66, 3725.23, 28479.21, -20108.90, -3993.34, 9497.05, -54407.56, -7760.66, 37462.68, 7139.30, -10420.34, 0.00, 0.00, 0.00, 0.00, 0.00, 0.00, 0.00
46, 1050.31, 67484.66, 3725.23, 28479.21, -20108.90, -3993.34, 9497.05, -54407.56, -7760.39, 37471.89, 7152.56, -10441.68, 0.00, 0.00, 0.00, 0.00, 0.00, 0.00, 0.00
47, 1040.23, 67460.00, 3704.06, 28450.55, -20124.06, -4015.16, 9469.90, -54430.03, -7760.39, 37471.89, 7152.56, -10441.68, 0.00, 0.00, 0.00, 0.00, 0.00, 0.00, 0.00
48, 1040.23, 67460.00, 3704.06, 28450.55, -20124.06, -4015.16, 9469.90, -54430.03, -7759.54, 37458.86, 7135.97, -10411.82, 0.00, 0.00, 0.00, 0.00, 0.00, 0.00, 0.00
49, 1050.46, 67481.16, 3720.89, 28477.08, -20110.56, -3994.39, 9495.58, -54408.93, -7759.54, 37458.86, 7135.97, -10411.82, 0.00, 0.00, 0.00, 0.00, 0.00, 0.00, 0.00
50, 1050.46, 67481.16, 3720.89, 28477.08, -20110.56, -3994.39, 9495.58, -54408.93, -7755.32, 37480.57, 7159.67, -10432.65, 0.00, 0.00, 0.00, 0.00, 0.00, 0.00, 0.00
51, 1040.38, 67464.67, 3708.11, 28454.62, -20119.38, -4010.80, 9473.88, -54422.16, -7755.32, 37480.57, 7159.67, -10432.65, 0.00, 0.00, 0.00, 0.00, 0.00, 0.00, 0.00
52, 1040.38, 67464.67, 3708.11, 28454.62, -20119.38, -4010.80, 9473.88, -54422.16, -7757.93, 37456.88, 7132.84, -10410.70, 0.00, 0.00, 0.00, 0.00, 0.00, 0.00, 0.00
53, 1050.46, 67485.23, 3725.75, 28477.87, -20107.03, -3992.49, 9498.98, -54404.08, -7757.93, 37456.88, 7132.84, -10410.70, 0.00, 0.00, 0.00, 0.00, 0.14, 0.28, 0.97
54, 1050.46, 67485.23, 3725.75, 28477.87, -20107.03, -3992.49, 9498.98, -54404.08, -7749.86, 37490.85, 7165.77, -10436.07, 0.00, 0.00, 0.00, 0.00, 0.00, 0.00, 0.00
55, 1043.42, 67469.12, 3710.41, 28457.75, -20115.52, -4007.00, 9477.21, -54420.30, -7749.86, 37490.85, 7165.77, -10436.07, 0.00, 0.00, 0.00, 0.00, 0.00, 0.00, 0.00
56, 1043.42, 67469.12, 3710.41, 28457.75, -20115.52, -4007.00, 9477.21, -54420.30, -7756.23, 37458.21, 7133.00, -10402.32, 0.00, 0.00, 0.00, 0.00, 0.00, 0.00, 0.00
57, 1051.52, 67483.96, 3722.15, 28474.74, -20106.27, -3994.37, 9494.69, -54407.07, -7756.23, 37458.21, 7133.00, -10402.32, 0.00, 0.00, 0.00, 0.00, 0.00, 0.00, 0.00
58, 1051.52, 67483.96, 3722.15, 28474.74, -20106.27, -3994.37, 9494.69, -54407.07, -7747.65, 37492.93, 7168.85, -10440.97, 0.00, 0.00, 0.00, 0.00, 0.00, 0.00, 0.00
59, 1046.84, 67473.43, 3716.36, 28463.49, -20111.92, -4002.86, 9480.49, -54419.41, -7747.65, 37492.93, 7168.85, -10440.97, 0.00, 0.00, 0.00, 0.00, 0.00, 0.00, 0.00
60, 1046.84, 67473.43, 3716.36, 28463.49, -20111.92, -4002.86, 9480.49, -54419.41, -7757.22, 37450.82, 7131.68, -10405.32, 0.00, 0.00, 0.00, 0.00, 0.00, 0.00, 0.00
61, 1049.12, 67476.92, 3718.86, 28473.91, -20111.52, -3997.23, 9487.69, -54412.23, -7757.22, 37450.82, 7131.68, -10405.32, 0.00, 0.00, 0.00, 0.00, 0.00, 0.00, 0.00
62, 1049.12, 67476.92, 3718.86, 28473.91, -20111.52, -3997.23, 9487.69, -54412.23, -7745.77, 37495.25, 7162.93, -10436.79, 0.00, 0.00, 0.00, 0.00, 0.00, 0.00, 0.00
63, 1044.34, 67475.76, 3719.96, 28469.08, -20107.29, -3996.51, 9486.10, -54410.02, -7745.77, 37495.25, 7162.93, -10436.79, 0.00, 0.00, 0.00, 0.00, 0.14, 0.28, 0.97
64, 1044.34, 67475.76, 3719.96, 28469.08, -20107.29, -3996.51, 9486.10, -54410.02, -7757.13, 37453.12, 7126.97, -10400.07, 0.00, 0.00, 0.00, 0.00, 0.00, 0.00, 0.00
65, 1045.79, 67470.30, 3713.43, 28469.75, -20113.55, -3998.41, 9483.33, -54414.31, -7757.13, 37453.12, 7126.97, -10400.07, 0.00, 0.00, 0.00, 0.00, 0.00, 0.00, 0.00
66, 1045.79, 67470.30, 3713.43, 28469.75, -20113.55, -3998.41, 9483.33, -54414.31, -7745.37, 37496.44, 7166.48, -10438.51, 0.00, 0.00, 0.00, 0.00, 0.00, 0.00, 0.00
67, 1049.19, 67476.80, 3722.28, 28475.96, -20103.83, -3992.16, 9489.05, -54407.41, -7745.37, 37496.44, 7166.48, -10438.51, 0.00, 0.00, 0.00, 0.00, 0.00, 0.00, 0.00
68, 1049.19, 67476.80, 3722.28, 28475.96, -20103.83, -3992.16, 9489.05, -54407.41, -7759.36, 37457.59, 7125.98, -10394.54, 0.00, 0.00, 0.00, 0.00, 0.00, 0.00, 0.00
69, 1042.78, 67467.73, 3713.16, 28466.31, -20113.11, -3998.88, 9481.18, -54414.27, -7759.36, 37457.59, 7125.98, -10394.54, 0.00, 0.00, 0.00, 0.00, 0.00, 0.00, 0.00
70, 1042.78, 67467.73, 3713.16, 28466.31, -20113.11, -3998.88, 9481.18, -54414.27, -7745.77, 37498.02, 7164.74, -10432.65, 0.00, 0.00, 0.00, 0.00, 0.00, 0.00, 0.00
71, 1049.57, 67478.28, 3722.10, 28476.39, -20104.50, -3990.32, 9488.99, -54406.38, -7745.77, 37498.02, 7164.74, -10432.65, 0.00, 0.00, 0.00, 0.00, 0.00, 0.00, 0.00
72, 1049.57, 67478.28, 3722.10, 28476.39, -20104.50, -3990.32, 9488.99, -54406.38, -7758.00, 37456.61, 7132.93, -10398.99, 0.00, 0.00, 0.00, 0.00, 0.14, 0.28, 0.97
73, 1038.71, 67464.94, 3710.79, 28463.67, -20114.38, -4001.72, 9474.01, -54417.93, -7758.00, 37456.61, 7132.93, -10398.99, 0.00, 0.00, 0.00, 0.00, 0.00, 0.00, 0.00
74, 1038.71, 67464.94, 3710.79, 28463.67, -20114.38, -4001.72, 9474.01, -54417.93, -7744.52, 37493.82, 7160.05, -10431.07, 0.00, 0.00, 0.00, 0.00, 0.00, 0.00, 0.00
75, 1045.48, 67480.36, 3723.91, 28480.32, -20102.98, -3986.84, 9491.42, -54402.58, -7744.52, 37493.82, 7160.05, -10431.07, 0.00, 0.00, 0.00, 0.00, 0.00, 0.00, 0.00
76, 1045.48, 67480.36, 3723.91, 28480.32, -20102.98, -3986.84, 9491.42, -54402.58, -7756.12, 37465.16, 7132.91, -10403.93, 0.00, 0.00, 0.00, 0.00, 0.00, 0.00, 0.00
77, 1036.47, 67461.34, 3709.18, 28461.82, -20116.05, -4004.78, 9469.96, -54421.58, -7756.12, 37465.16, 7132.91, -10403.93, 0.00, 0.00, 0.00, 0.00, 0.00, 0.00, 0.00
78, 1036.47, 67461.34, 3709.18, 28461.82, -20116.05, -4004.78, 9469.96, -54421.58, -7743.72, 37492.46, 7161.39, -10424.58, 0.00, 0.00, 0.00, 0.00, 0.00, 0.00, 0.00
79, 1055.18, 67488.61, 3731.00, 28485.26, -20096.03, -3983.51, 9495.78, -54398.45, -7743.72, 37492.46, 7161.39, -10424.58, 0.00, 0.00, 0.00, 0.00, 0.00, 0.00, 0.00
80, 1055.18, 67488.61, 3731.00, 28485.26, -20096.03, -3983.51, 9495.78, -54398.45, -7752.28, 37469.39, 7146.70, -10402.12, 0.00, 0.00, 0.00, 0.00, 0.00, 0.00, 0.00
81, 1037.75, 67465.50, 3709.83, 28459.89, -20114.38, -4005.63, 9465.99, -54422.70, -7752.28, 37469.39, 7146.70, -10402.12, 0.00, 0.00, 0.00, 0.00, 0.00, 0.00, 0.00
82, 1037.75, 67465.50, 3709.83, 28459.89, -20114.38, -4005.63, 9465.99, -54422.70, -7746.24, 37485.93, 7160.78, -10424.54, 0.00, 0.00, 0.00, 0.00, 0.15, 0.28, 0.96
83, 1054.58, 67491.45, 3732.94, 28487.07, -20095.42, -3982.70, 9493.99, -54399.20, -7746.24, 37485.93, 7160.78, -10424.54, 0.00, 0.00, 0.00, 0.00, 0.00, 0.00, 0.00
84, 1054.58, 67491.45, 3732.94, 28487.07, -20095.42, -3982.70, 9493.99, -54399.20, -7753.28, 37471.76, 7147.98, -10414.17, 0.00, 0.00, 0.00, 0.00, 0.00, 0.00, 0.00
85, 1036.61, 67462.34, 3709.54, 28460.16, -20115.32, -4004.47, 9464.67, -54420.93, -7753.28, 37471.76, 7147.98, -10414.17, 0.00, 0.00, 0.00, 0.00, 0.00, 0.00, 0.00
86, 1036.61, 67462.34, 3709.54, 28460.16, -20115.32, -4004.47, 9464.67, -54420.93, -7747.56, 37482.98, 7154.06, -10417.52, 0.00, 0.00, 0.00, 0.00, 0.00, 0.00, 0.00
87, 1054.09, 67485.81, 3729.86, 28486.63, -20097.59, -3981.47, 9492.07, -54397.06, -7747.56, 37482.98, 7154.06, -10417.52, 0.00, 0.00, 0.00, 0.00, 0.00, 0.00, 0.00
88, 1054.09, 67485.81, 3729.86, 28486.63, -20097.59, -3981.47, 9492.07, -54397.06, -7753.53, 37478.78, 7145.03, -10411.98, 0.00, 0.00, 0.00, 0.00, 0.00, 0.00, 0.00
89, 1027.35, 67451.82, 3703.17, 28459.54, -20119.14, -4005.92, 9458.12, -54424.55, -7753.53, 37478.78, 7145.03, -10411.98, 0.00, 0.00, 0.00, 0.00, 0.00, 0.00, 0.00
90, 1027.35, 67451.82, 3703.17, 28459.54, -20119.14, -4005.92, 9458.12, -54424.55, -7749.75, 37475.63, 7141.18, -10412.78, 0.00, 0.00, 0.00, 0.00, 0.00, 0.00, 0.00
91, 1052.57, 67481.26, 3726.33, 28488.08, -20102.11, -3981.65, 9487.60, -54401.89, -7749.75, 37475.63, 7141.18, -10412.78, 0.00, 0.00, 0.00, 0.00, 0.00, 0.00, 0.00
92, 1052.57, 67481.26, 3726.33, 28488.08, -20102.11, -3981.65, 9487.60, -54401.89, -7754.07, 37482.36, 7152.69, -10425.32, 0.00, 0.00, 0.00, 0.00, 0.14, 0.28, 0.96
93, 1029.90, 67452.16, 3701.40, 28456.34, -20122.94, -4008.25, 9452.46, -54428.46, -7754.07, 37482.36, 7152.69, -10425.32, 0.00, 0.00, 0.00, 0.00, 0.00, 0.00, 0.00
94, 1029.90, 67452.16, 3701.40, 28456.34, -20122.94, -4008.25, 9452.46, -54428.46, -7754.33, 37465.86, 7134.88, -10416.67, 0.00, 0.00, 0.00, 0.00, 0.00, 0.00, 0.00
95, 1047.40, 67482.71, 3726.55, 28487.37, -20102.26, -3981.85, 9483.11, -54400.97, -7754.33, 37465.86, 7134.88, -10416.67, 0.00, 0.00, 0.00, 0.00, 0.00, 0.00, 0.00
96, 1047.40, 67482.71, 3726.55, 28487.37, -20102.26, -3981.85, 9483.11, -54400.97, -7744.23, 37493.51, 7162.24, -10414.01, 0.00, 0.00, 0.00, 0.00, 0.00, 0.00, 0.00
97, 1035.15, 67460.94, 3709.43, 28464.21, -20111.43, -3999.78, 9460.13, -54418.52, -7744.23, 37493.51, 7162.24, -10414.01, 0.00, 0.00, 0.00, 0.00, 0.00, 0.00, 0.00
98, 1035.15, 67460.94, 3709.43, 28464.21, -20111.43, -3999.78, 9460.13, -54418.52, -7745.95, 37475.29, 7135.82, -10394.90, 0.00, 0.00, 0.00, 0.00, 0.00, 0.00, 0.00
99, 1049.73, 67479.11, 3724.36, 28489.60, -20099.38, -3978.83, 9485.45, -54396.07, -7745.95, 37475.29, 7135.82, -10394.90, 0.00, 0.00, 0.00, 0.00, 0.00, 0.00, 0.00
100, 1049.73, 67479.11, 3724.36, 28489.60, -20099.38, -3978.83, 9485.45, -54396.07, -7741.95, 37509.40, 7159.02, -10413.52, 0.00, 0.00, 0.00, 0.00, 0.00, 0.00, 0.00
101, 1031.62, 67458.16, 3706.50, 28465.17, -20110.06, -3995.28, 9461.45, -54413.31, -7741.95, 37509.40, 7159.02, -10413.52, 0.00, 0.00, 0.00, 0.00, 0.00, 0.00, 0.00
102, 1031.62, 67458.16, 3706.50, 28465.17, -20110.06, -3995.28, 9461.45, -54413.31, -7750.69, 37473.32, 7131.08, -10384.58, 0.00, 0.00, 0.00, 0.00, 0.15, 0.29, 0.97
103, 1041.03, 67474.66, 3718.73, 28482.69, -20102.20, -3984.56, 9476.09, -54403.52, -7750.69, 37473.32, 7131.08, -10384.58, 0.00, 0.00, 0.00, 0.00, 0.00, 0.00, 0.00
104, 1041.03, 67474.66, 3718.73, 28482.69, -20102.20, -3984.56, 9476.09, -54403.52, -7744.99, 37501.09, 7163.56, -10422.66, 0.00, 0.00, 0.00, 0.00, 0.00, 0.00, 0.00
105, 1034.77, 67459.24, 3706.30, 28466.09, -20110.49, -3997.32, 9456.44, -54417.13, -7744.99, 37501.09, 7163.56, -10422.66, 0.00, 0.00, 0.00, 0.00, 0.00, 0.00, 0.00
106, 1034.77, 67459.24, 3706.30, 28466.09, -20110.49, -3997.32, 9456.44, -54417.13, -7752.21, 37461.72, 7126.65, -10392.76, 0.00, 0.00, 0.00, 0.00, 0.00, 0.00, 0.00
107, 1035.94, 67468.73, 3714.64, 28476.37, -20107.52, -3988.15, 9467.15, -54408.57, -7752.21, 37461.72, 7126.65, -10392.76, 0.00, 0.00, 0.00, 0.00, 0.00, 0.00, 0.00
108, 1035.94, 67468.73, 3714.64, 28476.37, -20107.52, -3988.15, 9467.15, -54408.57, -7740.23, 37507.90, 7160.38, -10425.23, 0.00, 0.00, 0.00, 0.00, 0.00, 0.00, 0.00
109, 1033.63, 67456.55, 3705.58, 28467.79, -20112.21, -3994.01, 9455.82, -54413.15, -7740.23, 37507.90, 7160.38, -10425.23, 0.00, 0.00, 0.00, 0.00, 0.00, 0.00, 0.00
110, 1033.63, 67456.55, 3705.58, 28467.79, -20112.21, -3994.01, 9455.82, -54413.15, -7749.66, 37461.32, 7116.50, -10395.55, 0.00, 0.00, 0.00, 0.00, 0.00, 0.00, 0.00
111, 1034.51, 67463.35, 3708.91, 28471.29, -20110.65, -3993.09, 9458.72, -54411.05, -7749.66, 37461.32, 7116.50, -10395.55, 0.00, 0.00, 0.00, 0.00, 0.15, 0.29, 0.96
112, 1034.51, 67463.35, 3708.91, 28471.29, -20110.65, -3993.09, 9458.72, -54411.05, -7737.99, 37504.91, 7161.16, -10423.74, 0.00, 0.00, 0.00, 0.00, 0.00, 0.00, 0.00
113, 1036.90, 67463.53, 3709.99, 28471.29, -20107.00, -3992.31, 9454.63, -54410.76, -7737.99, 37504.91, 7161.16, -10423.74, 0.00, 0.00, 0.00, 0.00, 0.00, 0.00, 0.00
114, 1036.90, 67463.53, 3709.99, 28471.29, -20107.00, -3992.31, 9454.63, -54410.76, -7753.51, 37460.54, 7117.18, -10391.66, 0.00, 0.00, 0.00, 0.00, 0.00, 0.00, 0.00
115, 1027.64, 67456.83, 3703.30, 28465.55, -20116.64, -3998.21, 9448.64, -54415.77, -7753.51, 37460.54, 7117.18, -10391.66, 0.00, 0.00, 0.00, 0.00, 0.00, 0.00, 0.00
116, 1027.64, 67456.83, 3703.30, 28465.55, -20116.64, -3998.21, 9448.64, -54415.77, -7740.79, 37502.00, 7154.12, -10426.44, 0.00, 0.00, 0.00, 0.00, 0.00, 0.00, 0.00
117, 1039.56, 67468.63, 3714.23, 28475.90, -20106.73, -3988.51, 9457.45, -54406.13, -7740.79, 37502.00, 7154.12, -10426.44, 0.00, 0.00, 0.00, 0.00, 0.00, 0.00, 0.00
118, 1039.56, 67468.63, 3714.23, 28475.90, -20106.73, -3988.51, 9457.45, -54406.13, -7747.45, 37463.13, 7121.87, -10395.21, 0.00, 0.00, 0.00, 0.00, 0.00, 0.00, 0.00
119, 1024.18, 67455.75, 3701.99, 28460.95, -20118.42, -4000.94, 9442.38, -54419.68, -7747.45, 37463.13, 7121.87, -10395.21, 0.00, 0.00, 0.00, 0.00, 0.00, 0.00, 0.00
120, 1024.18, 67455.75, 3701.99, 28460.95, -20118.42, -4000.94, 9442.38, -54419.68, -7740.52, 37497.73, 7152.98, -10424.07, 0.00, 0.00, 0.00, 0.00, 0.00, 0.00, 0.00
121, 1037.88, 67467.64, 3715.73, 28479.18, -20106.82, -3986.28, 9455.06, -54405.93, -7740.52, 37497.73, 7152.98, -10424.07, 0.00, 0.00, 0.00, 0.00, 0.15, 0.28, 0.96
122, 1037.88, 67467.64, 3715.73, 28479.18, -20106.82, -3986.28, 9455.06, -54405.93, -7752.59, 37464.90, 7119.50, -10389.43, 0.00, 0.00, 0.00, 0.00, 0.00, 0.00, 0.00
123, 1022.75, 67448.35, 3700.20, 28460.68, -20118.83, -4001.68, 9435.99, -54419.01, -7752.59, 37464.90, 7119.50, -10389.43, 0.00, 0.00, 0.00, 0.00, 0.00, 0.00, 0.00
124, 1022.75, 67448.35, 3700.20, 28460.68, -20118.83, -4001.68, 9435.99, -54419.01, -7737.10, 37500.70, 7151.04, -10422.98, 0.00, 0.00, 0.00, 0.00, 0.00, 0.00, 0.00
125, 1043.92, 67475.22, 3722.68, 28485.60, -20100.81, -3980.29, 9458.63, -54400.66, -7737.10, 37500.70, 7151.04, -10422.98, 0.00, 0.00, 0.00, 0.00, 0.00, 0.00, 0.00
126, 1043.92, 67475.22, 3722.68, 28485.60, -20100.81, -3980.29, 9458.63, -54400.66, -7749.57, 37472.12, 7130.88, -10389.63, 0.00, 0.00, 0.00, 0.00, 0.00, 0.00, 0.00
127, 1026.75, 67453.38, 3702.28, 28459.16, -20118.92, -4002.62, 9430.96, -54422.59, -7749.57, 37472.12, 7130.88, -10389.63, 0.00, 0.00, 0.00, 0.00, 0.00, 0.00, 0.00
128, 1026.75, 67453.38, 3702.28, 28459.16, -20118.92, -4002.62, 9430.96, -54422.59, -7740.21, 37497.20, 7149.85, -10414.33, 0.00, 0.00, 0.00, 0.00, 0.00, 0.00, 0.00
129, 1049.32, 67479.42, 3725.59, 28487.21, -20098.96, -3978.50, 9456.60, -54397.62, -7740.21, 37497.20, 7149.85, -10414.33, 0.00, 0.00, 0.00, 0.00, 0.00, 0.00, 0.00
130, 1049.32, 67479.42, 3725.59, 28487.21, -20098.96, -3978.50, 9456.60, -54397.62, -7748.57, 37474.29, 7136.17, -10401.25, 0.00, 0.00, 0.00, 0.00, 0.00, 0.00, 0.00
131, 1026.26, 67452.71, 3701.99, 28458.53, -20120.53, -4002.82, 9423.88, -54423.39, -7748.57, 37474.29, 7136.17, -10401.25, 0.00, 0.00, 0.00, 0.00, 0.15, 0.28, 0.97
132, 1026.26, 67452.71, 3701.99, 28458.53, -20120.53, -4002.82, 9423.88, -54423.39, -7734.53, 37494.18, 7150.30, -10405.97, 0.00, 0.00, 0.00, 0.00, 0.00, 0.00, 0.00
133, 1049.48, 67483.34, 3728.34, 28489.42, -20096.27, -3976.89, 9456.58, -54393.44, -7734.53, 37494.18, 7150.30, -10405.97, 0.00, 0.00, 0.00, 0.00, 0.00, 0.00, 0.00
134, 1049.48, 67483.34, 3728.34, 28489.42, -20096.27, -3976.89, 9456.58, -54393.44, -7739.05, 37488.30, 7144.18, -10393.40, 0.00, 0.00, 0.00, 0.00, 0.00, 0.00, 0.00
135, 1031.44, 67454.91, 3706.79, 28462.31, -20113.73, -3998.91, 9425.46, -54418.96, -7739.05, 37488.30, 7144.18, -10393.40, 0.00, 0.00, 0.00, 0.00, 0.00, 0.00, 0.00
136, 1031.44, 67454.91, 3706.79, 28462.31, -20113.73, -3998.91, 9425.46, -54418.96, -7735.71, 37493.35, 7142.83, -10395.89, 0.00, 0.00, 0.00, 0.00, 0.00, 0.00, 0.00
137, 1042.42, 67477.27, 3724.09, 28488.57, -20099.34, -3977.56, 9452.33, -54395.41, -7735.71, 37493.35, 7142.83, -10395.89, 0.00, 0.00, 0.00, 0.00, 0.00, 0.00, 0.00
138, 1042.42, 67477.27, 3724.09, 28488.57, -20099.34, -3977.56, 9452.33, -54395.41, -7735.58, 37494.69, 7145.58, -10404.29, 0.00, 0.00, 0.00, 0.00, 0.00, 0.00, 0.00
139, 1027.78, 67450.50, 3702.23, 28461.28, -20115.09, -3999.46, 9422.33, -54418.11, -7735.58, 37494.69, 7145.58, -10404.29, 0.00, 0.00, 0.00, 0.00, 0.00, 0.00, 0.00
140, 1027.78, 67450.50, 3702.23, 28461.28, -20115.09, -3999.46, 9422.33, -54418.11, -7737.28, 37486.33, 7131.06, -10389.22, 0.00, 0.00, 0.00, 0.00, 0.00, 0.00, 0.00
141, 1043.80, 67473.74, 3721.07, 28489.91, -20101.37, -3976.93, 9449.33, -54395.94, -7737.28, 37486.33, 7131.06, -10389.22, 0.00, 0.00, 0.00, 0.00, 0.14, 0.28, 0.97
142, 1043.80, 67473.74, 3721.07, 28489.91, -20101.37, -3976.93, 9449.33, -54395.94, -7738.11, 37498.16, 7142.88, -10407.11, 0.00, 0.00, 0.00, 0.00, 0.00, 0.00, 0.00
143, 1022.55, 67449.31, 3701.16, 28459.74, -20117.33, -4000.81, 9418.60, -54419.54, -7738.11, 37498.16, 7142.88, -10407.11, 0.00, 0.00, 0.00, 0.00, 0.00, 0.00, 0.00
144, 1022.55, 67449.31, 3701.16, 28459.74, -20117.33, -4000.81, 9418.60, -54419.54, -7741.46, 37478.84, 7126.63, -10397.16, 0.00, 0.00, 0.00, 0.00, 0.00, 0.00, 0.00
145, 1039.42, 67473.03, 3716.72, 28486.36, -20104.05, -3980.64, 9443.50, -54397.53, -7741.46, 37478.84, 7126.63, -10397.16, 0.00, 0.00, 0.00, 0.00, 0.00, 0.00, 0.00
146, 1039.42, 67473.03, 3716.72, 28486.36, -20104.05, -3980.64, 9443.50, -54397.53, -7737.01, 37505.55, 7148.51, -10402.12, 0.00, 0.00, 0.00, 0.00, 0.00, 0.00, 0.00
147, 1029.50, 67454.81, 3702.75, 28463.63, -20114.00, -3996.72, 9420.41, -54416.44, -7737.01, 37505.55, 7148.51, -10402.12, 0.00, 0.00, 0.00, 0.00, 0.00, 0.00, 0.00
148, 1029.50, 67454.81, 3702.75, 28463.63, -20114.00, -3996.72, 9420.41, -54416.44, -7739.63, 37480.28, 7125.47, -10385.83, 0.00, 0.00, 0.00, 0.00, 0.00, 0.00, 0.00
149, 1043.20, 67477.16, 3722.68, 28486.92, -20100.16, -3977.94, 9444.21, -54394.53, -7739.63, 37480.28, 7125.47, -10385.83, 0.00, 0.00, 0.00, 0.00, 0.00, 0.00, 0.00
150, 1043.20, 67477.16, 3722.68, 28486.92, -20100.16, -3977.94, 9444.21, -54394.53, -7735.56, 37510.94, 7157.94, -10408.74, 0.00, 0.00, 0.00, 0.00, 0.14, 0.28, 0.97
151, 1029.86, 67459.57, 3706.97, 28464.19, -20112.41, -3996.42, 9419.67, -54412.68, -7735.56, 37510.94, 7157.94, -10408.74, 0.00, 0.00, 0.00, 0.00, 0.00, 0.00, 0.00
152, 1029.86, 67459.57, 3706.97, 28464.19, -20112.41, -3996.42, 9419.67, -54412.68, -7738.53, 37475.87, 7123.63, -10385.51, 0.00, 0.00, 0.00, 0.00, 0.00, 0.00, 0.00
153, 1044.61, 67477.52, 3718.73, 28483.61, -20102.71, -3982.77, 9437.17, -54398.24, -7738.53, 37475.87, 7123.63, -10385.51, 0.00, 0.00, 0.00, 0.00, 0.00, 0.00, 0.00
154, 1044.61, 67477.52, 3718.73, 28483.61, -20102.71, -3982.77, 9437.17, -54398.24, -7732.16, 37514.83, 7161.23, -10409.03, 0.00, 0.00, 0.00, 0.00, 0.00, 0.00, 0.00
155, 1038.60, 67467.35, 3711.86, 28474.87, -20102.73, -3988.47, 9426.85, -54405.15, -7732.16, 37514.83, 7161.23, -10409.03, 0.00, 0.00, 0.00, 0.00, 0.00, 0.00, 0.00
156, 1038.60, 67467.35, 3711.86, 28474.87, -20102.73, -3988.47, 9426.85, -54405.15, -7740.63, 37475.89, 7124.13, -10374.94, 0.00, 0.00, 0.00, 0.00, 0.00, 0.00, 0.00
157, 1036.47, 67469.14, 3714.88, 28478.47, -20107.00, -3985.70, 9430.83, -54404.59, -7740.63, 37475.89, 7124.13, -10374.94, 0.00, 0.00, 0.00, 0.00, 0.00, 0.00, 0.00
158, 1036.47, 67469.14, 3714.88, 28478.47, -20107.00, -3985.70, 9430.83, -54404.59, -7727.31, 37518.95, 7162.66, -10409.16, 0.00, 0.00, 0.00, 0.00, 0.00, 0.00, 0.00
159, 1037.01, 67469.99, 3715.51, 28477.62, -20103.09, -3986.46, 9425.53, -54403.45, -7727.31, 37518.95, 7162.66, -10409.16, 0.00, 0.00, 0.00, 0.00, 0.00, 0.00, 0.00
160, 1037.01, 67469.99, 3715.51, 28477.62, -20103.09, -3986.46, 9425.53, -54403.45, -7738.49, 37476.21, 7123.37, -10377.13, 0.00, 0.00, 0.00, 0.00, 0.14, 0.28, 0.98
161, 1038.62, 67469.79, 3712.24, 28472.66, -20110.67, -3991.51, 9421.68, -54406.89, -7738.49, 37476.21, 7123.37, -10377.13, 0.00, 0.00, 0.00, 0.00, 0.00, 0.00, 0.00
162, 1038.62, 67469.79, 3712.24, 28472.66, -20110.67, -3991.51, 9421.68, -54406.89, -7729.48, 37516.30, 7162.57, -10411.71, 0.00, 0.00, 0.00, 0.00, 0.00, 0.00, 0.00
163, 1041.93, 67479.35, 3722.33, 28480.08, -20100.99, -3985.09, 9426.56, -54401.77, -7729.48, 37516.30, 7162.57, -10411.71, 0.00, 0.00, 0.00, 0.00, 0.00, 0.00, 0.00
164, 1041.93, 67479.35, 3722.33, 28480.08, -20100.99, -3985.09, 9426.56, -54401.77, -7737.91, 37474.82, 7124.66, -10379.46, 0.00, 0.00, 0.00, 0.00, 0.00, 0.00, 0.00
165, 1035.94, 67469.81, 3712.49, 28470.89, -20110.98, -3993.81, 9416.81, -54410.29, -7737.91, 37474.82, 7124.66, -10379.46, 0.00, 0.00, 0.00, 0.00, 0.00, 0.00, 0.00
166, 1035.94, 67469.81, 3712.49, 28470.89, -20110.98, -3993.81, 9416.81, -54410.29, -7724.92, 37514.32, 7162.33, -10411.31, 0.00, 0.00, 0.00, 0.00, 0.00, 0.00, 0.00
167, 1047.72, 67481.14, 3723.42, 28483.50, -20098.49, -3983.33, 9428.35, -54398.94, -7724.92, 37514.32, 7162.33, -10411.31, 0.00, 0.00, 0.00, 0.00, 0.00, 0.00, 0.00
168, 1047.72, 67481.14, 3723.42, 28483.50, -20098.49, -3983.33, 9428.35, -54398.94, -7739.47, 37474.84, 7126.27, -10382.32, 0.00, 0.00, 0.00, 0.00, 0.00, 0.00, 0.00
169, 1033.41, 67461.92, 3708.33, 28466.04, -20116.57, -3999.42, 9407.60, -54416.75, -7739.47, 37474.84, 7126.27, -10382.32, 0.00, 0.00, 0.00, 0.00, 0.00, 0.00, 0.00
170, 1033.41, 67461.92, 3708.33, 28466.04, -20116.57, -3999.42, 9407.60, -54416.75, -7725.34, 37512.66, 7155.31, -10416.00, 0.00, 0.00, 0.00, 0.00, 0.15, 0.28, 0.97
171, 1041.05, 67481.14, 3723.13, 28482.31, -20100.28, -3984.33, 9425.55, -54398.40, -7725.34, 37512.66, 7155.31, -10416.00, 0.00, 0.00, 0.00, 0.00, 0.00, 0.00, 0.00
172, 1041.05, 67481.14, 3723.13, 28482.31, -20100.28, -3984.33, 9425.55, -54398.40, -7736.16, 37480.19, 7129.80, -10378.41, 0.00, 0.00, 0.00, 0.00, 0.00, 0.00, 0.00
173, 1029.77, 67459.59, 3705.07, 28463.94, -20114.69, -4001.28, 9403.78, -54415.50, -7736.16, 37480.19, 7129.80, -10378.41, 0.00, 0.00, 0.00, 0.00, 0.00, 0.00, 0.00
174, 1029.77, 67459.59, 3705.07, 28463.94, -20114.69, -4001.28, 9403.78, -54415.50, -7726.64, 37508.10, 7151.66, -10403.51, 0.00, 0.00, 0.00, 0.00, 0.00, 0.00, 0.00
175, 1048.01, 67484.14, 3724.00, 28485.91, -20098.67, -3982.30, 9425.53, -54396.01, -7726.64, 37508.10, 7151.66, -10403.51, 0.00, 0.00, 0.00, 0.00, 0.00, 0.00, 0.00
176, 1048.01, 67484.14, 3724.00, 28485.91, -20098.67, -3982.30, 9425.53, -54396.01, -7737.75, 37481.59, 7129.85, -10386.41, 0.00, 0.00, 0.00, 0.00, 0.00, 0.00, 0.00
177, 1024.11, 67456.27, 3700.82, 28458.40, -20119.65, -4005.43, 9395.38, -54420.13, -7737.75, 37481.59, 7129.85, -10386.41, 0.00, 0.00, 0.00, 0.00, 0.00, 0.00, 0.00
178, 1024.11, 67456.27, 3700.82, 28458.40, -20119.65, -4005.43, 9395.38, -54420.13, -7723.29, 37504.37, 7147.53, -10405.76, 0.00, 0.00, 0.00, 0.00, 0.00, 0.00, 0.00
179, 1044.61, 67485.26, 3728.18, 28487.12, -20093.90, -3979.84, 9428.97, -54388.39, -7723.29, 37504.37, 7147.53, -10405.76, 0.00, 0.00, 0.00, 0.00, 0.00, 0.00, 0.00
180, 1044.61, 67485.26, 3728.18, 28487.12, -20093.90, -3979.84, 9428.97, -54388.39, -7728.20, 37493.35, 7136.67, -10383.97, 0.00, 0.00, 0.00, 0.00, 0.15, 0.28, 0.97
181, 1027.26, 67453.59, 3700.24, 28457.95, -20120.37, -4004.85, 9393.92, -54418.58, -7728.20, 37493.35, 7136.67, -10383.97, 0.00, 0.00, 0.00, 0.00, 0.00, 0.00, 0.00
182, 1027.26, 67453.59, 3700.24, 28457.95, -20120.37, -4004.85, 9393.92, -54418.58, -7728.47, 37498.61, 7142.12, -10394.03, 0.00, 0.00, 0.00, 0.00, 0.00, 0.00, 0.00
183, 1042.73, 67487.31, 3728.63, 28489.26, -20096.16, -3979.62, 9423.67, -54391.98, -7728.47, 37498.61, 7142.12, -10394.03, 0.00, 0.00, 0.00, 0.00, 0.00, 0.00, 0.00
184, 1042.73, 67487.31, 3728.63, 28489.26, -20096.16, -3979.62, 9423.67, -54391.98, -7731.96, 37491.86, 7143.64, -10393.25, 0.00, 0.00, 0.00, 0.00, 0.00, 0.00, 0.00
185, 1030.42, 67458.10, 3703.62, 28458.35, -20114.94, -4005.57, 9392.00, -54418.79, -7731.96, 37491.86, 7143.64, -10393.25, 0.00, 0.00, 0.00, 0.00, 0.00, 0.00, 0.00
186, 1030.42, 67458.10, 3703.62, 28458.35, -20114.94, -4005.57, 9392.00, -54418.79, -7728.94, 37488.23, 7140.87, -10393.61, 0.00, 0.00, 0.00, 0.00, 0.00, 0.00, 0.00
187, 1046.84, 67486.35, 3726.24, 28489.00, -20096.92, -3981.25, 9421.48, -54392.66, -7728.94, 37488.23, 7140.87, -10393.61, 0.00, 0.00, 0.00, 0.00, 0.00, 0.00, 0.00
188, 1046.84, 67486.35, 3726.24, 28489.00, -20096.92, -3981.25, 9421.48, -54392.66, -7731.54, 37497.40, 7146.10, -10408.58, 0.00, 0.00, 0.00, 0.00, 0.00, 0.00, 0.00
189, 1021.05, 67457.20, 3701.69, 28458.87, -20119.70, -4006.93, 9387.80, -54419.32, -7731.54, 37497.40, 7146.10, -10408.58, 0.00, 0.00, 0.00, 0.00, 0.15, 0.28, 0.97
190, 1021.05, 67457.20, 3701.69, 28458.87, -20119.70, -4006.93, 9387.80, -54419.32, -7731.45, 37488.14, 7131.88, -10378.58, 0.00, 0.00, 0.00, 0.00, 0.00, 0.00, 0.00
191, 1048.94, 67487.13, 3726.97, 28488.50, -20097.37, -3983.13, 9418.11, -54393.77, -7731.45, 37488.14, 7131.88, -10378.58, 0.00, 0.00, 0.00, 0.00, 0.00, 0.00, 0.00
192, 1048.94, 67487.13, 3726.97, 28488.50, -20097.37, -3983.13, 9418.11, -54393.77, -7726.93, 37507.59, 7157.23, -10399.17, 0.00, 0.00, 0.00, 0.00, 0.00, 0.00, 0.00
193, 1030.53, 67459.09, 3704.78, 28460.10, -20115.05, -4006.17, 9387.20, -54419.66, -7726.93, 37507.59, 7157.23, -10399.17, 0.00, 0.00, 0.00, 0.00, 0.00, 0.00, 0.00
194, 1030.53, 67459.09, 3704.78, 28460.10, -20115.05, -4006.17, 9387.20, -54419.66, -7735.36, 37478.82, 7127.75, -10386.16, 0.00, 0.00, 0.00, 0.00, 0.00, 0.00, 0.00
195, 1040.32, 67483.11, 3724.38, 28485.67, -20099.72, -3984.67, 9414.29, -54397.75, -7735.36, 37478.82, 7127.75, -10386.16, 0.00, 0.00, 0.00, 0.00, 0.00, 0.00, 0.00
196, 1040.32, 67483.11, 3724.38, 28485.67, -20099.72, -3984.67, 9414.29, -54397.75, -7722.84, 37515.66, 7162.10, -10399.42, 0.00, 0.00, 0.00, 0.00, 0.00, 0.00, 0.00
197, 1029.92, 67466.80, 3710.10, 28461.82, -20107.43, -4001.97, 9392.61, -54411.50, -7722.84, 37515.66, 7162.10, -10399.42, 0.00, 0.00, 0.00, 0.00, 0.00, 0.00, 0.00
198, 1029.92, 67466.80, 3710.10, 28461.82, -20107.43, -4001.97, 9392.61, -54411.50, -7730.64, 37482.76, 7131.84, -10380.31, 0.00, 0.00, 0.00, 0.00, 0.00, 0.00, 0.00
199, 1038.19, 67481.91, 3721.25, 28480.10, -20100.50, -3988.91, 9410.13, -54397.64, -7730.64, 37482.76, 7131.84, -10380.31, 0.00, 0.00, 0.00, 0.00, 0.15, 0.28, 0.97
200, 1038.19, 67481.91, 3721.25, 28480.10, -20100.50, -3988.91, 9410.13, -54397.64, -7717.39, 37518.63, 7164.11, -10400.47, 0.00, 0.00, 0.00, 0.00, 0.00, 0.00, 0.00
201, 1032.92, 67469.37, 3714.77, 28467.20, -20103.31, -3999.11, 9394.91, -54407.32, -7717.39, 37518.63, 7164.11, -10400.47, 0.00, 0.00, 0.00, 0.00, 0.00, 0.00, 0.00
202, 1032.92, 67469.37, 3714.77, 28467.20, -20103.31, -3999.11, 9394.91, -54407.32, -7727.85, 37481.62, 7129.83, -10368.71, 0.00, 0.00, 0.00, 0.00, 0.00, 0.00, 0.00
203, 1033.32, 67479.73, 3722.17, 28479.52, -20099.07, -3989.00, 9407.07, -54399.18, -7727.85, 37481.62, 7129.83, -10368.71, 0.00, 0.00, 0.00, 0.00, 0.00, 0.00, 0.00
204, 1033.32, 67479.73, 3722.17, 28479.52, -20099.07, -3989.00, 9407.07, -54399.18, -7718.39, 37519.37, 7169.28, -10406.52, 0.00, 0.00, 0.00, 0.00, 0.00, 0.00, 0.00
205, 1036.47, 67469.48, 3714.26, 28470.47, -20102.62, -3997.68, 9394.77, -54408.19, -7718.39, 37519.37, 7169.28, -10406.52, 0.00, 0.00, 0.00, 0.00, 0.00, 0.00, 0.00
206, 1036.47, 67469.48, 3714.26, 28470.47, -20102.62, -3997.68, 9394.77, -54408.19, -7731.33, 37478.64, 7127.48, -10374.09, 0.00, 0.00, 0.00, 0.00, 0.00, 0.00, 0.00
207, 1036.81, 67474.77, 3719.17, 28473.95, -20102.78, -3993.85, 9402.01, -54403.72, -7731.33, 37478.64, 7127.48, -10374.09, 0.00, 0.00, 0.00, 0.00, 0.00, 0.00, 0.00
208, 1036.81, 67474.77, 3719.17, 28473.95, -20102.78, -3993.85, 9402.01, -54403.72, -7715.06, 37524.67, 7168.23, -10396.35, 0.00, 0.00, 0.00, 0.00, 0.00, 0.00, 0.00
209, 1034.22, 67474.70, 3721.14, 28476.08, -20098.87, -3992.58, 9401.88, -54401.60, -7715.06, 37524.67, 7168.23, -10396.35, 0.00, 0.00, 0.00, 0.00, 0.15, 0.28, 0.97
210, 1034.22, 67474.70, 3721.14, 28476.08, -20098.87, -3992.58, 9401.88, -54401.60, -7726.01, 37482.87, 7130.45, -10363.92, 0.00, 0.00, 0.00, 0.00, 0.00, 0.00, 0.00
211, 1037.08, 67471.82, 3721.23, 28474.71, -20101.26, -3994.57, 9400.72, -54404.17, -7726.01, 37482.87, 7130.45, -10363.92, 0.00, 0.00, 0.00, 0.00, 0.00, 0.00, 0.00
212, 1037.08, 67471.82, 3721.23, 28474.71, -20101.26, -3994.57, 9400.72, -54404.17, -7705.65, 37532.42, 7192.55, -10392.35, 0.00, 0.00, 0.00, 0.00, 0.00, 0.00, 0.00
213, 1060.95, 67490.46, 3745.64, 28499.35, -20080.56, -3975.10, 9418.64, -54387.76, -7705.65, 37532.42, 7192.55, -10392.35, 0.00, 0.00, 0.00, 0.00, 0.00, 0.00, 0.00
214, 1060.95, 67490.46, 3745.64, 28499.35, -20080.56, -3975.10, 9418.64, -54387.76, -7726.10, 37486.87, 7133.47, -10363.70, 0.00, 0.00, 0.00, 0.00, 0.00, 0.00, 0.00
215, 1035.33, 67468.90, 3713.05, 28450.73, -20116.05, -4010.37, 9385.32, -54414.00, -7726.10, 37486.87, 7133.47, -10363.70, 0.00, 0.00, 0.00, 0.00, 0.00, 0.00, 0.00
216, 1035.33, 67468.90, 3713.05, 28450.73, -20116.05, -4010.37, 9385.32, -54414.00, -7715.62, 37522.50, 7178.87, -10399.64, 0.00, 0.00, 0.00, 0.00, 0.00, 0.00, 0.00
217, 1052.16, 67490.09, 3732.56, 28469.71, -20106.49, -3997.74, 9398.55, -54401.08, -7715.62, 37522.50, 7178.87, -10399.64, 0.00, 0.00, 0.00, 0.00, 0.00, 0.00, 0.00
218, 1052.16, 67490.09, 3732.56, 28469.71, -20106.49, -3997.74, 9398.55, -54401.08, -7729.10, 37485.64, 7158.01, -10364.68, 0.00, 0.00, 0.00, 0.00, 0.00, 0.00, 0.00
219, 1046.69, 67480.09, 3728.16, 28443.35, -20114.74, -4010.69, 9383.11, -54415.63, -7729.10, 37485.64, 7158.01, -10364.68, 0.00, 0.00, 0.00, 0.00, 0.15, 0.28, 0.97
220, 1046.69, 67480.09, 3728.16, 28443.35, -20114.74, -4010.69, 9383.11, -54415.63, -7718.95, 37517.16, 7184.34, -10396.53, 0.00, 0.00, 0.00, 0.00, 0.00, 0.00, 0.00
221, 1057.57, 67497.17, 3742.42, 28465.35, -20101.21, -3992.98, 9404.56, -54398.55, -7718.95, 37517.16, 7184.34, -10396.53, 0.00, 0.00, 0.00, 0.00, 0.00, 0.00, 0.00
222, 1057.57, 67497.17, 3742.42, 28465.35, -20101.21, -3992.98, 9404.56, -54398.55, -7731.54, 37486.40, 7164.45, -10373.67, 0.00, 0.00, 0.00, 0.00, 0.00, 0.00, 0.00
223, 1043.33, 67473.79, 3724.16, 28446.04, -20116.99, -4013.77, 9380.94, -54417.69, -7731.54, 37486.40, 7164.45, -10373.67, 0.00, 0.00, 0.00, 0.00, 0.00, 0.00, 0.00
224, 1043.33, 67473.79, 3724.16, 28446.04, -20116.99, -4013.77, 9380.94, -54417.69, -7721.23, 37511.28, 7187.69, -10400.74, 0.00, 0.00, 0.00, 0.00, 0.00, 0.00, 0.00
225, 1058.98, 67499.47, 3746.13, 28472.41, -20098.06, -3990.64, 9407.56, -54395.56, -7721.23, 37511.28, 7187.69, -10400.74, 0.00, 0.00, 0.00, 0.00, 0.00, 0.00, 0.00
226, 1058.98, 67499.47, 3746.13, 28472.41, -20098.06, -3990.64, 9407.56, -54395.56, -7733.81, 37488.95, 7167.47, -10376.15, 0.00, 0.00, 0.00, 0.00, 0.00, 0.00, 0.00
227, 1040.70, 67474.15, 3722.12, 28443.44, -20121.91, -4016.72, 9375.22, -54423.64, -7733.81, 37488.95, 7167.47, -10376.15, 0.00, 0.00, 0.00, 0.00, 0.00, 0.00, 0.00
228, 1040.70, 67474.15, 3722.12, 28443.44, -20121.91, -4016.72, 9375.22, -54423.64, -7727.18, 37503.72, 7182.64, -10392.85, 0.00, 0.00, 0.00, 0.00, 0.16, 0.28, 0.97
229, 1066.56, 67504.88, 3748.92, 28475.59, -20099.29, -3990.81, 9407.38, -54395.56, -7727.18, 37503.72, 7182.64, -10392.85, 0.00, 0.00, 0.00, 0.00, 0.00, 0.00, 0.00
230, 1066.56, 67504.88, 3748.92, 28475.59, -20099.29, -3990.81, 9407.38, -54395.56, -7730.02, 37497.31, 7177.32, -10380.93, 0.00, 0.00, 0.00, 0.00, 0.00, 0.00, 0.00
231, 1050.73, 67480.09, 3730.91, 28451.45, -20117.78, -4013.03, 9378.37, -54420.62, -7730.02, 37497.31, 7177.32, -10380.93, 0.00, 0.00, 0.00, 0.00, 0.00, 0.00, 0.00
232, 1050.73, 67480.09, 3730.91, 28451.45, -20117.78, -4013.03, 9378.37, -54420.62, -7727.53, 37499.30, 7179.92, -10390.39, 0.00, 0.00, 0.00, 0.00, 0.00, 0.00, 0.00
233, 1070.27, 67513.51, 3758.29, 28480.61, -20096.88, -3987.71, 9410.89, -54395.88, -7727.53, 37499.30, 7179.92, -10390.39, 0.00, 0.00, 0.00, 0.00, 0.00, 0.00, 0.00
234, 1070.27, 67513.51, 3758.29, 28480.61, -20096.88, -3987.71, 9410.89, -54395.88, -7724.61, 37502.63, 7189.91, -10381.74, 0.00, 0.00, 0.00, 0.00, 0.00, 0.00, 0.00
235, 1053.55, 67485.79, 3735.56, 28453.90, -20114.04, -4011.80, 9381.09, -54419.90, -7724.61, 37502.63, 7189.91, -10381.74, 0.00, 0.00, 0.00, 0.00, 0.00, 0.00, 0.00
236, 1053.55, 67485.79, 3735.56, 28453.90, -20114.04, -4011.80, 9381.09, -54419.90, -7723.35, 37496.08, 7180.03, -10380.49, 0.00, 0.00, 0.00, 0.00, 0.00, 0.00, 0.00
237, 1068.48, 67507.18, 3754.62, 28480.03, -20099.22, -3990.17, 9410.53, -54394.51, -7723.35, 37496.08, 7180.03, -10380.49, 0.00, 0.00, 0.00, 0.00, 0.00, 0.00, 0.00
238, 1068.48, 67507.18, 3754.62, 28480.03, -20099.22, -3990.17, 9410.53, -54394.51, -7719.98, 37514.74, 7190.49, -10386.52, 0.00, 0.00, 0.00, 0.00, 0.15, 0.28, 0.97
239, 1044.09, 67479.78, 3732.81, 28450.73, -20114.04, -4011.91, 9383.35, -54415.68, -7719.98, 37514.74, 7190.49, -10386.52, 0.00, 0.00, 0.00, 0.00, 0.00, 0.00, 0.00
240, 1044.09, 67479.78, 3732.81, 28450.73, -20114.04, -4011.91, 9383.35, -54415.68, -7719.87, 37494.11, 7172.05, -10373.87, 0.00, 0.00, 0.00, 0.00, 0.00, 0.00, 0.00
241, 1063.00, 67504.14, 3752.41, 28477.73, -20100.45, -3992.85, 9409.70, -54396.59, -7719.87, 37494.11, 7172.05, -10373.87, 0.00, 0.00, 0.00, 0.00, 0.00, 0.00, 0.00
242, 1063.00, 67504.14, 3752.41, 28477.73, -20100.45, -3992.85, 9409.70, -54396.59, -7714.44, 37516.91, 7193.48, -10383.75, 0.00, 0.00, 0.00, 0.00, 0.00, 0.00, 0.00
243, 1047.94, 67481.61, 3733.93, 28454.42, -20112.32, -4010.64, 9385.07, -54415.72, -7714.44, 37516.91, 7193.48, -10383.75, 0.00, 0.00, 0.00, 0.00, 0.00, 0.00, 0.00
244, 1047.94, 67481.61, 3733.93, 28454.42, -20112.32, -4010.64, 9385.07, -54415.72, -7718.84, 37492.41, 7165.72, -10362.16, 0.00, 0.00, 0.00, 0.00, 0.00, 0.00, 0.00
245, 1060.95, 67501.30, 3749.46, 28474.89, -20099.16, -3992.22, 9410.62, -54393.71, -7718.84, 37492.41, 7165.72, -10362.16, 0.00, 0.00, 0.00, 0.00, 0.00, 0.00, 0.00
246, 1060.95, 67501.30, 3749.46, 28474.89, -20099.16, -3992.22, 9410.62, -54393.71, -7709.70, 37527.93, 7196.35, -10384.15, 0.00, 0.00, 0.00, 0.00, 0.00, 0.00, 0.00
247, 1050.55, 67485.62, 3737.19, 28457.75, -20107.49, -4005.16, 9392.58, -54407.25, -7709.70, 37527.93, 7196.35, -10384.15, 0.00, 0.00, 0.00, 0.00, 0.00, 0.00, 0.00
248, 1050.55, 67485.62, 3737.19, 28457.75, -20107.49, -4005.16, 9392.58, -54407.25, -7718.86, 37494.07, 7162.46, -10354.00, 0.00, 0.00, 0.00, 0.00, 0.15, 0.28, 0.97
249, 1058.69, 67497.86, 3745.82, 28469.42, -20102.58, -3996.58, 9407.02, -54397.64, -7718.86, 37494.07, 7162.46, -10354.00, 0.00, 0.00, 0.00, 0.00, 0.00, 0.00, 0.00
250, 1058.69, 67497.86, 3745.82, 28469.42, -20102.58, -3996.58, 9407.02, -54397.64, -7710.70, 37530.88, 7200.66, -10381.20, 0.00, 0.00, 0.00, 0.00, 0.00, 0.00, 0.00
251, 1048.79, 67485.55, 3739.29, 28457.39, -20106.36, -4006.19, 9394.24, -54406.94, -7710.70, 37530.88, 7200.66, -10381.20, 0.00, 0.00, 0.00, 0.00, 0.00, 0.00, 0.00
252, 1048.79, 67485.55, 3739.29, 28457.39, -20106.36, -4006.19, 9394.24, -54406.94, -7724.29, 37485.04, 7160.85, -10357.49, 0.00, 0.00, 0.00, 0.00, 0.00, 0.00, 0.00
253, 1054.24, 67494.27, 3742.91, 28462.96, -20106.51, -4002.75, 9400.58, -54403.59, -7724.29, 37485.04, 7160.85, -10357.49, 0.00, 0.00, 0.00, 0.00, 0.00, 0.00, 0.00
254, 1054.24, 67494.27, 3742.91, 28462.96, -20106.51, -4002.75, 9400.58, -54403.59, -7710.55, 37527.53, 7197.55, -10396.67, 0.00, 0.00, 0.00, 0.00, 0.00, 0.00, 0.00
255, 1052.70, 67491.45, 3742.80, 28462.11, -20104.03, -4004.07, 9399.04, -54404.12, -7710.55, 37527.53, 7197.55, -10396.67, 0.00, 0.00, 0.00, 0.00, 0.00, 0.00, 0.00
0, 1052.70, 67491.45, 3742.80, 28462.11, -20104.03, -4004.07, 9399.04, -54404.12, -7723.82, 37484.93, 7159.76, -10354.92, 0.00, 0.00, 0.00, 0.00, 0.00, 0.00, 0.00
1, 1051.54, 67489.75, 3738.60, 28457.81, -20107.56, -4005.61, 9398.91, -54403.41, -7723.82, 37484.93, 7159.76, -10354.92, 0.00, 0.00, 0.00, 0.00, 0.00, 0.00, 0.00
2, 1051.54, 67489.75, 3738.60, 28457.81, -20107.56, -4005.61, 9398.91, -54403.41, -7708.11, 37530.57, 7201.02, -10390.90, 0.00, 0.00, 0.00, 0.00, 0.15, 0.28, 0.96
3, 1055.36, 67497.91, 3747.40, 28465.93, -20100.37, -3999.44, 9404.29, -54399.76, -7708.11, 37530.57, 7201.02, -10390.90, 0.00, 0.00, 0.00, 0.00, 0.00, 0.00, 0.00
4, 1055.36, 67497.91, 3747.40, 28465.93, -20100.37, -3999.44, 9404.29, -54399.76, -7724.18, 37485.08, 7159.84, -10364.17, 0.00, 0.00, 0.00, 0.00, 0.00, 0.00, 0.00
5, 1047.74, 67487.42, 3736.05, 28454.37, -20110.94, -4010.71, 9393.01, -54411.14, -7724.18, 37485.08, 7159.84, -10364.17, 0.00, 0.00, 0.00, 0.00, 0.00, 0.00, 0.00
6, 1047.74, 67487.42, 3736.05, 28454.37, -20110.94, -4010.71, 9393.01, -54411.14, -7710.12, 37528.11, 7199.92, -10392.82, 0.00, 0.00, 0.00, 0.00, 0.00, 0.00, 0.00
7, 1056.57, 67501.53, 3749.66, 28468.77, -20100.97, -3998.28, 9406.51, -54400.12, -7710.12, 37528.11, 7199.92, -10392.82, 0.00, 0.00, 0.00, 0.00, 0.00, 0.00, 0.00
8, 1056.57, 67501.53, 3749.66, 28468.77, -20100.97, -3998.28, 9406.51, -54400.12, -7729.21, 37484.07, 7159.62, -10360.95, 0.00, 0.00, 0.00, 0.00, 0.00, 0.00, 0.00
9, 1045.01, 67482.53, 3734.60, 28452.38, -20116.01, -4012.27, 9389.50, -54416.91, -7729.21, 37484.07, 7159.62, -10360.95, 0.00, 0.00, 0.00, 0.00, 0.00, 0.00, 0.00
10, 1045.01, 67482.53, 3734.60, 28452.38, -20116.01, -4012.27, 9389.50, -54416.91, -7714.59, 37517.96, 7193.53, -10396.98, 0.00, 0.00, 0.00, 0.00, 0.00, 0.00, 0.00
11, 1054.71, 67496.27, 3746.93, 28469.08, -20102.24, -3997.99, 9408.41, -54397.93, -7714.59, 37517.96, 7193.53, -10396.98, 0.00, 0.00, 0.00, 0.00, 0.15, 0.28, 0.96
12, 1054.71, 67496.27, 3746.93, 28469.08, -20102.24, -3997.99, 9408.41, -54397.93, -7726.69, 37487.32, 7163.53, -10367.63, 0.00, 0.00, 0.00, 0.00, 0.00, 0.00, 0.00
13, 1040.25, 67475.91, 3729.50, 28450.98, -20116.99, -4015.42, 9386.77, -54416.39, -7726.69, 37487.32, 7163.53, -10367.63, 0.00, 0.00, 0.00, 0.00, 0.00, 0.00, 0.00
14, 1040.25, 67475.91, 3729.50, 28450.98, -20116.99, -4015.42, 9386.77, -54416.39, -7714.41, 37518.03, 7188.19, -10392.31, 0.00, 0.00, 0.00, 0.00, 0.00, 0.00, 0.00
15, 1053.88, 67496.41, 3747.29, 28471.12, -20101.59, -3996.67, 9411.18, -54397.17, -7714.41, 37518.03, 7188.19, -10392.31, 0.00, 0.00, 0.00, 0.00, 0.00, 0.00, 0.00
16, 1053.88, 67496.41, 3747.29, 28471.12, -20101.59, -3996.67, 9411.18, -54397.17, -7722.97, 37495.92, 7165.12, -10363.43, 0.00, 0.00, 0.00, 0.00, 0.00, 0.00, 0.00
17, 1039.15, 67474.70, 3727.20, 28444.00, -20117.87, -4018.71, 9387.20, -54416.55, -7722.97, 37495.92, 7165.12, -10363.43, 0.00, 0.00, 0.00, 0.00, 0.00, 0.00, 0.00
18, 1039.15, 67474.70, 3727.20, 28444.00, -20117.87, -4018.71, 9387.20, -54416.55, -7707.66, 37520.11, 7190.71, -10377.36, 0.00, 0.00, 0.00, 0.00, 0.00, 0.00, 0.00
19, 1063.38, 67508.73, 3755.05, 28477.87, -20092.27, -3990.59, 9421.30, -54387.00, -7707.66, 37520.11, 7190.71, -10377.36, 0.00, 0.00, 0.00, 0.00, 0.00, 0.00, 0.00
20, 1063.38, 67508.73, 3755.05, 28477.87, -20092.27, -3990.59, 9421.30, -54387.00, -7715.44, 37506.36, 7181.57, -10367.25, 0.00, 0.00, 0.00, 0.00, 0.00, 0.00, 0.00
21, 1040.34, 67478.98, 3730.64, 28447.24, -20114.60, -4016.79, 9389.14, -54414.38, -7715.44, 37506.36, 7181.57, -10367.25, 0.00, 0.00, 0.00, 0.00, 0.15, 0.28, 0.97
22, 1040.34, 67478.98, 3730.64, 28447.24, -20114.60, -4016.79, 9389.14, -54414.38, -7712.11, 37510.47, 7185.84, -10377.83, 0.00, 0.00, 0.00, 0.00, 0.00, 0.00, 0.00
23, 1063.18, 67508.81, 3755.61, 28477.64, -20095.74, -3992.85, 9420.05, -54388.34, -7712.11, 37510.47, 7185.84, -10377.83, 0.00, 0.00, 0.00, 0.00, 0.00, 0.00, 0.00
24, 1063.18, 67508.81, 3755.61, 28477.64, -20095.74, -3992.85, 9420.05, -54388.34, -7712.96, 37512.15, 7184.86, -10368.86, 0.00, 0.00, 0.00, 0.00, 0.00, 0.00, 0.00
25, 1047.29, 67482.06, 3733.43, 28450.98, -20113.28, -4015.80, 9390.46, -54410.85, -7712.96, 37512.15, 7184.86, -10368.86, 0.00, 0.00, 0.00, 0.00, 0.00, 0.00, 0.00
26, 1047.29, 67482.06, 3733.43, 28450.98, -20113.28, -4015.80, 9390.46, -54410.85, -7711.26, 37510.50, 7180.48, -10365.84, 0.00, 0.00, 0.00, 0.00, 0.00, 0.00, 0.00
27, 1067.63, 67509.33, 3756.26, 28478.27, -20094.04, -3991.51, 9423.07, -54387.29, -7711.26, 37510.50, 7180.48, -10365.84, 0.00, 0.00, 0.00, 0.00, 0.00, 0.00, 0.00
28, 1067.63, 67509.33, 3756.26, 28478.27, -20094.04, -3991.51, 9423.07, -54387.29, -7708.94, 37523.86, 7195.50, -10368.79, 0.00, 0.00, 0.00, 0.00, 0.00, 0.00, 0.00
29, 1047.47, 67487.73, 3738.91, 28451.04, -20106.53, -4013.72, 9396.67, -54407.34, -7708.94, 37523.86, 7195.50, -10368.79, 0.00, 0.00, 0.00, 0.00, 0.00, 0.00, 0.00
30, 1047.47, 67487.73, 3738.91, 28451.04, -20106.53, -4013.72, 9396.67, -54407.34, -7708.89, 37510.70, 7183.85, -10359.23, 0.00, 0.00, 0.00, 0.00, 0.00, 0.00, 0.00
31, 1065.31, 67511.72, 3759.65, 28477.31, -20090.44, -3991.17, 9427.38, -54381.99, -7708.89, 37510.70, 7183.85, -10359.23, 0.00, 0.00, 0.00, 0.00, 0.15, 0.28, 0.97
32, 1065.31, 67511.72, 3759.65, 28477.31, -20090.44, -3991.17, 9427.38, -54381.99, -7703.89, 37530.07, 7205.13, -10374.72, 0.00, 0.00, 0.00, 0.00, 0.00, 0.00, 0.00
33, 1045.68, 67488.54, 3743.36, 28452.94, -20103.36, -4011.58, 9400.72, -54404.12, -7703.89, 37530.07, 7205.13, -10374.72, 0.00, 0.00, 0.00, 0.00, 0.00, 0.00, 0.00
34, 1045.68, 67488.54, 3743.36, 28452.94, -20103.36, -4011.58, 9400.72, -54404.12, -7712.13, 37500.95, 7176.52, -10360.48, 0.00, 0.00, 0.00, 0.00, 0.00, 0.00, 0.00
35, 1056.48, 67503.27, 3751.67, 28471.83, -20097.32, -3997.32, 9421.13, -54389.68, -7712.13, 37500.95, 7176.52, -10360.48, 0.00, 0.00, 0.00, 0.00, 0.00, 0.00, 0.00
36, 1056.48, 67503.27, 3751.67, 28471.83, -20097.32, -3997.32, 9421.13, -54389.68, -7706.12, 37529.61, 7200.23, -10377.53, 0.00, 0.00, 0.00, 0.00, 0.00, 0.00, 0.00
37, 1043.45, 67480.88, 3734.69, 28449.72, -20108.39, -4014.71, 9399.40, -54405.08, -7706.12, 37529.61, 7200.23, -10377.53, 0.00, 0.00, 0.00, 0.00, 0.00, 0.00, 0.00
38, 1043.45, 67480.88, 3734.69, 28449.72, -20108.39, -4014.71, 9399.40, -54405.08, -7709.94, 37502.54, 7170.22, -10348.88, 0.00, 0.00, 0.00, 0.00, 0.00, 0.00, 0.00
39, 1047.54, 67496.30, 3748.50, 28469.26, -20099.78, -3998.12, 9422.27, -54388.01, -7709.94, 37502.54, 7170.22, -10348.88, 0.00, 0.00, 0.00, 0.00, 0.00, 0.00, 0.00
40, 1047.54, 67496.30, 3748.50, 28469.26, -20099.78, -3998.12, 9422.27, -54388.01, -7704.74, 37535.24, 7197.62, -10379.46, 0.00, 0.00, 0.00, 0.00, 0.00, 0.00, 0.00
41, 1043.63, 67480.49, 3732.76, 28452.12, -20106.27, -4010.26, 9403.47, -54401.26, -7704.74, 37535.24, 7197.62, -10379.46, 0.00, 0.00, 0.00, 0.00, 0.14, 0.27, 0.97
42, 1043.63, 67480.49, 3732.76, 28452.12, -20106.27, -4010.26, 9403.47, -54401.26, -7716.40, 37495.43, 7157.97, -10351.94, 0.00, 0.00, 0.00, 0.00, 0.00, 0.00, 0.00
43, 1044.36, 67486.04, 3736.45, 28459.87, -20106.71, -4006.77, 9411.04, -54395.45, -7716.40, 37495.43, 7157.97, -10351.94, 0.00, 0.00, 0.00, 0.00, 0.00, 0.00, 0.00
44, 1044.36, 67486.04, 3736.45, 28459.87, -20106.71, -4006.77, 9411.04, -54395.45, -7707.40, 37535.95, 7199.43, -10380.19, 0.00, 0.00, 0.00, 0.00, 0.00, 0.00, 0.00
45, 1043.09, 67483.80, 3737.06, 28454.24, -20105.46, -4008.56, 9405.97, -54399.54, -7707.40, 37535.95, 7199.43, -10380.19, 0.00, 0.00, 0.00, 0.00, 0.00, 0.00, 0.00
46, 1043.09, 67483.80, 3737.06, 28454.24, -20105.46, -4008.56, 9405.97, -54399.54, -7716.94, 37495.56, 7157.70, -10345.82, 0.00, 0.00, 0.00, 0.00, 0.00, 0.00, 0.00
47, 1042.93, 67488.27, 3738.35, 28457.41, -20106.67, -4006.84, 9410.29, -54397.62, -7716.94, 37495.56, 7157.70, -10345.82, 0.00, 0.00, 0.00, 0.00, 0.00, 0.00, 0.00
48, 1042.93, 67488.27, 3738.35, 28457.41, -20106.67, -4006.84, 9410.29, -54397.62, -7702.03, 37543.51, 7204.66, -10380.13, 0.00, 0.00, 0.00, 0.00, 0.00, 0.00, 0.00
49, 1045.77, 67489.03, 3739.92, 28456.54, -20102.06, -4005.10, 9412.16, -54393.97, -7702.03, 37543.51, 7204.66, -10380.13, 0.00, 0.00, 0.00, 0.00, 0.00, 0.00, 0.00
50, 1045.77, 67489.03, 3739.92, 28456.54, -20102.06, -4005.10, 9412.16, -54393.97, -7712.20, 37500.17, 7161.70, -10349.24, 0.00, 0.00, 0.00, 0.00, 0.15, 0.27, 0.97
51, 1042.71, 67484.41, 3736.79, 28453.63, -20107.70, -4009.55, 9409.53, -54399.14, -7712.20, 37500.17, 7161.70, -10349.24, 0.00, 0.00, 0.00, 0.00, 0.00, 0.00, 0.00
52, 1042.71, 67484.41, 3736.79, 28453.63, -20107.70, -4009.55, 9409.53, -54399.14, -7697.25, 37543.06, 7206.27, -10370.96, 0.00, 0.00, 0.00, 0.00, 0.00, 0.00, 0.00
53, 1049.73, 67495.41, 3746.76, 28462.44, -20098.35, -4000.69, 9419.07, -54390.20, -7697.25, 37543.06, 7206.27, -10370.96, 0.00, 0.00, 0.00, 0.00, 0.00, 0.00, 0.00
54, 1049.73, 67495.41, 3746.76, 28462.44, -20098.35, -4000.69, 9419.07, -54390.20, -7715.69, 37499.97, 7164.05, -10343.11, 0.00, 0.00, 0.00, 0.00, 0.00, 0.00, 0.00
55, 1038.06, 67483.83, 3736.36, 28448.52, -20109.28, -4013.08, 9407.00, -54401.89, -7715.69, 37499.97, 7164.05, -10343.11, 0.00, 0.00, 0.00, 0.00, 0.00, 0.00, 0.00
56, 1038.06, 67483.83, 3736.36, 28448.52, -20109.28, -4013.08, 9407.00, -54401.89, -7700.20, 37541.41, 7204.19, -10372.86, 0.00, 0.00, 0.00, 0.00, 0.00, 0.00, 0.00
57, 1055.38, 67502.38, 3752.90, 28466.09, -20094.96, -3998.86, 9422.76, -54389.64, -7700.20, 37541.41, 7204.19, -10372.86, 0.00, 0.00, 0.00, 0.00, 0.00, 0.00, 0.00
58, 1055.38, 67502.38, 3752.90, 28466.09, -20094.96, -3998.86, 9422.76, -54389.64, -7715.11, 37498.38, 7171.49, -10354.40, 0.00, 0.00, 0.00, 0.00, 0.00, 0.00, 0.00
59, 1037.75, 67485.10, 3736.85, 28446.15, -20111.27, -4015.65, 9403.87, -54405.84, -7715.11, 37498.38, 7171.49, -10354.40, 0.00, 0.00, 0.00, 0.00, 0.00, 0.00, 0.00
60, 1037.75, 67485.10, 3736.85, 28446.15, -20111.27, -4015.65, 9403.87, -54405.84, -7700.47, 37536.63, 7200.86, -10369.13, 0.00, 0.00, 0.00, 0.00, 0.15, 0.28, 0.97
61, 1052.57, 67504.66, 3753.64, 28467.20, -20094.66, -3997.45, 9426.74, -54384.47, -7700.47, 37536.63, 7200.86, -10369.13, 0.00, 0.00, 0.00, 0.00, 0.00, 0.00, 0.00
62, 1052.57, 67504.66, 3753.64, 28467.20, -20094.66, -3997.45, 9426.74, -54384.47, -7710.75, 37507.05, 7173.48, -10346.80, 0.00, 0.00, 0.00, 0.00, 0.00, 0.00, 0.00
63, 1033.32, 67476.83, 3729.90, 28440.89, -20112.84, -4019.83, 9400.54, -54404.64, -7710.75, 37507.05, 7173.48, -10346.80, 0.00, 0.00, 0.00, 0.00, 0.00, 0.00, 0.00
64, 1033.32, 67476.83, 3729.90, 28440.89, -20112.84, -4019.83, 9400.54, -54404.64, -7705.32, 37528.96, 7187.83, -10374.09, 0.00, 0.00, 0.00, 0.00, 0.00, 0.00, 0.00
65, 1052.36, 67499.83, 3748.19, 28466.13, -20099.13, -3998.64, 9425.24, -54385.91, -7705.32, 37528.96, 7187.83, -10374.09, 0.00, 0.00, 0.00, 0.00, 0.00, 0.00, 0.00
66, 1052.36, 67499.83, 3748.19, 28466.13, -20099.13, -3998.64, 9425.24, -54385.91, -7716.54, 37505.64, 7165.66, -10359.47, 0.00, 0.00, 0.00, 0.00, 0.00, 0.00, 0.00
67, 1022.57, 67469.05, 3722.88, 28436.18, -20120.79, -4023.40, 9395.06, -54411.52, -7716.54, 37505.64, 7165.66, -10359.47, 0.00, 0.00, 0.00, 0.00, 0.00, 0.00, 0.00
68, 1022.57, 67469.05, 3722.88, 28436.18, -20120.79, -4023.40, 9395.06, -54411.52, -7707.89, 37522.07, 7177.03, -10371.14, 0.00, 0.00, 0.00, 0.00, 0.00, 0.00, 0.00
69, 1045.32, 67495.88, 3745.12, 28463.13, -20101.15, -3999.87, 9424.75, -54386.24, -7707.89, 37522.07, 7177.03, -10371.14, 0.00, 0.00, 0.00, 0.00, 0.00, 0.00, 0.00
70, 1045.32, 67495.88, 3745.12, 28463.13, -20101.15, -3999.87, 9424.75, -54386.24, -7714.53, 37511.48, 7170.73, -10363.83, 0.00, 0.00, 0.00, 0.00, 0.14, 0.28, 0.97
71, 1026.28, 67465.41, 3719.22, 28432.29, -20120.08, -4024.79, 9393.63, -54411.92, -7714.53, 37511.48, 7170.73, -10363.83, 0.00, 0.00, 0.00, 0.00, 0.00, 0.00, 0.00
72, 1026.28, 67465.41, 3719.22, 28432.29, -20120.08, -4024.79, 9393.63, -54411.92, -7710.46, 37515.21, 7170.37, -10359.59, 0.00, 0.00, 0.00, 0.00, 0.00, 0.00, 0.00
73, 1042.66, 67495.29, 3744.68, 28463.56, -20101.21, -3999.44, 9427.88, -54384.65, -7710.46, 37515.21, 7170.37, -10359.59, 0.00, 0.00, 0.00, 0.00, 0.00, 0.00, 0.00
74, 1042.66, 67495.29, 3744.68, 28463.56, -20101.21, -3999.44, 9427.88, -54384.65, -7715.38, 37515.37, 7174.46, -10366.18, 0.00, 0.00, 0.00, 0.00, 0.00, 0.00, 0.00
75, 1020.54, 67464.91, 3720.92, 28434.35, -20121.62, -4023.45, 9395.91, -54411.57, -7715.38, 37515.37, 7174.46, -10366.18, 0.00, 0.00, 0.00, 0.00, 0.00, 0.00, 0.00
76, 1020.54, 67464.91, 3720.92, 28434.35, -20121.62, -4023.45, 9395.91, -54411.57, -7712.45, 37510.88, 7164.09, -10361.04, 0.00, 0.00, 0.00, 0.00, 0.00, 0.00, 0.00
77, 1048.81, 67496.45, 3745.57, 28465.57, -20102.85, -3998.28, 9427.21, -54385.55, -7712.45, 37510.88, 7164.09, -10361.04, 0.00, 0.00, 0.00, 0.00, 0.00, 0.00, 0.00
78, 1048.81, 67496.45, 3745.57, 28465.57, -20102.85, -3998.28, 9427.21, -54385.55, -7714.21, 37521.85, 7183.63, -10372.97, 0.00, 0.00, 0.00, 0.00, 0.00, 0.00, 0.00
79, 1031.11, 67471.94, 3726.15, 28437.99, -20116.61, -4020.99, 9399.74, -54408.57, -7714.21, 37521.85, 7183.63, -10372.97, 0.00, 0.00, 0.00, 0.00, 0.00, 0.00, 0.00
80, 1031.11, 67471.94, 3726.15, 28437.99, -20116.61, -4020.99, 9399.74, -54408.57, -7713.01, 37507.61, 7166.39, -10346.47, 0.00, 0.00, 0.00, 0.00, 0.15, 0.28, 0.97
81, 1045.21, 67499.98, 3749.01, 28465.55, -20099.89, -3996.87, 9430.98, -54382.82, -7713.01, 37507.61, 7166.39, -10346.47, 0.00, 0.00, 0.00, 0.00, 0.00, 0.00, 0.00
82, 1045.21, 67499.98, 3749.01, 28465.55, -20099.89, -3996.87, 9430.98, -54382.82, -7707.44, 37528.82, 7189.82, -10369.15, 0.00, 0.00, 0.00, 0.00, 0.00, 0.00, 0.00
83, 1035.13, 67477.77, 3731.60, 28444.07, -20112.39, -4015.94, 9405.03, -54403.45, -7707.44, 37528.82, 7189.82, -10369.15, 0.00, 0.00, 0.00, 0.00, 0.00, 0.00, 0.00
84, 1035.13, 67477.77, 3731.60, 28444.07, -20112.39, -4015.94, 9405.03, -54403.45, -7708.42, 37506.74, 7164.78, -10347.02, 0.00, 0.00, 0.00, 0.00, 0.00, 0.00, 0.00
85, 1045.64, 67495.72, 3744.77, 28461.77, -20102.49, -4000.11, 9427.81, -54384.23, -7708.42, 37506.74, 7164.78, -10347.02, 0.00, 0.00, 0.00, 0.00, 0.00, 0.00, 0.00
86, 1045.64, 67495.72, 3744.77, 28461.77, -20102.49, -4000.11, 9427.81, -54384.23, -7704.56, 37538.08, 7193.95, -10372.26, 0.00, 0.00, 0.00, 0.00, 0.00, 0.00, 0.00
87, 1031.71, 67473.77, 3729.16, 28444.58, -20113.44, -4015.38, 9405.43, -54403.21, -7704.56, 37538.08, 7193.95, -10372.26, 0.00, 0.00, 0.00, 0.00, 0.00, 0.00, 0.00
88, 1031.71, 67473.77, 3729.16, 28444.58, -20113.44, -4015.38, 9405.43, -54403.21, -7713.56, 37496.50, 7155.69, -10349.64, 0.00, 0.00, 0.00, 0.00, 0.00, 0.00, 0.00
89, 1035.56, 67483.52, 3735.92, 28457.19, -20109.53, -4006.10, 9420.90, -54392.50, -7713.56, 37496.50, 7155.69, -10349.64, 0.00, 0.00, 0.00, 0.00, 0.15, 0.28, 0.97
90, 1035.56, 67483.52, 3735.92, 28457.19, -20109.53, -4006.10, 9420.90, -54392.50, -7705.58, 37536.07, 7191.56, -10381.51, 0.00, 0.00, 0.00, 0.00, 0.00, 0.00, 0.00
91, 1034.53, 67475.27, 3731.36, 28447.22, -20112.37, -4014.57, 9409.88, -54401.71, -7705.58, 37536.07, 7191.56, -10381.51, 0.00, 0.00, 0.00, 0.00, 0.00, 0.00, 0.00
92, 1034.53, 67475.27, 3731.36, 28447.22, -20112.37, -4014.57, 9409.88, -54401.71, -7716.27, 37496.97, 7157.41, -10341.50, 0.00, 0.00, 0.00, 0.00, 0.00, 0.00, 0.00
93, 1036.54, 67481.99, 3735.02, 28452.79, -20112.63, -4009.59, 9417.24, -54396.21, -7716.27, 37496.97, 7157.41, -10341.50, 0.00, 0.00, 0.00, 0.00, 0.00, 0.00, 0.00
94, 1036.54, 67481.99, 3735.02, 28452.79, -20112.63, -4009.59, 9417.24, -54396.21, -7704.58, 37537.99, 7193.48, -10376.69, 0.00, 0.00, 0.00, 0.00, 0.00, 0.00, 0.00
95, 1040.72, 67483.55, 3737.77, 28451.71, -20110.18, -4009.61, 9415.34, -54395.43, -7704.58, 37537.99, 7193.48, -10376.69, 0.00, 0.00, 0.00, 0.00, 0.00, 0.00, 0.00
96, 1040.72, 67483.55, 3737.77, 28451.71, -20110.18, -4009.61, 9415.34, -54395.43, -7717.90, 37497.17, 7158.01, -10341.17, 0.00, 0.00, 0.00, 0.00, 0.00, 0.00, 0.00
97, 1032.00, 67484.48, 3738.08, 28451.71, -20114.09, -4010.17, 9416.28, -54396.23, -7717.90, 37497.17, 7158.01, -10341.17, 0.00, 0.00, 0.00, 0.00, 0.00, 0.00, 0.00
98, 1032.00, 67484.48, 3738.08, 28451.71, -20114.09, -4010.17, 9416.28, -54396.23, -7704.44, 37543.26, 7193.04, -10375.66, 0.00, 0.00, 0.00, 0.00, 0.00, 0.00, 0.00
99, 1045.99, 67486.91, 3741.17, 28454.08, -20110.82, -4007.22, 9417.66, -54396.39, -7704.44, 37543.26, 7193.04, -10375.66, 0.00, 0.00, 0.00, 0.00, 0.14, 0.28, 0.97
100, 1045.99, 67486.91, 3741.17, 28454.08, -20110.82, -4007.22, 9417.66, -54396.39, -7718.86, 37496.23, 7154.55, -10341.44, 0.00, 0.00, 0.00, 0.00, 0.00, 0.00, 0.00
101, 1043.25, 67485.21, 3739.54, 28449.68, -20114.40, -4011.60, 9414.55, -54399.72, -7718.86, 37496.23, 7154.55, -10341.44, 0.00, 0.00, 0.00, 0.00, 0.00, 0.00, 0.00
102, 1043.25, 67485.21, 3739.54, 28449.68, -20114.40, -4011.60, 9414.55, -54399.72, -7700.60, 37541.39, 7199.54, -10371.68, 0.00, 0.00, 0.00, 0.00, 0.00, 0.00, 0.00
103, 1046.69, 67496.92, 3749.08, 28458.58, -20103.02, -4001.12, 9427.99, -54386.31, -7700.60, 37541.39, 7199.54, -10371.68, 0.00, 0.00, 0.00, 0.00, 0.00, 0.00, 0.00
104, 1046.69, 67496.92, 3749.08, 28458.58, -20103.02, -4001.12, 9427.99, -54386.31, -7713.23, 37502.83, 7161.10, -10341.68, 0.00, 0.00, 0.00, 0.00, 0.00, 0.00, 0.00
105, 1036.81, 67481.41, 3737.17, 28446.57, -20115.14, -4013.57, 9413.95, -54400.86, -7713.23, 37502.83, 7161.10, -10341.68, 0.00, 0.00, 0.00, 0.00, 0.00, 0.00, 0.00
106, 1036.81, 67481.41, 3737.17, 28446.57, -20115.14, -4013.57, 9413.95, -54400.86, -7702.08, 37539.89, 7195.38, -10369.58, 0.00, 0.00, 0.00, 0.00, 0.00, 0.00, 0.00
107, 1059.41, 67503.45, 3755.45, 28468.30, -20098.62, -3996.45, 9433.71, -54385.12, -7702.08, 37539.89, 7195.38, -10369.58, 0.00, 0.00, 0.00, 0.00, 0.00, 0.00, 0.00
108, 1059.41, 67503.45, 3755.45, 28468.30, -20098.62, -3996.45, 9433.71, -54385.12, -7716.94, 37504.64, 7166.71, -10345.91, 0.00, 0.00, 0.00, 0.00, 0.00, 0.00, 0.00
109, 1038.31, 67481.05, 3736.09, 28442.62, -20117.55, -4016.74, 9409.97, -54406.63, -7716.94, 37504.64, 7166.71, -10345.91, 0.00, 0.00, 0.00, 0.00, 0.14, 0.28, 0.97
110, 1038.31, 67481.05, 3736.09, 28442.62, -20117.55, -4016.74, 9409.97, -54406.63, -7705.45, 37534.52, 7193.44, -10366.40, 0.00, 0.00, 0.00, 0.00, 0.00, 0.00, 0.00
111, 1052.16, 67504.37, 3756.39, 28468.95, -20098.91, -3996.09, 9434.96, -54384.83, -7705.45, 37534.52, 7193.44, -10366.40, 0.00, 0.00, 0.00, 0.00, 0.00, 0.00, 0.00
112, 1052.16, 67504.37, 3756.39, 28468.95, -20098.91, -3996.09, 9434.96, -54384.83, -7715.29, 37508.15, 7172.41, -10342.51, 0.00, 0.00, 0.00, 0.00, 0.00, 0.00, 0.00
113, 1038.46, 67477.45, 3734.37, 28442.08, -20119.05, -4017.97, 9409.21, -54406.96, -7715.29, 37508.15, 7172.41, -10342.51, 0.00, 0.00, 0.00, 0.00, 0.00, 0.00, 0.00
114, 1038.46, 67477.45, 3734.37, 28442.08, -20119.05, -4017.97, 9409.21, -54406.96, -7704.24, 37531.89, 7188.37, -10361.80, 0.00, 0.00, 0.00, 0.00, 0.00, 0.00, 0.00
115, 1055.09, 67502.40, 3753.08, 28466.13, -20100.12, -3996.72, 9436.46, -54383.36, -7704.24, 37531.89, 7188.37, -10361.80, 0.00, 0.00, 0.00, 0.00, 0.00, 0.00, 0.00
116, 1055.09, 67502.40, 3753.08, 28466.13, -20100.12, -3996.72, 9436.46, -54383.36, -7708.92, 37520.87, 7178.37, -10347.54, 0.00, 0.00, 0.00, 0.00, 0.00, 0.00, 0.00
117, 1034.53, 67478.73, 3733.39, 28439.80, -20117.82, -4018.78, 9409.46, -54408.08, -7708.92, 37520.87, 7178.37, -10347.54, 0.00, 0.00, 0.00, 0.00, 0.00, 0.00, 0.00
118, 1034.53, 67478.73, 3733.39, 28439.80, -20117.82, -4018.78, 9409.46, -54408.08, -7703.13, 37527.44, 7186.35, -10358.40, 0.00, 0.00, 0.00, 0.00, 0.00, 0.00, 0.00
119, 1060.90, 67512.48, 3762.29, 28473.33, -20095.38, -3991.46, 9443.03, -54381.28, -7703.13, 37527.44, 7186.35, -10358.40, 0.00, 0.00, 0.00, 0.00, 0.14, 0.28, 0.97
120, 1060.90, 67512.48, 3762.29, 28473.33, -20095.38, -3991.46, 9443.03, -54381.28, -7708.22, 37523.37, 7190.53, -10355.32, 0.00, 0.00, 0.00, 0.00, 0.00, 0.00, 0.00
121, 1044.45, 67482.04, 3735.89, 28441.99, -20117.84, -4017.32, 9409.77, -54408.70, -7708.22, 37523.37, 7190.53, -10355.32, 0.00, 0.00, 0.00, 0.00, 0.00, 0.00, 0.00
122, 1044.45, 67482.04, 3735.89, 28441.99, -20117.84, -4017.32, 9409.77, -54408.70, -7707.95, 37520.89, 7183.05, -10354.89, 0.00, 0.00, 0.00, 0.00, 0.00, 0.00, 0.00
123, 1059.63, 67511.81, 3759.54, 28471.12, -20097.66, -3993.36, 9441.85, -54381.86, -7707.95, 37520.89, 7183.05, -10354.89, 0.00, 0.00, 0.00, 0.00, 0.00, 0.00, 0.00
124, 1059.63, 67511.81, 3759.54, 28471.12, -20097.66, -3993.36, 9441.85, -54381.86, -7707.35, 37529.43, 7190.29, -10351.81, 0.00, 0.00, 0.00, 0.00, 0.00, 0.00, 0.00
125, 1035.60, 67480.38, 3735.51, 28441.25, -20117.29, -4017.46, 9409.82, -54407.77, -7707.35, 37529.43, 7190.29, -10351.81, 0.00, 0.00, 0.00, 0.00, 0.00, 0.00, 0.00
126, 1035.60, 67480.38, 3735.51, 28441.25, -20117.29, -4017.46, 9409.82, -54407.77, -7710.81, 37516.06, 7175.11, -10342.82, 0.00, 0.00, 0.00, 0.00, 0.00, 0.00, 0.00
127, 1062.15, 67508.01, 3755.70, 28468.21, -20100.81, -3994.08, 9441.80, -54381.86, -7710.81, 37516.06, 7175.11, -10342.82, 0.00, 0.00, 0.00, 0.00, 0.00, 0.00, 0.00
128, 1062.15, 67508.01, 3755.70, 28468.21, -20100.81, -3994.08, 9441.80, -54381.86, -7705.25, 37533.67, 7198.18, -10362.33, 0.00, 0.00, 0.00, 0.00, 0.15, 0.28, 0.96
129, 1044.16, 67486.53, 3739.96, 28445.63, -20113.93, -4014.98, 9415.27, -54403.68, -7705.25, 37533.67, 7198.18, -10362.33, 0.00, 0.00, 0.00, 0.00, 0.00, 0.00, 0.00
130, 1044.16, 67486.53, 3739.96, 28445.63, -20113.93, -4014.98, 9415.27, -54403.68, -7708.11, 37513.67, 7169.57, -10339.40, 0.00, 0.00, 0.00, 0.00, 0.00, 0.00, 0.00
131, 1052.10, 67503.96, 3754.20, 28468.28, -20105.73, -3995.89, 9438.36, -54385.26, -7708.11, 37513.67, 7169.57, -10339.40, 0.00, 0.00, 0.00, 0.00, 0.00, 0.00, 0.00
132, 1052.10, 67503.96, 3754.20, 28468.28, -20105.73, -3995.89, 9438.36, -54385.26, -7703.91, 37540.07, 7196.43, -10359.09, 0.00, 0.00, 0.00, 0.00, 0.00, 0.00, 0.00
133, 1038.89, 67481.79, 3737.14, 28445.75, -20112.93, -4013.17, 9417.50, -54402.22, -7703.91, 37540.07, 7196.43, -10359.09, 0.00, 0.00, 0.00, 0.00, 0.00, 0.00, 0.00
134, 1038.89, 67481.79, 3737.14, 28445.75, -20112.93, -4013.17, 9417.50, -54402.22, -7708.80, 37506.81, 7167.76, -10338.78, 0.00, 0.00, 0.00, 0.00, 0.00, 0.00, 0.00
135, 1050.89, 67497.21, 3747.76, 28463.07, -20106.29, -3998.21, 9437.33, -54384.88, -7708.80, 37506.81, 7167.76, -10338.78, 0.00, 0.00, 0.00, 0.00, 0.00, 0.00, 0.00
136, 1050.89, 67497.21, 3747.76, 28463.07, -20106.29, -3998.21, 9437.33, -54384.88, -7702.92, 37545.81, 7195.56, -10363.18, 0.00, 0.00, 0.00, 0.00, 0.00, 0.00, 0.00
137, 1038.33, 67479.13, 3735.42, 28446.68, -20113.87, -4008.27, 9422.06, -54394.71, -7702.92, 37545.81, 7195.56, -10363.18, 0.00, 0.00, 0.00, 0.00, 0.00, 0.00, 0.00
138, 1038.33, 67479.13, 3735.42, 28446.68, -20113.87, -4008.27, 9422.06, -54394.71, -7706.79, 37513.71, 7159.00, -10316.76, 0.00, 0.00, 0.00, 0.00, 0.15, 0.28, 0.96
139, 1042.28, 67494.06, 3745.77, 28458.91, -20106.47, -3998.15, 9438.63, -54382.62, -7706.79, 37513.71, 7159.00, -10316.76, 0.00, 0.00, 0.00, 0.00, 0.00, 0.00, 0.00
140, 1042.28, 67494.06, 3745.77, 28458.91, -20106.47, -3998.15, 9438.63, -54382.62, -7700.00, 37550.32, 7194.67, -10358.49, 0.00, 0.00, 0.00, 0.00, 0.00, 0.00, 0.00
141, 1041.26, 67482.80, 3736.00, 28446.42, -20114.51, -4009.46, 9422.94, -54396.39, -7700.00, 37550.32, 7194.67, -10358.49, 0.00, 0.00, 0.00, 0.00, 0.00, 0.00, 0.00
142, 1041.26, 67482.80, 3736.00, 28446.42, -20114.51, -4009.46, 9422.94, -54396.39, -7716.94, 37497.69, 7158.79, -10333.12, 0.00, 0.00, 0.00, 0.00, 0.00, 0.00, 0.00
143, 1044.23, 67491.00, 3743.49, 28451.09, -20114.22, -4005.39, 9429.60, -54394.60, -7716.94, 37497.69, 7158.79, -10333.12, 0.00, 0.00, 0.00, 0.00, 0.00, 0.00, 0.00
144, 1044.23, 67491.00, 3743.49, 28451.09, -20114.22, -4005.39, 9429.60, -54394.60, -7702.34, 37544.34, 7199.97, -10366.81, 0.00, 0.00, 0.00, 0.00, 0.00, 0.00, 0.00
145, 1047.07, 67492.63, 3745.97, 28451.98, -20111.00, -4004.78, 9428.03, -54394.53, -7702.34, 37544.34, 7199.97, -10366.81, 0.00, 0.00, 0.00, 0.00, 0.00, 0.00, 0.00
146, 1047.07, 67492.63, 3745.97, 28451.98, -20111.00, -4004.78, 9428.03, -54394.53, -7714.97, 37498.92, 7158.46, -10338.37, 0.00, 0.00, 0.00, 0.00, 0.00, 0.00, 0.00
147, 1038.91, 67489.34, 3741.86, 28448.63, -20116.41, -4008.63, 9425.75, -54399.79, -7714.97, 37498.92, 7158.46, -10338.37, 0.00, 0.00, 0.00, 0.00, 0.00, 0.00, 0.00
148, 1038.91, 67489.34, 3741.86, 28448.63, -20116.41, -4008.63, 9425.75, -54399.79, -7701.41, 37543.33, 7197.31, -10357.93, 0.00, 0.00, 0.00, 0.00, 0.15, 0.28, 0.97
149, 1051.38, 67496.08, 3748.45, 28458.44, -20108.41, -4000.05, 9434.45, -54390.26, -7701.41, 37543.33, 7197.31, -10357.93, 0.00, 0.00, 0.00, 0.00, 0.00, 0.00, 0.00
150, 1051.38, 67496.08, 3748.45, 28458.44, -20108.41, -4000.05, 9434.45, -54390.26, -7715.71, 37501.00, 7155.46, -10332.67, 0.00, 0.00, 0.00, 0.00, 0.00, 0.00, 0.00
151, 1039.62, 67480.48, 3735.27, 28444.70, -20121.62, -4013.32, 9420.86, -54402.80, -7715.71, 37501.00, 7155.46, -10332.67, 0.00, 0.00, 0.00, 0.00, 0.00, 0.00, 0.00
152, 1039.62, 67480.48, 3735.27, 28444.70, -20121.62, -4013.32, 9420.86, -54402.80, -7703.60, 37540.51, 7193.84, -10367.90, 0.00, 0.00, 0.00, 0.00, 0.00, 0.00, 0.00
153, 1047.34, 67494.80, 3749.24, 28459.87, -20108.03, -3999.29, 9437.49, -54388.59, -7703.60, 37540.51, 7193.84, -10367.90, 0.00, 0.00, 0.00, 0.00, 0.00, 0.00, 0.00
154, 1047.34, 67494.80, 3749.24, 28459.87, -20108.03, -3999.29, 9437.49, -54388.59, -7714.41, 37505.51, 7161.74, -10334.22, 0.00, 0.00, 0.00, 0.00, 0.00, 0.00, 0.00
155, 1030.84, 67476.65, 3734.66, 28440.85, -20122.78, -4015.42, 9419.25, -54405.62, -7714.41, 37505.51, 7161.74, -10334.22, 0.00, 0.00, 0.00, 0.00, 0.00, 0.00, 0.00
156, 1030.84, 67476.65, 3734.66, 28440.85, -20122.78, -4015.42, 9419.25, -54405.62, -7700.94, 37540.25, 7195.34, -10353.73, 0.00, 0.00, 0.00, 0.00, 0.00, 0.00, 0.00
157, 1054.78, 67499.74, 3752.28, 28463.63, -20106.13, -3996.74, 9442.32, -54384.74, -7700.94, 37540.25, 7195.34, -10353.73, 0.00, 0.00, 0.00, 0.00, 0.00, 0.00, 0.00
158, 1054.78, 67499.74, 3752.28, 28463.63, -20106.13, -3996.74, 9442.32, -54384.74, -7710.66, 37511.37, 7167.78, -10335.67, 0.00, 0.00, 0.00, 0.00, 0.14, 0.28, 0.97
159, 1035.85, 67477.39, 3734.35, 28441.48, -20121.11, -4014.84, 9420.28, -54404.82, -7710.66, 37511.37, 7167.78, -10335.67, 0.00, 0.00, 0.00, 0.00, 0.00, 0.00, 0.00
160, 1035.85, 67477.39, 3734.35, 28441.48, -20121.11, -4014.84, 9420.28, -54404.82, -7701.76, 37536.89, 7188.43, -10358.74, 0.00, 0.00, 0.00, 0.00, 0.00, 0.00, 0.00
161, 1049.32, 67499.63, 3752.39, 28465.08, -20104.59, -3994.30, 9445.94, -54382.75, -7701.76, 37536.89, 7188.43, -10358.74, 0.00, 0.00, 0.00, 0.00, 0.00, 0.00, 0.00
162, 1049.32, 67499.63, 3752.39, 28465.08, -20104.59, -3994.30, 9445.94, -54382.75, -7712.71, 37515.21, 7170.37, -10335.51, 0.00, 0.00, 0.00, 0.00, 0.00, 0.00, 0.00
163, 1036.18, 67472.47, 3731.65, 28440.02, -20122.72, -4015.92, 9419.25, -54405.62, -7712.71, 37515.21, 7170.37, -10335.51, 0.00, 0.00, 0.00, 0.00, 0.00, 0.00, 0.00
164, 1036.18, 67472.47, 3731.65, 28440.02, -20122.72, -4015.92, 9419.25, -54405.62, -7702.92, 37531.15, 7184.45, -10344.90, 0.00, 0.00, 0.00, 0.00, 0.00, 0.00, 0.00
165, 1052.63, 67501.41, 3756.12, 28466.69, -20099.00, -3991.13, 9451.30, -54377.75, -7702.92, 37531.15, 7184.45, -10344.90, 0.00, 0.00, 0.00, 0.00, 0.00, 0.00, 0.00
166, 1052.63, 67501.41, 3756.12, 28466.69, -20099.00, -3991.13, 9451.30, -54377.75, -7704.18, 37526.66, 7176.59, -10336.65, 0.00, 0.00, 0.00, 0.00, 0.00, 0.00, 0.00
167, 1024.43, 67467.58, 3727.33, 28434.44, -20123.61, -4017.55, 9418.64, -54406.51, -7704.18, 37526.66, 7176.59, -10336.65, 0.00, 0.00, 0.00, 0.00, 0.14, 0.28, 0.97
168, 1024.43, 67467.58, 3727.33, 28434.44, -20123.61, -4017.55, 9418.64, -54406.51, -7700.69, 37527.88, 7178.17, -10340.41, 0.00, 0.00, 0.00, 0.00, 0.00, 0.00, 0.00
169, 1045.41, 67494.02, 3747.43, 28463.83, -20105.33, -3993.25, 9450.52, -54377.79, -7700.69, 37527.88, 7178.17, -10340.41, 0.00, 0.00, 0.00, 0.00, 0.00, 0.00, 0.00
170, 1045.41, 67494.02, 3747.43, 28463.83, -20105.33, -3993.25, 9450.52, -54377.79, -7704.11, 37531.13, 7174.22, -10345.66, 0.00, 0.00, 0.00, 0.00, 0.00, 0.00, 0.00
171, 1027.04, 67466.59, 3725.30, 28432.40, -20124.13, -4018.06, 9419.63, -54405.15, -7704.11, 37531.13, 7174.22, -10345.66, 0.00, 0.00, 0.00, 0.00, 0.00, 0.00, 0.00
172, 1027.04, 67466.59, 3725.30, 28432.40, -20124.13, -4018.06, 9419.63, -54405.15, -7705.96, 37519.79, 7165.28, -10333.34, 0.00, 0.00, 0.00, 0.00, 0.00, 0.00, 0.00
173, 1041.97, 67492.86, 3744.03, 28461.93, -20109.95, -3995.93, 9447.55, -54383.43, -7705.96, 37519.79, 7165.28, -10333.34, 0.00, 0.00, 0.00, 0.00, 0.00, 0.00, 0.00
174, 1041.97, 67492.86, 3744.03, 28461.93, -20109.95, -3995.93, 9447.55, -54383.43, -7708.96, 37531.55, 7177.97, -10347.07, 0.00, 0.00, 0.00, 0.00, 0.00, 0.00, 0.00
175, 1026.24, 67462.99, 3721.83, 28434.26, -20125.80, -4017.64, 9418.31, -54407.23, -7708.96, 37531.55, 7177.97, -10347.07, 0.00, 0.00, 0.00, 0.00, 0.00, 0.00, 0.00
176, 1026.24, 67462.99, 3721.83, 28434.26, -20125.80, -4017.64, 9418.31, -54407.23, -7709.63, 37514.94, 7155.31, -10335.29, 0.00, 0.00, 0.00, 0.00, 0.00, 0.00, 0.00
177, 1044.88, 67489.37, 3743.85, 28461.77, -20112.39, -3994.84, 9446.76, -54384.07, -7709.63, 37514.94, 7155.31, -10335.29, 0.00, 0.00, 0.00, 0.00, 0.14, 0.28, 0.97
178, 1044.88, 67489.37, 3743.85, 28461.77, -20112.39, -3994.84, 9446.76, -54384.07, -7704.62, 37538.34, 7180.90, -10353.86, 0.00, 0.00, 0.00, 0.00, 0.00, 0.00, 0.00
179, 1025.99, 67465.52, 3723.51, 28434.44, -20126.16, -4015.92, 9420.50, -54404.34, -7704.62, 37538.34, 7180.90, -10353.86, 0.00, 0.00, 0.00, 0.00, 0.00, 0.00, 0.00
180, 1025.99, 67465.52, 3723.51, 28434.44, -20126.16, -4015.92, 9420.50, -54404.34, -7709.92, 37509.94, 7151.95, -10337.82, 0.00, 0.00, 0.00, 0.00, 0.00, 0.00, 0.00
181, 1036.16, 67487.73, 3743.83, 28460.88, -20110.49, -3995.87, 9446.34, -54383.51, -7709.92, 37509.94, 7151.95, -10337.82, 0.00, 0.00, 0.00, 0.00, 0.00, 0.00, 0.00
182, 1036.16, 67487.73, 3743.83, 28460.88, -20110.49, -3995.87, 9446.34, -54383.51, -7697.76, 37548.25, 7187.90, -10343.14, 0.00, 0.00, 0.00, 0.00, 0.00, 0.00, 0.00
183, 1036.76, 67473.63, 3733.10, 28445.46, -20114.94, -4008.41, 9430.22, -54396.28, -7697.76, 37548.25, 7187.90, -10343.14, 0.00, 0.00, 0.00, 0.00, 0.00, 0.00, 0.00
184, 1036.76, 67473.63, 3733.10, 28445.46, -20114.94, -4008.41, 9430.22, -54396.28, -7707.19, 37513.89, 7155.06, -10321.79, 0.00, 0.00, 0.00, 0.00, 0.00, 0.00, 0.00
185, 1039.49, 67486.13, 3743.49, 28462.08, -20113.17, -3996.51, 9445.18, -54386.38, -7707.19, 37513.89, 7155.06, -10321.79, 0.00, 0.00, 0.00, 0.00, 0.00, 0.00, 0.00
186, 1039.49, 67486.13, 3743.49, 28462.08, -20113.17, -3996.51, 9445.18, -54386.38, -7697.78, 37549.90, 7188.59, -10353.35, 0.00, 0.00, 0.00, 0.00, 0.00, 0.00, 0.00
187, 1037.03, 67480.90, 3738.69, 28451.09, -20111.05, -4002.10, 9437.24, -54390.04, -7697.78, 37549.90, 7188.59, -10353.35, 0.00, 0.00, 0.00, 0.00, 0.14, 0.28, 0.96
188, 1037.03, 67480.90, 3738.69, 28451.09, -20111.05, -4002.10, 9437.24, -54390.04, -7697.47, 37517.80, 7158.95, -10315.26, 0.00, 0.00, 0.00, 0.00, 0.00, 0.00, 0.00
189, 1042.22, 67486.24, 3741.61, 28460.70, -20111.25, -3994.28, 9447.84, -54384.47, -7697.47, 37517.80, 7158.95, -10315.26, 0.00, 0.00, 0.00, 0.00, 0.00, 0.00, 0.00
190, 1042.22, 67486.24, 3741.61, 28460.70, -20111.25, -3994.28, 9447.84, -54384.47, -7693.83, 37552.65, 7194.06, -10356.81, 0.00, 0.00, 0.00, 0.00, 0.00, 0.00, 0.00
191, 1038.48, 67482.48, 3739.78, 28454.02, -20112.90, -4001.03, 9439.03, -54390.96, -7693.83, 37552.65, 7194.06, -10356.81, 0.00, 0.00, 0.00, 0.00, 0.00, 0.00, 0.00
192, 1038.48, 67482.48, 3739.78, 28454.02, -20112.90, -4001.03, 9439.03, -54390.96, -7705.29, 37512.37, 7157.59, -10317.70, 0.00, 0.00, 0.00, 0.00, 0.00, 0.00, 0.00
193, 1035.02, 67488.03, 3741.91, 28456.16, -20111.50, -3999.17, 9444.91, -54386.33, -7705.29, 37512.37, 7157.59, -10317.70, 0.00, 0.00, 0.00, 0.00, 0.00, 0.00, 0.00
194, 1035.02, 67488.03, 3741.91, 28456.16, -20111.50, -3999.17, 9444.91, -54386.33, -7688.51, 37559.71, 7202.80, -10348.61, 0.00, 0.00, 0.00, 0.00, 0.00, 0.00, 0.00
195, 1047.58, 67492.61, 3747.09, 28460.43, -20103.67, -3994.44, 9448.08, -54382.30, -7688.51, 37559.71, 7202.80, -10348.61, 0.00, 0.00, 0.00, 0.00, 0.00, 0.00, 0.00
196, 1047.58, 67492.61, 3747.09, 28460.43, -20103.67, -3994.44, 9448.08, -54382.30, -7700.65, 37514.92, 7165.03, -10315.75, 0.00, 0.00, 0.00, 0.00, 0.00, 0.00, 0.00
197, 1035.53, 67486.44, 3741.97, 28452.92, -20112.57, -4000.47, 9442.23, -54387.61, -7700.65, 37514.92, 7165.03, -10315.75, 0.00, 0.00, 0.00, 0.00, 0.14, 0.28, 0.97
198, 1035.53, 67486.44, 3741.97, 28452.92, -20112.57, -4000.47, 9442.23, -54387.61, -7686.90, 37558.68, 7204.70, -10344.86, 0.00, 0.00, 0.00, 0.00, 0.00, 0.00, 0.00
199, 1044.23, 67499.47, 3752.23, 28465.55, -20098.58, -3988.00, 9455.66, -54373.72, -7686.90, 37558.68, 7204.70, -10344.86, 0.00, 0.00, 0.00, 0.00, 0.00, 0.00, 0.00
200, 1044.23, 67499.47, 3752.23, 28465.55, -20098.58, -3988.00, 9455.66, -54373.72, -7700.71, 37518.30, 7165.57, -10317.18, 0.00, 0.00, 0.00, 0.00, 0.00, 0.00, 0.00
201, 1035.82, 67477.70, 3734.17, 28448.07, -20114.00, -4001.95, 9439.32, -54390.93, -7700.71, 37518.30, 7165.57, -10317.18, 0.00, 0.00, 0.00, 0.00, 0.00, 0.00, 0.00
202, 1035.82, 67477.70, 3734.17, 28448.07, -20114.00, -4001.95, 9439.32, -54390.93, -7686.70, 37557.95, 7200.95, -10340.68, 0.00, 0.00, 0.00, 0.00, 0.00, 0.00, 0.00
203, 1048.05, 67495.74, 3751.05, 28465.75, -20101.28, -3988.38, 9455.77, -54374.73, -7686.70, 37557.95, 7200.95, -10340.68, 0.00, 0.00, 0.00, 0.00, 0.00, 0.00, 0.00
204, 1048.05, 67495.74, 3751.05, 28465.75, -20101.28, -3988.38, 9455.77, -54374.73, -7698.37, 37519.93, 7166.89, -10317.52, 0.00, 0.00, 0.00, 0.00, 0.00, 0.00, 0.00
205, 1027.73, 67473.79, 3732.18, 28440.83, -20118.98, -4008.99, 9432.97, -54396.68, -7698.37, 37519.93, 7166.89, -10317.52, 0.00, 0.00, 0.00, 0.00, 0.00, 0.00, 0.00
206, 1027.73, 67473.79, 3732.18, 28440.83, -20118.98, -4008.99, 9432.97, -54396.68, -7689.60, 37547.42, 7190.62, -10350.02, 0.00, 0.00, 0.00, 0.00, 0.00, 0.00, 0.00
207, 1041.97, 67496.68, 3751.32, 28465.86, -20101.48, -3987.44, 9457.67, -54374.30, -7689.60, 37547.42, 7190.62, -10350.02, 0.00, 0.00, 0.00, 0.00, 0.14, 0.28, 0.96
208, 1041.97, 67496.68, 3751.32, 28465.86, -20101.48, -3987.44, 9457.67, -54374.30, -7700.24, 37521.45, 7169.90, -10321.70, 0.00, 0.00, 0.00, 0.00, 0.00, 0.00, 0.00
209, 1029.68, 67471.42, 3728.81, 28439.06, -20119.47, -4009.50, 9430.94, -54401.46, -7700.24, 37521.45, 7169.90, -10321.70, 0.00, 0.00, 0.00, 0.00, 0.00, 0.00, 0.00
210, 1029.68, 67471.42, 3728.81, 28439.06, -20119.47, -4009.50, 9430.94, -54401.46, -7694.10, 37540.09, 7183.27, -10338.46, 0.00, 0.00, 0.00, 0.00, 0.00, 0.00, 0.00
211, 1046.71, 67498.94, 3752.21, 28467.63, -20101.95, -3986.59, 9459.86, -54376.83, -7694.10, 37540.09, 7183.27, -10338.46, 0.00, 0.00, 0.00, 0.00, 0.00, 0.00, 0.00
212, 1046.71, 67498.94, 3752.21, 28467.63, -20101.95, -3986.59, 9459.86, -54376.83, -7700.98, 37526.32, 7170.46, -10329.23, 0.00, 0.00, 0.00, 0.00, 0.00, 0.00, 0.00
213, 1026.37, 67468.27, 3725.61, 28434.64, -20123.39, -4012.54, 9428.41, -54401.21, -7700.98, 37526.32, 7170.46, -10329.23, 0.00, 0.00, 0.00, 0.00, 0.00, 0.00, 0.00
214, 1026.37, 67468.27, 3725.61, 28434.64, -20123.39, -4012.54, 9428.41, -54401.21, -7695.06, 37535.75, 7179.11, -10344.36, 0.00, 0.00, 0.00, 0.00, 0.00, 0.00, 0.00
215, 1046.37, 67501.26, 3753.84, 28468.41, -20101.46, -3986.88, 9460.84, -54376.29, -7695.06, 37535.75, 7179.11, -10344.36, 0.00, 0.00, 0.00, 0.00, 0.00, 0.00, 0.00
