%OpenBCI Raw EEG Data
%
%Sample Rate = 250.0 Hz
%First Column = SampleIndex
%Other Columns = EEG data in microvolts followed by Accel Data (in G) interleaved with Aux Data
0, 0.00, 0.00, 0.00, 0.00, 0.00, 0.00, 0.00, 0.00, -1592.87, 20654.55, 6555.88, -16230.74, 0.00, 0.00, 0.00, 0.00, -0.01, 0.18, 0.47
1, 5382.86, 75507.01, 12672.79, 32762.76, -42368.85, -2277.46, 9399.47, -44618.59, -1592.87, 20654.55, 6555.88, -16230.74, 0.00, 0.00, 0.00, 0.00, 0.00, 0.00, 0.00
2, 5382.86, 75507.01, 12672.79, 32762.76, -42368.85, -2277.46, 9399.47, -44618.59, -3192.63, 41293.21, 13075.39, -32473.08, 0.00, 0.00, 0.00, 0.00, 0.00, 0.00, 0.00
3, 5354.70, 75478.30, 12646.17, 32735.65, -42389.52, -2302.45, 9380.54, -44646.31, -3192.63, 41293.21, 13075.39, -32473.08, 0.00, 0.00, 0.00, 0.00, 0.00, 0.00, 0.00
4, 5354.70, 75478.30, 12646.17, 32735.65, -42389.52, -2302.45, 9380.54, -44646.31, -3177.21, 41322.23, 13092.06, -32454.64, 0.00, 0.00, 0.00, 0.00, 0.00, 0.00, 0.00
5, 5381.12, 75504.39, 12669.73, 32761.96, -42369.27, -2276.06, 9393.81, -44631.09, -3177.21, 41322.23, 13092.06, -32454.64, 0.00, 0.00, 0.00, 0.00, 0.00, 0.00, 0.00
6, 5381.12, 75504.39, 12669.73, 32761.96, -42369.27, -2276.06, 9393.81, -44631.09, -3188.10, 41284.39, 13073.49, -32481.17, 0.00, 0.00, 0.00, 0.00, -0.02, 0.35, 0.94
7, 5352.64, 75474.98, 12642.64, 32730.35, -42396.32, -2309.27, 9362.21, -44665.85, -3188.10, 41284.39, 13073.49, -32481.17, 0.00, 0.00, 0.00, 0.00, 0.00, 0.00, 0.00
8, 5352.64, 75474.98, 12642.64, 32730.35, -42396.32, -2309.27, 9362.21, -44665.85, -3196.61, 41282.06, 13071.97, -32488.04, 0.00, 0.00, 0.00, 0.00, 0.00, 0.00, 0.00
9, 5381.12, 75508.37, 12671.38, 32763.30, -42372.51, -2287.21, 9410.15, -44615.89, -3196.61, 41282.06, 13071.97, -32488.04, 0.00, 0.00, 0.00, 0.00, 0.00, 0.00, 0.00
10, 5381.12, 75508.37, 12671.38, 32763.30, -42372.51, -2287.21, 9410.15, -44615.89, -3190.82, 41291.85, 13087.26, -32424.38, 0.00, 0.00, 0.00, 0.00, 0.00, 0.00, 0.00
11, 5362.83, 75482.27, 12650.64, 32739.58, -42386.46, -2300.17, 9381.88, -44629.84, -3190.82, 41291.85, 13087.26, -32424.38, 0.00, 0.00, 0.00, 0.00, 0.00, 0.00, 0.00
12, 5362.83, 75482.27, 12650.64, 32739.58, -42386.46, -2300.17, 9381.88, -44629.84, -3188.19, 41295.05, 13078.92, -32437.63, 0.00, 0.00, 0.00, 0.00, 0.00, 0.00, 0.00
13, 5381.34, 75504.46, 12674.80, 32767.19, -42365.00, -2282.63, 9408.21, -44622.80, -3188.19, 41295.05, 13078.92, -32437.63, 0.00, 0.00, 0.00, 0.00, 0.00, 0.00, 0.00
14, 5381.34, 75504.46, 12674.80, 32767.19, -42365.00, -2282.63, 9408.21, -44622.80, -3183.78, 41287.98, 13085.40, -32445.19, 0.00, 0.00, 0.00, 0.00, 0.00, 0.00, 0.00
15, 5351.43, 75476.77, 12647.53, 32737.30, -42387.58, -2296.22, 9375.17, -44658.25, -3183.78, 41287.98, 13085.40, -32445.19, 0.00, 0.00, 0.00, 0.00, 0.00, 0.00, 0.00
16, 5351.43, 75476.77, 12647.53, 32737.30, -42387.58, -2296.22, 9375.17, -44658.25, -3180.97, 41282.08, 13078.83, -32440.40, 0.00, 0.00, 0.00, 0.00, -0.02, 0.36, 0.94
17, 5380.18, 75511.25, 12677.62, 32767.01, -42354.23, -2283.81, 9408.99, -44614.37, -3180.97, 41282.08, 13078.83, -32440.40, 0.00, 0.00, 0.00, 0.00, 0.00, 0.00, 0.00
18, 5380.18, 75511.25, 12677.62, 32767.01, -42354.23, -2283.81, 9408.99, -44614.37, -3159.11, 41304.48, 13105.43, -32392.06, 0.00, 0.00, 0.00, 0.00, 0.00, 0.00, 0.00
19, 5367.61, 75492.41, 12660.18, 32745.26, -42373.52, -2301.18, 9386.41, -44633.82, -3159.11, 41304.48, 13105.43, -32392.06, 0.00, 0.00, 0.00, 0.00, 0.00, 0.00, 0.00
20, 5367.61, 75492.41, 12660.18, 32745.26, -42373.52, -2301.18, 9386.41, -44633.82, -3180.56, 41276.88, 13083.10, -32397.42, 0.00, 0.00, 0.00, 0.00, 0.00, 0.00, 0.00
21, 5379.66, 75506.38, 12676.41, 32768.50, -42364.69, -2286.74, 9420.37, -44606.68, -3180.56, 41276.88, 13083.10, -32397.42, 0.00, 0.00, 0.00, 0.00, 0.00, 0.00, 0.00
22, 5379.66, 75506.38, 12676.41, 32768.50, -42364.69, -2286.74, 9420.37, -44606.68, -3174.53, 41290.00, 13091.42, -32416.35, 0.00, 0.00, 0.00, 0.00, 0.00, 0.00, 0.00
23, 5356.30, 75475.20, 12644.76, 32730.84, -42389.03, -2313.63, 9379.19, -44654.98, -3174.53, 41290.00, 13091.42, -32416.35, 0.00, 0.00, 0.00, 0.00, 0.00, 0.00, 0.00
24, 5356.30, 75475.20, 12644.76, 32730.84, -42389.03, -2313.63, 9379.19, -44654.98, -3176.07, 41272.81, 13071.59, -32422.46, 0.00, 0.00, 0.00, 0.00, 0.00, 0.00, 0.00
25, 5375.84, 75501.71, 12670.15, 32765.00, -42362.34, -2280.57, 9407.11, -44623.89, -3176.07, 41272.81, 13071.59, -32422.46, 0.00, 0.00, 0.00, 0.00, 0.00, 0.00, 0.00
26, 5375.84, 75501.71, 12670.15, 32765.00, -42362.34, -2280.57, 9407.11, -44623.89, -3167.94, 41301.04, 13102.39, -32388.04, 0.00, 0.00, 0.00, 0.00, -0.02, 0.36, 0.94
27, 5361.47, 75482.45, 12653.34, 32741.55, -42376.83, -2305.47, 9391.84, -44627.02, -3167.94, 41301.04, 13102.39, -32388.04, 0.00, 0.00, 0.00, 0.00, 0.00, 0.00, 0.00
28, 5361.47, 75482.45, 12653.34, 32741.55, -42376.83, -2305.47, 9391.84, -44627.02, -3167.51, 41277.28, 13078.38, -32353.28, 0.00, 0.00, 0.00, 0.00, 0.00, 0.00, 0.00
29, 5376.49, 75503.20, 12671.52, 32760.06, -42362.28, -2290.56, 9406.28, -44611.02, -3167.51, 41277.28, 13078.38, -32353.28, 0.00, 0.00, 0.00, 0.00, 0.00, 0.00, 0.00
30, 5376.49, 75503.20, 12671.52, 32760.06, -42362.28, -2290.56, 9406.28, -44611.02, -3150.97, 41314.56, 13110.77, -32374.20, 0.00, 0.00, 0.00, 0.00, 0.00, 0.00, 0.00
31, 5372.87, 75495.12, 12663.65, 32748.77, -42368.00, -2302.32, 9396.61, -44631.22, -3150.97, 41314.56, 13110.77, -32374.20, 0.00, 0.00, 0.00, 0.00, 0.00, 0.00, 0.00
32, 5372.87, 75495.12, 12663.65, 32748.77, -42368.00, -2302.32, 9396.61, -44631.22, -3144.06, 41293.68, 13087.75, -32356.83, 0.00, 0.00, 0.00, 0.00, 0.00, 0.00, 0.00
33, 5378.50, 75506.54, 12672.46, 32759.47, -42358.32, -2288.46, 9405.14, -44623.47, -3144.06, 41293.68, 13087.75, -32356.83, 0.00, 0.00, 0.00, 0.00, 0.00, 0.00, 0.00
34, 5378.50, 75506.54, 12672.46, 32759.47, -42358.32, -2288.46, 9405.14, -44623.47, -3157.16, 41295.85, 13104.36, -32386.04, 0.00, 0.00, 0.00, 0.00, 0.00, 0.00, 0.00
35, 5371.26, 75500.14, 12662.15, 32746.76, -42370.14, -2305.83, 9402.46, -44618.53, -3157.16, 41295.85, 13104.36, -32386.04, 0.00, 0.00, 0.00, 0.00, 0.00, 0.00, 0.00
36, 5371.26, 75500.14, 12662.15, 32746.76, -42370.14, -2305.83, 9402.46, -44618.53, -3171.85, 41273.32, 13085.36, -32326.77, 0.00, 0.00, 0.00, 0.00, -0.02, 0.36, 0.94
37, 5376.80, 75508.70, 12671.54, 32757.71, -42367.11, -2292.15, 9407.69, -44613.28, -3171.85, 41273.32, 13085.36, -32326.77, 0.00, 0.00, 0.00, 0.00, 0.00, 0.00, 0.00
38, 5376.80, 75508.70, 12671.54, 32757.71, -42367.11, -2292.15, 9407.69, -44613.28, -3155.37, 41297.46, 13118.26, -32314.34, 0.00, 0.00, 0.00, 0.00, 0.00, 0.00, 0.00
39, 5373.14, 75510.80, 12677.04, 32756.14, -42353.36, -2303.24, 9416.21, -44606.53, -3155.37, 41297.46, 13118.26, -32314.34, 0.00, 0.00, 0.00, 0.00, 0.00, 0.00, 0.00
40, 5373.14, 75510.80, 12677.04, 32756.14, -42353.36, -2303.24, 9416.21, -44606.53, -3149.07, 41271.62, 13102.21, -32305.22, 0.00, 0.00, 0.00, 0.00, 0.00, 0.00, 0.00
41, 5367.28, 75499.50, 12671.25, 32751.05, -42358.30, -2305.14, 9407.80, -44627.40, -3149.07, 41271.62, 13102.21, -32305.22, 0.00, 0.00, 0.00, 0.00, 0.00, 0.00, 0.00
42, 5367.28, 75499.50, 12671.25, 32751.05, -42358.30, -2305.14, 9407.80, -44627.40, -3135.19, 41307.59, 13120.74, -32338.46, 0.00, 0.00, 0.00, 0.00, 0.00, 0.00, 0.00
43, 5373.69, 75510.70, 12678.62, 32761.76, -42349.36, -2290.49, 9418.06, -44619.33, -3135.19, 41307.59, 13120.74, -32338.46, 0.00, 0.00, 0.00, 0.00, 0.00, 0.00, 0.00
44, 5373.69, 75510.70, 12678.62, 32761.76, -42349.36, -2290.49, 9418.06, -44619.33, -3140.38, 41287.58, 13094.77, -32310.85, 0.00, 0.00, 0.00, 0.00, 0.00, 0.00, 0.00
45, 5366.63, 75500.08, 12667.65, 32753.82, -42358.16, -2297.71, 9401.84, -44619.73, -3140.38, 41287.58, 13094.77, -32310.85, 0.00, 0.00, 0.00, 0.00, -0.02, 0.36, 0.95
46, 5366.63, 75500.08, 12667.65, 32753.82, -42358.16, -2297.71, 9401.84, -44619.73, -3149.92, 41290.76, 13115.98, -32276.86, 0.00, 0.00, 0.00, 0.00, 0.00, 0.00, 0.00
47, 5371.08, 75507.37, 12674.09, 32765.04, -42350.25, -2287.54, 9424.23, -44596.89, -3149.92, 41290.76, 13115.98, -32276.86, 0.00, 0.00, 0.00, 0.00, 0.00, 0.00, 0.00
48, 5371.08, 75507.37, 12674.09, 32765.04, -42350.25, -2287.54, 9424.23, -44596.89, -3153.16, 41279.20, 13092.20, -32263.74, 0.00, 0.00, 0.00, 0.00, 0.00, 0.00, 0.00
49, 5352.39, 75494.53, 12657.81, 32740.70, -42367.46, -2318.66, 9399.22, -44628.79, -3153.16, 41279.20, 13092.20, -32263.74, 0.00, 0.00, 0.00, 0.00, 0.00, 0.00, 0.00
50, 5352.39, 75494.53, 12657.81, 32740.70, -42367.46, -2318.66, 9399.22, -44628.79, -3137.94, 41293.28, 13110.39, -32300.01, 0.00, 0.00, 0.00, 0.00, 0.00, 0.00, 0.00
51, 5370.25, 75514.74, 12677.28, 32760.86, -42344.75, -2294.74, 9416.95, -44615.53, -3137.94, 41293.28, 13110.39, -32300.01, 0.00, 0.00, 0.00, 0.00, 0.00, 0.00, 0.00
52, 5370.25, 75514.74, 12677.28, 32760.86, -42344.75, -2294.74, 9416.95, -44615.53, -3133.18, 41300.41, 13101.65, -32283.32, 0.00, 0.00, 0.00, 0.00, 0.00, 0.00, 0.00
53, 5347.79, 75485.98, 12654.08, 32736.59, -42364.91, -2318.64, 9396.41, -44626.42, -3133.18, 41300.41, 13101.65, -32283.32, 0.00, 0.00, 0.00, 0.00, 0.00, 0.00, 0.00
54, 5347.79, 75485.98, 12654.08, 32736.59, -42364.91, -2318.64, 9396.41, -44626.42, -3161.70, 41260.27, 13104.22, -32268.29, 0.00, 0.00, 0.00, 0.00, 0.00, 0.00, 0.00
55, 5373.98, 75506.76, 12677.62, 32770.16, -42341.31, -2284.82, 9430.78, -44601.77, -3161.70, 41260.27, 13104.22, -32268.29, 0.00, 0.00, 0.00, 0.00, -0.03, 0.35, 0.95
56, 5373.98, 75506.76, 12677.62, 32770.16, -42341.31, -2284.82, 9430.78, -44601.77, -3146.95, 41269.75, 13104.16, -32235.86, 0.00, 0.00, 0.00, 0.00, 0.00, 0.00, 0.00
57, 5351.39, 75484.97, 12656.74, 32741.37, -42357.79, -2308.80, 9416.59, -44614.19, -3146.95, 41269.75, 13104.16, -32235.86, 0.00, 0.00, 0.00, 0.00, 0.00, 0.00, 0.00
58, 5351.39, 75484.97, 12656.74, 32741.37, -42357.79, -2308.80, 9416.59, -44614.19, -3121.29, 41304.61, 13140.97, -32228.49, 0.00, 0.00, 0.00, 0.00, 0.00, 0.00, 0.00
59, 5398.53, 75534.72, 12717.36, 32804.31, -42305.32, -2273.37, 9457.65, -44578.70, -3121.29, 41304.61, 13140.97, -32228.49, 0.00, 0.00, 0.00, 0.00, 0.00, 0.00, 0.00
60, 5398.53, 75534.72, 12717.36, 32804.31, -42305.32, -2273.37, 9457.65, -44578.70, -3119.83, 41297.77, 13101.18, -32246.64, 0.00, 0.00, 0.00, 0.00, 0.00, 0.00, 0.00
61, 5342.67, 75469.95, 12632.09, 32717.46, -42383.36, -2328.96, 9376.47, -44661.31, -3119.83, 41297.77, 13101.18, -32246.64, 0.00, 0.00, 0.00, 0.00, 0.00, 0.00, 0.00
62, 5342.67, 75469.95, 12632.09, 32717.46, -42383.36, -2328.96, 9376.47, -44661.31, -3139.12, 41293.28, 13080.17, -32280.86, 0.00, 0.00, 0.00, 0.00, 0.00, 0.00, 0.00
63, 5374.07, 75507.34, 12674.94, 32764.15, -42351.93, -2306.19, 9420.57, -44601.07, -3139.12, 41293.28, 13080.17, -32280.86, 0.00, 0.00, 0.00, 0.00, 0.00, 0.00, 0.00
64, 5374.07, 75507.34, 12674.94, 32764.15, -42351.93, -2306.19, 9420.57, -44601.07, -3145.74, 41259.15, 13113.48, -32210.00, 0.00, 0.00, 0.00, 0.00, 0.00, 0.00, 0.00
65, 5364.78, 75492.79, 12664.54, 32740.43, -42359.82, -2311.53, 9409.08, -44618.55, -3145.74, 41259.15, 13113.48, -32210.00, 0.00, 0.00, 0.00, 0.00, -0.03, 0.35, 0.94
66, 5364.78, 75492.79, 12664.54, 32740.43, -42359.82, -2311.53, 9409.08, -44618.55, -3145.56, 41272.45, 13095.28, -32212.60, 0.00, 0.00, 0.00, 0.00, 0.00, 0.00, 0.00
67, 5378.59, 75512.75, 12679.23, 32761.46, -42348.42, -2294.09, 9426.13, -44601.05, -3145.56, 41272.45, 13095.28, -32212.60, 0.00, 0.00, 0.00, 0.00, 0.00, 0.00, 0.00
68, 5378.59, 75512.75, 12679.23, 32761.46, -42348.42, -2294.09, 9426.13, -44601.05, -3125.71, 41300.99, 13115.33, -32189.55, 0.00, 0.00, 0.00, 0.00, 0.00, 0.00, 0.00
69, 5359.39, 75493.59, 12659.96, 32725.37, -42357.29, -2323.26, 9409.28, -44615.76, -3125.71, 41300.99, 13115.33, -32189.55, 0.00, 0.00, 0.00, 0.00, 0.00, 0.00, 0.00
70, 5359.39, 75493.59, 12659.96, 32725.37, -42357.29, -2323.26, 9409.28, -44615.76, -3120.62, 41292.25, 13104.22, -32188.46, 0.00, 0.00, 0.00, 0.00, 0.00, 0.00, 0.00
71, 5380.65, 75517.65, 12685.87, 32759.27, -42338.23, -2295.46, 9426.67, -44609.48, -3120.62, 41292.25, 13104.22, -32188.46, 0.00, 0.00, 0.00, 0.00, 0.00, 0.00, 0.00
72, 5380.65, 75517.65, 12685.87, 32759.27, -42338.23, -2295.46, 9426.67, -44609.48, -3120.30, 41296.50, 13128.56, -32215.68, 0.00, 0.00, 0.00, 0.00, 0.00, 0.00, 0.00
73, 5368.49, 75502.07, 12670.62, 32737.39, -42354.48, -2320.07, 9418.58, -44614.28, -3120.30, 41296.50, 13128.56, -32215.68, 0.00, 0.00, 0.00, 0.00, 0.00, 0.00, 0.00
74, 5368.49, 75502.07, 12670.62, 32737.39, -42354.48, -2320.07, 9418.58, -44614.28, -3120.01, 41272.99, 13120.43, -32178.44, 0.00, 0.00, 0.00, 0.00, 0.00, 0.00, 0.00
75, 5375.88, 75517.94, 12683.79, 32756.75, -42336.26, -2295.30, 9430.04, -44594.66, -3120.01, 41272.99, 13120.43, -32178.44, 0.00, 0.00, 0.00, 0.00, -0.02, 0.35, 0.94
76, 5375.88, 75517.94, 12683.79, 32756.75, -42336.26, -2295.30, 9430.04, -44594.66, -3123.37, 41290.73, 13139.63, -32187.63, 0.00, 0.00, 0.00, 0.00, 0.00, 0.00, 0.00
77, 5366.92, 75508.77, 12673.53, 32738.78, -42344.77, -2317.41, 9419.67, -44607.31, -3123.37, 41290.73, 13139.63, -32187.63, 0.00, 0.00, 0.00, 0.00, 0.00, 0.00, 0.00
78, 5366.92, 75508.77, 12673.53, 32738.78, -42344.77, -2317.41, 9419.67, -44607.31, -3118.34, 41285.73, 13117.05, -32152.25, 0.00, 0.00, 0.00, 0.00, 0.00, 0.00, 0.00
79, 5374.54, 75514.63, 12683.07, 32753.42, -42333.64, -2305.74, 9434.40, -44597.63, -3118.34, 41285.73, 13117.05, -32152.25, 0.00, 0.00, 0.00, 0.00, 0.00, 0.00, 0.00
80, 5374.54, 75514.63, 12683.07, 32753.42, -42333.64, -2305.74, 9434.40, -44597.63, -3094.38, 41335.39, 13149.84, -32178.73, 0.00, 0.00, 0.00, 0.00, 0.00, 0.00, 0.00
81, 5372.06, 75511.08, 12680.37, 32751.00, -42331.41, -2303.53, 9421.08, -44617.63, -3094.38, 41335.39, 13149.84, -32178.73, 0.00, 0.00, 0.00, 0.00, 0.00, 0.00, 0.00
82, 5372.06, 75511.08, 12680.37, 32751.00, -42331.41, -2303.53, 9421.08, -44617.63, -3113.26, 41271.54, 13119.11, -32167.94, 0.00, 0.00, 0.00, 0.00, 0.00, 0.00, 0.00
83, 5369.05, 75512.08, 12682.18, 32756.90, -42327.65, -2300.11, 9441.35, -44580.91, -3113.26, 41271.54, 13119.11, -32167.94, 0.00, 0.00, 0.00, 0.00, 0.00, 0.00, 0.00
84, 5369.05, 75512.08, 12682.18, 32756.90, -42327.65, -2300.11, 9441.35, -44580.91, -3108.88, 41300.93, 13148.82, -32153.72, 0.00, 0.00, 0.00, 0.00, -0.02, 0.36, 0.94
85, 5364.73, 75505.91, 12677.28, 32754.16, -42334.18, -2304.84, 9439.43, -44597.07, -3108.88, 41300.93, 13148.82, -32153.72, 0.00, 0.00, 0.00, 0.00, 0.00, 0.00, 0.00
86, 5364.73, 75505.91, 12677.28, 32754.16, -42334.18, -2304.84, 9439.43, -44597.07, -3108.17, 41285.04, 13124.43, -32108.95, 0.00, 0.00, 0.00, 0.00, 0.00, 0.00, 0.00
87, 5367.66, 75513.29, 12683.45, 32757.13, -42323.74, -2300.98, 9446.16, -44584.51, -3108.17, 41285.04, 13124.43, -32108.95, 0.00, 0.00, 0.00, 0.00, 0.00, 0.00, 0.00
88, 5367.66, 75513.29, 12683.45, 32757.13, -42323.74, -2300.98, 9446.16, -44584.51, -3095.47, 41315.10, 13149.93, -32128.11, 0.00, 0.00, 0.00, 0.00, 0.00, 0.00, 0.00
89, 5374.10, 75513.02, 12684.84, 32761.35, -42317.46, -2294.32, 9450.16, -44583.84, -3095.47, 41315.10, 13149.93, -32128.11, 0.00, 0.00, 0.00, 0.00, 0.00, 0.00, 0.00
90, 5374.10, 75513.02, 12684.84, 32761.35, -42317.46, -2294.32, 9450.16, -44583.84, -3099.52, 41297.13, 13124.65, -32124.22, 0.00, 0.00, 0.00, 0.00, 0.00, 0.00, 0.00
91, 5360.37, 75504.32, 12672.81, 32749.44, -42327.63, -2311.97, 9432.15, -44604.83, -3099.52, 41297.13, 13124.65, -32124.22, 0.00, 0.00, 0.00, 0.00, 0.00, 0.00, 0.00
92, 5360.37, 75504.32, 12672.81, 32749.44, -42327.63, -2311.97, 9432.15, -44604.83, -3085.86, 41318.36, 13143.83, -32146.37, 0.00, 0.00, 0.00, 0.00, 0.00, 0.00, 0.00
93, 5365.60, 75511.79, 12681.28, 32763.34, -42317.15, -2288.57, 9441.98, -44593.45, -3085.86, 41318.36, 13143.83, -32146.37, 0.00, 0.00, 0.00, 0.00, 0.00, 0.00, 0.00
94, 5365.60, 75511.79, 12681.28, 32763.34, -42317.15, -2288.57, 9441.98, -44593.45, -3103.18, 41286.66, 13122.91, -32088.77, 0.00, 0.00, 0.00, 0.00, -0.02, 0.36, 0.94
95, 5350.81, 75498.94, 12667.45, 32745.13, -42332.06, -2311.86, 9444.24, -44578.52, -3103.18, 41286.66, 13122.91, -32088.77, 0.00, 0.00, 0.00, 0.00, 0.00, 0.00, 0.00
96, 5350.81, 75498.94, 12667.45, 32745.13, -42332.06, -2311.86, 9444.24, -44578.52, -3092.99, 41318.34, 13146.20, -32082.98, 0.00, 0.00, 0.00, 0.00, 0.00, 0.00, 0.00
97, 5366.90, 75510.47, 12681.82, 32764.30, -42308.43, -2289.44, 9467.46, -44571.28, -3092.99, 41318.34, 13146.20, -32082.98, 0.00, 0.00, 0.00, 0.00, 0.00, 0.00, 0.00
98, 5366.90, 75510.47, 12681.82, 32764.30, -42308.43, -2289.44, 9467.46, -44571.28, -3098.56, 41282.66, 13124.09, -32063.78, 0.00, 0.00, 0.00, 0.00, 0.00, 0.00, 0.00
99, 5346.65, 75489.23, 12658.73, 32744.39, -42327.90, -2307.28, 9442.34, -44593.81, -3098.56, 41282.66, 13124.09, -32063.78, 0.00, 0.00, 0.00, 0.00, 0.00, 0.00, 0.00
100, 5346.65, 75489.23, 12658.73, 32744.39, -42327.90, -2307.28, 9442.34, -44593.81, -3076.20, 41322.12, 13141.24, -32087.78, 0.00, 0.00, 0.00, 0.00, 0.00, 0.00, 0.00
101, 5365.04, 75513.06, 12680.66, 32765.11, -42304.16, -2294.54, 9457.42, -44576.84, -3076.20, 41322.12, 13141.24, -32087.78, 0.00, 0.00, 0.00, 0.00, 0.00, 0.00, 0.00
102, 5365.04, 75513.06, 12680.66, 32765.11, -42304.16, -2294.54, 9457.42, -44576.84, -3072.87, 41320.02, 13128.50, -32094.15, 0.00, 0.00, 0.00, 0.00, 0.00, 0.00, 0.00
103, 5348.21, 75491.63, 12661.55, 32746.65, -42322.87, -2305.58, 9432.17, -44601.47, -3072.87, 41320.02, 13128.50, -32094.15, 0.00, 0.00, 0.00, 0.00, 0.00, 0.00, 0.00
104, 5348.21, 75491.63, 12661.55, 32746.65, -42322.87, -2305.58, 9432.17, -44601.47, -3091.16, 41294.18, 13139.65, -32040.13, 0.00, 0.00, 0.00, 0.00, -0.02, 0.37, 0.95
105, 5370.90, 75519.30, 12686.94, 32773.22, -42295.07, -2285.82, 9478.19, -44547.41, -3091.16, 41294.18, 13139.65, -32040.13, 0.00, 0.00, 0.00, 0.00, 0.00, 0.00, 0.00
106, 5370.90, 75519.30, 12686.94, 32773.22, -42295.07, -2285.82, 9478.19, -44547.41, -3088.70, 41316.39, 13132.66, -32005.37, 0.00, 0.00, 0.00, 0.00, 0.00, 0.00, 0.00
107, 5346.25, 75487.34, 12659.67, 32745.30, -42326.65, -2305.18, 9441.02, -44589.65, -3088.70, 41316.39, 13132.66, -32005.37, 0.00, 0.00, 0.00, 0.00, 0.00, 0.00, 0.00
108, 5346.25, 75487.34, 12659.67, 32745.30, -42326.65, -2305.18, 9441.02, -44589.65, -3084.07, 41300.73, 13137.75, -32039.86, 0.00, 0.00, 0.00, 0.00, 0.00, 0.00, 0.00
109, 5377.00, 75523.66, 12690.60, 32780.48, -42290.62, -2283.99, 9482.39, -44558.83, -3084.07, 41300.73, 13137.75, -32039.86, 0.00, 0.00, 0.00, 0.00, 0.00, 0.00, 0.00
110, 5377.00, 75523.66, 12690.60, 32780.48, -42290.62, -2283.99, 9482.39, -44558.83, -3080.81, 41314.88, 13141.33, -32040.17, 0.00, 0.00, 0.00, 0.00, 0.00, 0.00, 0.00
111, 5343.05, 75491.80, 12660.47, 32750.89, -42312.32, -2303.62, 9448.80, -44588.22, -3080.81, 41314.88, 13141.33, -32040.17, 0.00, 0.00, 0.00, 0.00, 0.00, 0.00, 0.00
112, 5343.05, 75491.80, 12660.47, 32750.89, -42312.32, -2303.62, 9448.80, -44588.22, -3074.55, 41323.95, 13136.43, -31982.57, 0.00, 0.00, 0.00, 0.00, 0.00, 0.00, 0.00
113, 5367.10, 75513.11, 12683.07, 32777.85, -42296.34, -2282.43, 9482.35, -44544.70, -3074.55, 41323.95, 13136.43, -31982.57, 0.00, 0.00, 0.00, 0.00, 0.00, 0.00, 0.00
114, 5367.10, 75513.11, 12683.07, 32777.85, -42296.34, -2282.43, 9482.35, -44544.70, -3084.34, 41308.44, 13138.13, -31974.77, 0.00, 0.00, 0.00, 0.00, -0.02, 0.36, 0.94
115, 5346.65, 75489.35, 12660.52, 32747.52, -42312.95, -2308.38, 9452.37, -44582.54, -3084.34, 41308.44, 13138.13, -31974.77, 0.00, 0.00, 0.00, 0.00, 0.00, 0.00, 0.00
116, 5346.65, 75489.35, 12660.52, 32747.52, -42312.95, -2308.38, 9452.37, -44582.54, -3071.33, 41309.04, 13133.73, -31999.27, 0.00, 0.00, 0.00, 0.00, 0.00, 0.00, 0.00
117, 5363.61, 75508.46, 12678.94, 32779.32, -42295.29, -2275.59, 9472.54, -44565.00, -3071.33, 41309.04, 13133.73, -31999.27, 0.00, 0.00, 0.00, 0.00, 0.00, 0.00, 0.00
118, 5363.61, 75508.46, 12678.94, 32779.32, -42295.29, -2275.59, 9472.54, -44565.00, -3074.84, 41309.24, 13142.49, -31987.74, 0.00, 0.00, 0.00, 0.00, 0.00, 0.00, 0.00
119, 5344.91, 75488.66, 12658.28, 32749.46, -42312.63, -2307.01, 9453.71, -44581.07, -3074.84, 41309.24, 13142.49, -31987.74, 0.00, 0.00, 0.00, 0.00, 0.00, 0.00, 0.00
120, 5344.91, 75488.66, 12658.28, 32749.46, -42312.63, -2307.01, 9453.71, -44581.07, -3078.24, 41306.13, 13133.68, -31976.72, 0.00, 0.00, 0.00, 0.00, 0.00, 0.00, 0.00
121, 5367.86, 75512.26, 12686.54, 32779.30, -42290.06, -2282.05, 9483.87, -44556.57, -3078.24, 41306.13, 13133.68, -31976.72, 0.00, 0.00, 0.00, 0.00, 0.00, 0.00, 0.00
122, 5367.86, 75512.26, 12686.54, 32779.30, -42290.06, -2282.05, 9483.87, -44556.57, -3061.09, 41341.79, 13158.94, -31969.77, 0.00, 0.00, 0.00, 0.00, 0.00, 0.00, 0.00
123, 5353.73, 75500.50, 12668.77, 32755.18, -42302.75, -2302.41, 9455.73, -44574.05, -3061.09, 41341.79, 13158.94, -31969.77, 0.00, 0.00, 0.00, 0.00, -0.02, 0.36, 0.94
124, 5353.73, 75500.50, 12668.77, 32755.18, -42302.75, -2302.41, 9455.73, -44574.05, -3063.57, 41304.75, 13131.31, -31954.23, 0.00, 0.00, 0.00, 0.00, 0.00, 0.00, 0.00
125, 5362.00, 75513.22, 12681.44, 32777.49, -42287.27, -2280.53, 9488.43, -44545.97, -3063.57, 41304.75, 13131.31, -31954.23, 0.00, 0.00, 0.00, 0.00, 0.00, 0.00, 0.00
126, 5362.00, 75513.22, 12681.44, 32777.49, -42287.27, -2280.53, 9488.43, -44545.97, -3062.57, 41328.08, 13157.26, -31934.61, 0.00, 0.00, 0.00, 0.00, 0.00, 0.00, 0.00
127, 5347.79, 75492.41, 12664.83, 32755.59, -42299.87, -2294.94, 9465.43, -44567.39, -3062.57, 41328.08, 13157.26, -31934.61, 0.00, 0.00, 0.00, 0.00, 0.00, 0.00, 0.00
128, 5347.79, 75492.41, 12664.83, 32755.59, -42299.87, -2294.94, 9465.43, -44567.39, -3068.38, 41306.13, 13134.29, -31914.45, 0.00, 0.00, 0.00, 0.00, 0.00, 0.00, 0.00
129, 5361.56, 75511.88, 12683.52, 32772.86, -42283.26, -2285.89, 9485.54, -44548.39, -3068.38, 41306.13, 13134.29, -31914.45, 0.00, 0.00, 0.00, 0.00, 0.00, 0.00, 0.00
130, 5361.56, 75511.88, 12683.52, 32772.86, -42283.26, -2285.89, 9485.54, -44548.39, -3059.86, 41347.86, 13164.22, -31928.48, 0.00, 0.00, 0.00, 0.00, 0.00, 0.00, 0.00
131, 5353.58, 75506.56, 12674.11, 32759.81, -42288.83, -2295.95, 9471.37, -44550.09, -3059.86, 41347.86, 13164.22, -31928.48, 0.00, 0.00, 0.00, 0.00, 0.00, 0.00, 0.00
132, 5353.58, 75506.56, 12674.11, 32759.81, -42288.83, -2295.95, 9471.37, -44550.09, -3059.04, 41317.58, 13147.03, -31901.97, 0.00, 0.00, 0.00, 0.00, 0.00, 0.00, 0.00
133, 5358.85, 75511.16, 12680.46, 32768.21, -42279.38, -2286.09, 9473.50, -44563.75, -3059.04, 41317.58, 13147.03, -31901.97, 0.00, 0.00, 0.00, 0.00, -0.02, 0.36, 0.94
134, 5358.85, 75511.16, 12680.46, 32768.21, -42279.38, -2286.09, 9473.50, -44563.75, -3040.62, 41330.18, 13170.30, -31940.40, 0.00, 0.00, 0.00, 0.00, 0.00, 0.00, 0.00
135, 5357.04, 75510.52, 12680.03, 32765.35, -42279.46, -2288.04, 9471.22, -44565.98, -3040.62, 41330.18, 13170.30, -31940.40, 0.00, 0.00, 0.00, 0.00, 0.00, 0.00, 0.00
136, 5357.04, 75510.52, 12680.03, 32765.35, -42279.46, -2288.04, 9471.22, -44565.98, -3062.90, 41295.11, 13153.17, -31876.20, 0.00, 0.00, 0.00, 0.00, 0.00, 0.00, 0.00
137, 5356.42, 75509.58, 12680.75, 32768.62, -42282.79, -2290.74, 9492.70, -44535.38, -3062.90, 41295.11, 13153.17, -31876.20, 0.00, 0.00, 0.00, 0.00, 0.00, 0.00, 0.00
138, 5356.42, 75509.58, 12680.75, 32768.62, -42282.79, -2290.74, 9492.70, -44535.38, -3040.82, 41348.02, 13183.89, -31875.22, 0.00, 0.00, 0.00, 0.00, 0.00, 0.00, 0.00
139, 5358.29, 75516.88, 12684.84, 32773.47, -42274.43, -2282.78, 9488.81, -44541.93, -3040.82, 41348.02, 13183.89, -31875.22, 0.00, 0.00, 0.00, 0.00, 0.00, 0.00, 0.00
140, 5358.29, 75516.88, 12684.84, 32773.47, -42274.43, -2282.78, 9488.81, -44541.93, -3056.02, 41315.43, 13149.78, -31872.54, 0.00, 0.00, 0.00, 0.00, 0.00, 0.00, 0.00
141, 5336.52, 75496.26, 12665.68, 32755.63, -42291.53, -2291.97, 9467.44, -44566.70, -3056.02, 41315.43, 13149.78, -31872.54, 0.00, 0.00, 0.00, 0.00, 0.00, 0.00, 0.00
142, 5336.52, 75496.26, 12665.68, 32755.63, -42291.53, -2291.97, 9467.44, -44566.70, -3041.20, 41328.91, 13169.13, -31895.02, 0.00, 0.00, 0.00, 0.00, 0.00, 0.00, 0.00
143, 5351.48, 75509.35, 12677.26, 32769.33, -42276.31, -2283.48, 9476.09, -44555.83, -3041.20, 41328.91, 13169.13, -31895.02, 0.00, 0.00, 0.00, 0.00, -0.02, 0.36, 0.94
144, 5351.48, 75509.35, 12677.26, 32769.33, -42276.31, -2283.48, 9476.09, -44555.83, -3053.49, 41295.34, 13152.57, -31866.79, 0.00, 0.00, 0.00, 0.00, 0.00, 0.00, 0.00
145, 5343.03, 75500.32, 12666.40, 32750.40, -42288.40, -2309.45, 9471.69, -44562.38, -3053.49, 41295.34, 13152.57, -31866.79, 0.00, 0.00, 0.00, 0.00, 0.00, 0.00, 0.00
146, 5343.03, 75500.32, 12666.40, 32750.40, -42288.40, -2309.45, 9471.69, -44562.38, -3043.73, 41324.26, 13171.30, -31859.68, 0.00, 0.00, 0.00, 0.00, 0.00, 0.00, 0.00
147, 5361.67, 75510.90, 12683.12, 32772.75, -42271.42, -2287.81, 9491.76, -44534.93, -3043.73, 41324.26, 13171.30, -31859.68, 0.00, 0.00, 0.00, 0.00, 0.00, 0.00, 0.00
148, 5361.67, 75510.90, 12683.12, 32772.75, -42271.42, -2287.81, 9491.76, -44534.93, -3050.25, 41320.89, 13157.31, -31825.22, 0.00, 0.00, 0.00, 0.00, 0.00, 0.00, 0.00
149, 5338.42, 75492.88, 12664.36, 32752.17, -42291.87, -2300.26, 9470.41, -44555.32, -3050.25, 41320.89, 13157.31, -31825.22, 0.00, 0.00, 0.00, 0.00, 0.00, 0.00, 0.00
150, 5338.42, 75492.88, 12664.36, 32752.17, -42291.87, -2300.26, 9470.41, -44555.32, -3037.38, 41325.02, 13173.54, -31844.57, 0.00, 0.00, 0.00, 0.00, 0.00, 0.00, 0.00
151, 5354.65, 75512.91, 12685.55, 32776.15, -42267.24, -2275.61, 9498.64, -44539.40, -3037.38, 41325.02, 13173.54, -31844.57, 0.00, 0.00, 0.00, 0.00, 0.00, 0.00, 0.00
152, 5354.65, 75512.91, 12685.55, 32776.15, -42267.24, -2275.61, 9498.64, -44539.40, -3050.14, 41308.68, 13154.58, -31836.86, 0.00, 0.00, 0.00, 0.00, 0.00, 0.00, 0.00
153, 5337.60, 75488.59, 12660.68, 32750.20, -42292.27, -2303.46, 9464.51, -44566.49, -3050.14, 41308.68, 13154.58, -31836.86, 0.00, 0.00, 0.00, 0.00, -0.02, 0.36, 0.95
154, 5337.60, 75488.59, 12660.68, 32750.20, -42292.27, -2303.46, 9464.51, -44566.49, -3035.88, 41325.91, 13175.15, -31818.38, 0.00, 0.00, 0.00, 0.00, 0.00, 0.00, 0.00
155, 5369.78, 75523.13, 12696.21, 32786.63, -42252.15, -2273.28, 9497.23, -44521.28, -3035.88, 41325.91, 13175.15, -31818.38, 0.00, 0.00, 0.00, 0.00, 0.00, 0.00, 0.00
156, 5369.78, 75523.13, 12696.21, 32786.63, -42252.15, -2273.28, 9497.23, -44521.28, -3028.46, 41329.85, 13174.63, -31794.93, 0.00, 0.00, 0.00, 0.00, 0.00, 0.00, 0.00
157, 5343.79, 75495.41, 12668.43, 32753.22, -42281.25, -2301.13, 9471.13, -44552.23, -3028.46, 41329.85, 13174.63, -31794.93, 0.00, 0.00, 0.00, 0.00, 0.00, 0.00, 0.00
158, 5343.79, 75495.41, 12668.43, 32753.22, -42281.25, -2301.13, 9471.13, -44552.23, -3029.58, 41326.25, 13171.99, -31786.68, 0.00, 0.00, 0.00, 0.00, 0.00, 0.00, 0.00
159, 5361.94, 75520.17, 12691.83, 32783.64, -42257.31, -2273.24, 9501.03, -44527.45, -3029.58, 41326.25, 13171.99, -31786.68, 0.00, 0.00, 0.00, 0.00, 0.00, 0.00, 0.00
160, 5361.94, 75520.17, 12691.83, 32783.64, -42257.31, -2273.24, 9501.03, -44527.45, -3028.12, 41329.69, 13178.99, -31780.27, 0.00, 0.00, 0.00, 0.00, 0.00, 0.00, 0.00
161, 5346.18, 75498.18, 12670.82, 32756.59, -42275.95, -2303.57, 9476.25, -44547.74, -3028.12, 41329.69, 13178.99, -31780.27, 0.00, 0.00, 0.00, 0.00, 0.00, 0.00, 0.00
162, 5346.18, 75498.18, 12670.82, 32756.59, -42275.95, -2303.57, 9476.25, -44547.74, -3025.13, 41328.39, 13175.55, -31774.84, 0.00, 0.00, 0.00, 0.00, -0.03, 0.36, 0.94
163, 5364.84, 75515.12, 12691.01, 32787.08, -42255.10, -2275.43, 9499.89, -44530.80, -3025.13, 41328.39, 13175.55, -31774.84, 0.00, 0.00, 0.00, 0.00, 0.00, 0.00, 0.00
164, 5364.84, 75515.12, 12691.01, 32787.08, -42255.10, -2275.43, 9499.89, -44530.80, -3043.77, 41327.43, 13171.14, -31786.10, 0.00, 0.00, 0.00, 0.00, 0.00, 0.00, 0.00
165, 5339.68, 75489.88, 12664.05, 32756.57, -42281.05, -2303.93, 9472.18, -44546.85, -3043.77, 41327.43, 13171.14, -31786.10, 0.00, 0.00, 0.00, 0.00, 0.00, 0.00, 0.00
166, 5339.68, 75489.88, 12664.05, 32756.57, -42281.05, -2303.93, 9472.18, -44546.85, -3041.92, 41303.99, 13166.45, -31752.35, 0.00, 0.00, 0.00, 0.00, 0.00, 0.00, 0.00
167, 5358.70, 75516.51, 12689.91, 32785.58, -42254.16, -2274.78, 9504.63, -44517.48, -3041.92, 41303.99, 13166.45, -31752.35, 0.00, 0.00, 0.00, 0.00, 0.00, 0.00, 0.00
168, 5358.70, 75516.51, 12689.91, 32785.58, -42254.16, -2274.78, 9504.63, -44517.48, -3034.83, 41325.02, 13181.05, -31750.81, 0.00, 0.00, 0.00, 0.00, 0.00, 0.00, 0.00
169, 5335.52, 75490.49, 12666.02, 32759.88, -42275.44, -2294.47, 9469.79, -44555.21, -3034.83, 41325.02, 13181.05, -31750.81, 0.00, 0.00, 0.00, 0.00, 0.00, 0.00, 0.00
170, 5335.52, 75490.49, 12666.02, 32759.88, -42275.44, -2294.47, 9469.79, -44555.21, -3037.53, 41302.69, 13170.65, -31755.79, 0.00, 0.00, 0.00, 0.00, 0.00, 0.00, 0.00
171, 5364.44, 75517.58, 12692.64, 32788.18, -42256.48, -2270.49, 9497.19, -44531.07, -3037.53, 41302.69, 13170.65, -31755.79, 0.00, 0.00, 0.00, 0.00, 0.00, 0.00, 0.00
172, 5364.44, 75517.58, 12692.64, 32788.18, -42256.48, -2270.49, 9497.19, -44531.07, -3021.69, 41339.10, 13194.88, -31734.69, 0.00, 0.00, 0.00, 0.00, -0.02, 0.36, 0.95
173, 5351.81, 75509.47, 12680.35, 32766.79, -42261.47, -2304.78, 9481.05, -44533.91, -3021.69, 41339.10, 13194.88, -31734.69, 0.00, 0.00, 0.00, 0.00, 0.00, 0.00, 0.00
174, 5351.81, 75509.47, 12680.35, 32766.79, -42261.47, -2304.78, 9481.05, -44533.91, -3016.61, 41325.02, 13175.73, -31720.95, 0.00, 0.00, 0.00, 0.00, 0.00, 0.00, 0.00
175, 5364.89, 75522.41, 12694.74, 32788.71, -42249.11, -2274.09, 9499.92, -44533.35, -3016.61, 41325.02, 13175.73, -31720.95, 0.00, 0.00, 0.00, 0.00, 0.00, 0.00, 0.00
176, 5364.89, 75522.41, 12694.74, 32788.71, -42249.11, -2274.09, 9499.92, -44533.35, -3030.67, 41325.69, 13198.75, -31713.91, 0.00, 0.00, 0.00, 0.00, 0.00, 0.00, 0.00
177, 5357.69, 75511.39, 12685.78, 32777.74, -42261.89, -2283.45, 9497.17, -44521.03, -3030.67, 41325.69, 13198.75, -31713.91, 0.00, 0.00, 0.00, 0.00, 0.00, 0.00, 0.00
178, 5357.69, 75511.39, 12685.78, 32777.74, -42261.89, -2283.45, 9497.17, -44521.03, -3032.64, 41298.00, 13185.27, -31703.80, 0.00, 0.00, 0.00, 0.00, 0.00, 0.00, 0.00
179, 5359.43, 75519.63, 12693.51, 32782.88, -42249.33, -2291.68, 9504.88, -44522.53, -3032.64, 41298.00, 13185.27, -31703.80, 0.00, 0.00, 0.00, 0.00, 0.00, 0.00, 0.00
180, 5359.43, 75519.63, 12693.51, 32782.88, -42249.33, -2291.68, 9504.88, -44522.53, -3013.89, 41346.59, 13205.39, -31711.67, 0.00, 0.00, 0.00, 0.00, 0.00, 0.00, 0.00
181, 5354.40, 75518.00, 12688.33, 32773.22, -42251.77, -2294.85, 9496.00, -44516.02, -3013.89, 41346.59, 13205.39, -31711.67, 0.00, 0.00, 0.00, 0.00, 0.00, 0.00, 0.00
182, 5354.40, 75518.00, 12688.33, 32773.22, -42251.77, -2294.85, 9496.00, -44516.02, -3024.28, 41306.83, 13188.29, -31667.82, 0.00, 0.00, 0.00, 0.00, -0.02, 0.35, 0.94
183, 5361.24, 75524.40, 12694.29, 32781.22, -42246.52, -2279.99, 9500.16, -44512.65, -3024.28, 41306.83, 13188.29, -31667.82, 0.00, 0.00, 0.00, 0.00, 0.00, 0.00, 0.00
184, 5361.24, 75524.40, 12694.29, 32781.22, -42246.52, -2279.99, 9500.16, -44512.65, -3019.41, 41325.96, 13207.56, -31700.18, 0.00, 0.00, 0.00, 0.00, 0.00, 0.00, 0.00
185, 5355.23, 75520.80, 12692.06, 32781.04, -42248.89, -2279.27, 9488.74, -44527.87, -3019.41, 41325.96, 13207.56, -31700.18, 0.00, 0.00, 0.00, 0.00, 0.00, 0.00, 0.00
186, 5355.23, 75520.80, 12692.06, 32781.04, -42248.89, -2279.27, 9488.74, -44527.87, -3013.19, 41322.94, 13191.84, -31691.71, 0.00, 0.00, 0.00, 0.00, 0.00, 0.00, 0.00
187, 5353.56, 75518.41, 12688.93, 32778.21, -42253.76, -2287.97, 9491.04, -44530.73, -3013.19, 41322.94, 13191.84, -31691.71, 0.00, 0.00, 0.00, 0.00, 0.00, 0.00, 0.00
188, 5353.56, 75518.41, 12688.93, 32778.21, -42253.76, -2287.97, 9491.04, -44530.73, -3018.02, 41328.26, 13206.95, -31683.39, 0.00, 0.00, 0.00, 0.00, 0.00, 0.00, 0.00
189, 5362.50, 75524.51, 12697.58, 32785.09, -42238.49, -2287.48, 9514.69, -44505.09, -3018.02, 41328.26, 13206.95, -31683.39, 0.00, 0.00, 0.00, 0.00, 0.00, 0.00, 0.00
190, 5362.50, 75524.51, 12697.58, 32785.09, -42238.49, -2287.48, 9514.69, -44505.09, -3015.03, 41310.58, 13197.12, -31622.49, 0.00, 0.00, 0.00, 0.00, 0.00, 0.00, 0.00
191, 5356.24, 75519.52, 12691.88, 32780.80, -42242.09, -2290.11, 9496.25, -44512.83, -3015.03, 41310.58, 13197.12, -31622.49, 0.00, 0.00, 0.00, 0.00, 0.00, 0.00, 0.00
192, 5356.24, 75519.52, 12691.88, 32780.80, -42242.09, -2290.11, 9496.25, -44512.83, -3002.84, 41338.45, 13209.59, -31644.55, 0.00, 0.00, 0.00, 0.00, -0.02, 0.36, 0.94
193, 5359.57, 75527.46, 12698.16, 32789.47, -42237.26, -2275.65, 9504.90, -44500.62, -3002.84, 41338.45, 13209.59, -31644.55, 0.00, 0.00, 0.00, 0.00, 0.00, 0.00, 0.00
194, 5359.57, 75527.46, 12698.16, 32789.47, -42237.26, -2275.65, 9504.90, -44500.62, -3003.98, 41326.03, 13195.91, -31641.35, 0.00, 0.00, 0.00, 0.00, 0.00, 0.00, 0.00
195, 5352.21, 75516.08, 12689.73, 32779.41, -42244.24, -2288.46, 9499.56, -44516.56, -3003.98, 41326.03, 13195.91, -31641.35, 0.00, 0.00, 0.00, 0.00, 0.00, 0.00, 0.00
196, 5352.21, 75516.08, 12689.73, 32779.41, -42244.24, -2288.46, 9499.56, -44516.56, -2996.05, 41346.68, 13212.54, -31658.36, 0.00, 0.00, 0.00, 0.00, 0.00, 0.00, 0.00
197, 5362.85, 75529.02, 12702.96, 32793.74, -42229.55, -2277.40, 9512.97, -44501.81, -2996.05, 41346.68, 13212.54, -31658.36, 0.00, 0.00, 0.00, 0.00, 0.00, 0.00, 0.00
198, 5362.85, 75529.02, 12702.96, 32793.74, -42229.55, -2277.40, 9512.97, -44501.81, -3005.82, 41322.72, 13206.21, -31666.90, 0.00, 0.00, 0.00, 0.00, 0.00, 0.00, 0.00
199, 5354.65, 75520.69, 12694.27, 32782.95, -42231.14, -2282.49, 9493.61, -44512.98, -3005.82, 41322.72, 13206.21, -31666.90, 0.00, 0.00, 0.00, 0.00, 0.00, 0.00, 0.00
200, 5354.65, 75520.69, 12694.27, 32782.95, -42231.14, -2282.49, 9493.61, -44512.98, -2992.14, 41333.71, 13208.45, -31594.95, 0.00, 0.00, 0.00, 0.00, 0.00, 0.00, 0.00
201, 5365.38, 75533.29, 12703.79, 32794.77, -42225.91, -2273.78, 9510.20, -44490.68, -2992.14, 41333.71, 13208.45, -31594.95, 0.00, 0.00, 0.00, 0.00, -0.03, 0.36, 0.94
202, 5365.38, 75533.29, 12703.79, 32794.77, -42225.91, -2273.78, 9510.20, -44490.68, -3006.00, 41317.78, 13199.89, -31598.41, 0.00, 0.00, 0.00, 0.00, 0.00, 0.00, 0.00
203, 5351.59, 75515.43, 12690.02, 32783.17, -42244.24, -2284.82, 9498.87, -44506.95, -3006.00, 41317.78, 13199.89, -31598.41, 0.00, 0.00, 0.00, 0.00, 0.00, 0.00, 0.00
204, 5351.59, 75515.43, 12690.02, 32783.17, -42244.24, -2284.82, 9498.87, -44506.95, -2997.21, 41335.19, 13198.21, -31626.60, 0.00, 0.00, 0.00, 0.00, 0.00, 0.00, 0.00
205, 5359.01, 75521.34, 12701.38, 32805.72, -42220.57, -2266.71, 9517.13, -44494.79, -2997.21, 41335.19, 13198.21, -31626.60, 0.00, 0.00, 0.00, 0.00, 0.00, 0.00, 0.00
206, 5359.01, 75521.34, 12701.38, 32805.72, -42220.57, -2266.71, 9517.13, -44494.79, -2986.01, 41351.35, 13194.32, -31613.35, 0.00, 0.00, 0.00, 0.00, 0.00, 0.00, 0.00
207, 5339.72, 75501.87, 12683.56, 32788.49, -42227.32, -2286.58, 9504.14, -44498.66, -2986.01, 41351.35, 13194.32, -31613.35, 0.00, 0.00, 0.00, 0.00, 0.00, 0.00, 0.00
208, 5339.72, 75501.87, 12683.56, 32788.49, -42227.32, -2286.58, 9504.14, -44498.66, -2984.20, 41329.16, 13173.83, -31579.15, 0.00, 0.00, 0.00, 0.00, 0.00, 0.00, 0.00
209, 5345.38, 75526.34, 12699.43, 32810.62, -42205.64, -2262.06, 9522.04, -44478.67, -2984.20, 41329.16, 13173.83, -31579.15, 0.00, 0.00, 0.00, 0.00, 0.00, 0.00, 0.00
210, 5345.38, 75526.34, 12699.43, 32810.62, -42205.64, -2262.06, 9522.04, -44478.67, -2997.97, 41327.39, 13170.54, -31565.31, 0.00, 0.00, 0.00, 0.00, 0.00, 0.00, 0.00
211, 5322.22, 75489.75, 12681.84, 32800.38, -42214.11, -2283.28, 9519.50, -44485.38, -2997.97, 41327.39, 13170.54, -31565.31, 0.00, 0.00, 0.00, 0.00, -0.03, 0.36, 0.94
212, 5322.22, 75489.75, 12681.84, 32800.38, -42214.11, -2283.28, 9519.50, -44485.38, -2985.46, 41328.91, 13133.42, -31582.57, 0.00, 0.00, 0.00, 0.00, 0.00, 0.00, 0.00
213, 5318.55, 75488.97, 12684.39, 32815.33, -42185.34, -2253.59, 9539.12, -44465.60, -2985.46, 41328.91, 13133.42, -31582.57, 0.00, 0.00, 0.00, 0.00, 0.00, 0.00, 0.00
214, 5318.55, 75488.97, 12684.39, 32815.33, -42185.34, -2253.59, 9539.12, -44465.60, -2968.33, 41356.47, 13125.30, -31589.09, 0.00, 0.00, 0.00, 0.00, 0.00, 0.00, 0.00
215, 5282.68, 75446.27, 12634.75, 32806.48, -42216.50, -2273.78, 9514.04, -44485.87, -2968.33, 41356.47, 13125.30, -31589.09, 0.00, 0.00, 0.00, 0.00, 0.00, 0.00, 0.00
216, 5282.68, 75446.27, 12634.75, 32806.48, -42216.50, -2273.78, 9514.04, -44485.87, -2986.98, 41326.41, 13051.34, -31550.04, 0.00, 0.00, 0.00, 0.00, 0.00, 0.00, 0.00
217, 5262.65, 75440.33, 12634.35, 32828.86, -42168.06, -2260.74, 9545.51, -44448.03, -2986.98, 41326.41, 13051.34, -31550.04, 0.00, 0.00, 0.00, 0.00, 0.00, 0.00, 0.00
218, 5262.65, 75440.33, 12634.35, 32828.86, -42168.06, -2260.74, 9545.51, -44448.03, -2964.33, 41357.72, 12937.14, -31543.32, 0.00, 0.00, 0.00, 0.00, 0.00, 0.00, 0.00
219, 5203.60, 75398.63, 12577.62, 32812.54, -42187.04, -2266.71, 9533.76, -44459.14, -2964.33, 41357.72, 12937.14, -31543.32, 0.00, 0.00, 0.00, 0.00, 0.00, 0.00, 0.00
220, 5203.60, 75398.63, 12577.62, 32812.54, -42187.04, -2266.71, 9533.76, -44459.14, -2953.40, 41354.41, 12829.68, -31521.23, 0.00, 0.00, 0.00, 0.00, 0.00, 0.00, 0.00
221, 5188.06, 75389.70, 12585.31, 32877.56, -42135.68, -2217.49, 9573.74, -44420.16, -2953.40, 41354.41, 12829.68, -31521.23, 0.00, 0.00, 0.00, 0.00, -0.03, 0.36, 0.94
222, 5188.06, 75389.70, 12585.31, 32877.56, -42135.68, -2217.49, 9573.74, -44420.16, -2941.74, 41368.96, 12728.33, -31537.73, 0.00, 0.00, 0.00, 0.00, 0.00, 0.00, 0.00
223, 5129.39, 75323.12, 12516.53, 32853.91, -42169.71, -2248.52, 9541.60, -44459.54, -2941.74, 41368.96, 12728.33, -31537.73, 0.00, 0.00, 0.00, 0.00, 0.00, 0.00, 0.00
224, 5129.39, 75323.12, 12516.53, 32853.91, -42169.71, -2248.52, 9541.60, -44459.54, -2971.37, 41337.36, 12631.28, -31507.08, 0.00, 0.00, 0.00, 0.00, 0.00, 0.00, 0.00
225, 5128.67, 75336.75, 12528.98, 32885.38, -42142.02, -2230.77, 9574.35, -44423.35, -2971.37, 41337.36, 12631.28, -31507.08, 0.00, 0.00, 0.00, 0.00, 0.00, 0.00, 0.00
226, 5128.67, 75336.75, 12528.98, 32885.38, -42142.02, -2230.77, 9574.35, -44423.35, -2947.70, 41360.49, 12618.54, -31512.16, 0.00, 0.00, 0.00, 0.00, 0.00, 0.00, 0.00
227, 5131.56, 75343.28, 12529.87, 32891.62, -42143.54, -2221.94, 9552.78, -44435.38, -2947.70, 41360.49, 12618.54, -31512.16, 0.00, 0.00, 0.00, 0.00, 0.00, 0.00, 0.00
228, 5131.56, 75343.28, 12529.87, 32891.62, -42143.54, -2221.94, 9552.78, -44435.38, -2951.32, 41358.10, 12633.50, -31505.86, 0.00, 0.00, 0.00, 0.00, 0.00, 0.00, 0.00
229, 5142.29, 75334.16, 12535.10, 32897.83, -42160.86, -2225.23, 9564.09, -44420.54, -2951.32, 41358.10, 12633.50, -31505.86, 0.00, 0.00, 0.00, 0.00, 0.00, 0.00, 0.00
230, 5142.29, 75334.16, 12535.10, 32897.83, -42160.86, -2225.23, 9564.09, -44420.54, -2956.04, 41371.22, 12692.21, -31509.90, 0.00, 0.00, 0.00, 0.00, 0.00, 0.00, 0.00
231, 5168.91, 75362.79, 12561.41, 32896.29, -42158.00, -2238.66, 9560.22, -44418.79, -2956.04, 41371.22, 12692.21, -31509.90, 0.00, 0.00, 0.00, 0.00, -0.03, 0.36, 0.94
232, 5168.91, 75362.79, 12561.41, 32896.29, -42158.00, -2238.66, 9560.22, -44418.79, -2933.20, 41367.29, 12764.30, -31472.24, 0.00, 0.00, 0.00, 0.00, 0.00, 0.00, 0.00
233, 5197.72, 75399.20, 12587.29, 32886.19, -42148.37, -2230.66, 9562.48, -44421.09, -2933.20, 41367.29, 12764.30, -31472.24, 0.00, 0.00, 0.00, 0.00, 0.00, 0.00, 0.00
234, 5197.72, 75399.20, 12587.29, 32886.19, -42148.37, -2230.66, 9562.48, -44421.09, -2930.11, 41371.78, 12849.15, -31479.44, 0.00, 0.00, 0.00, 0.00, 0.00, 0.00, 0.00
235, 5226.87, 75435.46, 12613.38, 32884.29, -42146.58, -2222.28, 9568.04, -44409.29, -2930.11, 41371.78, 12849.15, -31479.44, 0.00, 0.00, 0.00, 0.00, 0.00, 0.00, 0.00
236, 5226.87, 75435.46, 12613.38, 32884.29, -42146.58, -2222.28, 9568.04, -44409.29, -2937.29, 41374.55, 12890.76, -31463.19, 0.00, 0.00, 0.00, 0.00, 0.00, 0.00, 0.00
237, 5237.24, 75431.30, 12618.65, 32870.70, -42162.45, -2247.69, 9563.08, -44407.42, -2937.29, 41374.55, 12890.76, -31463.19, 0.00, 0.00, 0.00, 0.00, 0.00, 0.00, 0.00
238, 5237.24, 75431.30, 12618.65, 32870.70, -42162.45, -2247.69, 9563.08, -44407.42, -2930.22, 41373.01, 12962.78, -31480.96, 0.00, 0.00, 0.00, 0.00, 0.00, 0.00, 0.00
239, 5262.76, 75456.85, 12643.04, 32875.28, -42152.68, -2236.36, 9556.73, -44408.29, -2930.22, 41373.01, 12962.78, -31480.96, 0.00, 0.00, 0.00, 0.00, 0.00, 0.00, 0.00
240, 5262.76, 75456.85, 12643.04, 32875.28, -42152.68, -2236.36, 9556.73, -44408.29, -2938.52, 41342.32, 12987.53, -31458.18, 0.00, 0.00, 0.00, 0.00, -0.03, 0.36, 0.93
241, 5267.17, 75466.44, 12646.28, 32862.36, -42163.57, -2241.43, 9554.39, -44416.89, -2938.52, 41342.32, 12987.53, -31458.18, 0.00, 0.00, 0.00, 0.00, 0.00, 0.00, 0.00
242, 5267.17, 75466.44, 12646.28, 32862.36, -42163.57, -2241.43, 9554.39, -44416.89, -2916.75, 41365.61, 13045.68, -31481.76, 0.00, 0.00, 0.00, 0.00, 0.00, 0.00, 0.00
243, 5286.66, 75480.34, 12666.13, 32866.61, -42150.11, -2234.03, 9564.00, -44407.95, -2916.75, 41365.61, 13045.68, -31481.76, 0.00, 0.00, 0.00, 0.00, 0.00, 0.00, 0.00
244, 5286.66, 75480.34, 12666.13, 32866.61, -42150.11, -2234.03, 9564.00, -44407.95, -2935.52, 41348.25, 13053.60, -31465.58, 0.00, 0.00, 0.00, 0.00, 0.00, 0.00, 0.00
245, 5279.44, 75477.63, 12655.16, 32843.90, -42174.81, -2247.80, 9542.45, -44424.52, -2935.52, 41348.25, 13053.60, -31465.58, 0.00, 0.00, 0.00, 0.00, 0.00, 0.00, 0.00
246, 5279.44, 75477.63, 12655.16, 32843.90, -42174.81, -2247.80, 9542.45, -44424.52, -2932.48, 41357.23, 13099.22, -31481.92, 0.00, 0.00, 0.00, 0.00, 0.00, 0.00, 0.00
247, 5312.72, 75515.37, 12687.72, 32866.36, -42153.38, -2235.29, 9563.53, -44399.13, -2932.48, 41357.23, 13099.22, -31481.92, 0.00, 0.00, 0.00, 0.00, 0.00, 0.00, 0.00
248, 5312.72, 75515.37, 12687.72, 32866.36, -42153.38, -2235.29, 9563.53, -44399.13, -2919.58, 41354.84, 13120.43, -31439.54, 0.00, 0.00, 0.00, 0.00, 0.00, 0.00, 0.00
249, 5303.53, 75491.54, 12673.42, 32839.41, -42169.38, -2257.86, 9539.14, -44431.85, -2919.58, 41354.84, 13120.43, -31439.54, 0.00, 0.00, 0.00, 0.00, 0.00, 0.00, 0.00
250, 5303.53, 75491.54, 12673.42, 32839.41, -42169.38, -2257.86, 9539.14, -44431.85, -2931.12, 41347.95, 13143.90, -31438.93, 0.00, 0.00, 0.00, 0.00, -0.02, 0.37, 0.94
251, 5321.88, 75510.67, 12693.17, 32856.62, -42164.11, -2240.54, 9560.49, -44405.49, -2931.12, 41347.95, 13143.90, -31438.93, 0.00, 0.00, 0.00, 0.00, 0.00, 0.00, 0.00
252, 5321.88, 75510.67, 12693.17, 32856.62, -42164.11, -2240.54, 9560.49, -44405.49, -2940.35, 41335.23, 13153.71, -31464.50, 0.00, 0.00, 0.00, 0.00, 0.00, 0.00, 0.00
253, 5308.70, 75484.66, 12675.45, 32833.55, -42183.91, -2253.79, 9528.26, -44432.00, -2940.35, 41335.23, 13153.71, -31464.50, 0.00, 0.00, 0.00, 0.00, 0.00, 0.00, 0.00
254, 5308.70, 75484.66, 12675.45, 32833.55, -42183.91, -2253.79, 9528.26, -44432.00, -2938.27, 41331.28, 13162.92, -31468.04, 0.00, 0.00, 0.00, 0.00, 0.00, 0.00, 0.00
255, 5338.80, 75525.80, 12706.50, 32858.58, -42166.21, -2233.68, 9553.02, -44415.42, -2938.27, 41331.28, 13162.92, -31468.04, 0.00, 0.00, 0.00, 0.00, 0.00, 0.00, 0.00
0, 5338.80, 75525.80, 12706.50, 32858.58, -42166.21, -2233.68, 9553.02, -44415.42, -2932.62, 41356.67, 13175.73, -31436.88, 0.00, 0.00, 0.00, 0.00, 0.00, 0.00, 0.00
1, 5323.11, 75505.29, 12687.12, 32829.95, -42180.80, -2265.84, 9536.59, -44434.91, -2932.62, 41356.67, 13175.73, -31436.88, 0.00, 0.00, 0.00, 0.00, 0.00, 0.00, 0.00
2, 5323.11, 75505.29, 12687.12, 32829.95, -42180.80, -2265.84, 9536.59, -44434.91, -2934.11, 41330.95, 13183.71, -31421.41, 0.00, 0.00, 0.00, 0.00, 0.00, 0.00, 0.00
3, 5348.46, 75529.20, 12714.79, 32857.49, -42162.81, -2241.54, 9560.53, -44407.15, -2934.11, 41330.95, 13183.71, -31421.41, 0.00, 0.00, 0.00, 0.00, 0.00, 0.00, 0.00
4, 5348.46, 75529.20, 12714.79, 32857.49, -42162.81, -2241.54, 9560.53, -44407.15, -2931.79, 41334.86, 13197.18, -31459.99, 0.00, 0.00, 0.00, 0.00, -0.02, 0.36, 0.94
5, 5340.77, 75525.78, 12704.60, 32838.24, -42172.55, -2252.14, 9528.33, -44426.15, -2931.79, 41334.86, 13197.18, -31459.99, 0.00, 0.00, 0.00, 0.00, 0.00, 0.00, 0.00
6, 5340.77, 75525.78, 12704.60, 32838.24, -42172.55, -2252.14, 9528.33, -44426.15, -2926.11, 41341.92, 13208.09, -31442.53, 0.00, 0.00, 0.00, 0.00, 0.00, 0.00, 0.00
7, 5365.98, 75556.85, 12735.17, 32870.45, -42150.27, -2226.93, 9567.62, -44398.77, -2926.11, 41341.92, 13208.09, -31442.53, 0.00, 0.00, 0.00, 0.00, 0.00, 0.00, 0.00
8, 5365.98, 75556.85, 12735.17, 32870.45, -42150.27, -2226.93, 9567.62, -44398.77, -2924.64, 41339.46, 13227.40, -31390.25, 0.00, 0.00, 0.00, 0.00, 0.00, 0.00, 0.00
9, 5357.20, 75537.36, 12722.12, 32856.01, -42166.21, -2231.55, 9553.85, -44400.44, -2924.64, 41339.46, 13227.40, -31390.25, 0.00, 0.00, 0.00, 0.00, 0.00, 0.00, 0.00
10, 5357.20, 75537.36, 12722.12, 32856.01, -42166.21, -2231.55, 9553.85, -44400.44, -2929.87, 41323.19, 13216.97, -31414.55, 0.00, 0.00, 0.00, 0.00, 0.00, 0.00, 0.00
11, 5366.47, 75547.28, 12734.30, 32864.95, -42151.84, -2233.90, 9562.86, -44405.27, -2929.87, 41323.19, 13216.97, -31414.55, 0.00, 0.00, 0.00, 0.00, 0.00, 0.00, 0.00
12, 5366.47, 75547.28, 12734.30, 32864.95, -42151.84, -2233.90, 9562.86, -44405.27, -2933.26, 41339.30, 13227.65, -31427.04, 0.00, 0.00, 0.00, 0.00, 0.00, 0.00, 0.00
13, 5349.87, 75536.45, 12715.86, 32842.36, -42171.37, -2253.26, 9538.92, -44421.48, -2933.26, 41339.30, 13227.65, -31427.04, 0.00, 0.00, 0.00, 0.00, 0.00, 0.00, 0.00
14, 5349.87, 75536.45, 12715.86, 32842.36, -42171.37, -2253.26, 9538.92, -44421.48, -2925.57, 41330.30, 13219.98, -31406.39, 0.00, 0.00, 0.00, 0.00, -0.02, 0.37, 0.94
15, 5360.98, 75547.04, 12729.68, 32862.61, -42157.85, -2226.70, 9553.92, -44402.01, -2925.57, 41330.30, 13219.98, -31406.39, 0.00, 0.00, 0.00, 0.00, 0.00, 0.00, 0.00
16, 5360.98, 75547.04, 12729.68, 32862.61, -42157.85, -2226.70, 9553.92, -44402.01, -2934.74, 41324.86, 13229.37, -31394.12, 0.00, 0.00, 0.00, 0.00, 0.00, 0.00, 0.00
17, 5349.44, 75532.89, 12717.81, 32846.13, -42167.97, -2248.56, 9544.53, -44414.25, -2934.74, 41324.86, 13229.37, -31394.12, 0.00, 0.00, 0.00, 0.00, 0.00, 0.00, 0.00
18, 5349.44, 75532.89, 12717.81, 32846.13, -42167.97, -2248.56, 9544.53, -44414.25, -2942.70, 41314.56, 13212.16, -31392.11, 0.00, 0.00, 0.00, 0.00, 0.00, 0.00, 0.00
19, 5357.31, 75537.88, 12724.56, 32857.31, -42162.14, -2239.51, 9554.30, -44410.88, -2942.70, 41314.56, 13212.16, -31392.11, 0.00, 0.00, 0.00, 0.00, 0.00, 0.00, 0.00
20, 5357.31, 75537.88, 12724.56, 32857.31, -42162.14, -2239.51, 9554.30, -44410.88, -2927.03, 41333.16, 13234.89, -31438.09, 0.00, 0.00, 0.00, 0.00, 0.00, 0.00, 0.00
21, 5352.77, 75533.23, 12721.05, 32846.89, -42168.57, -2243.85, 9529.98, -44424.49, -2927.03, 41333.16, 13234.89, -31438.09, 0.00, 0.00, 0.00, 0.00, 0.00, 0.00, 0.00
22, 5352.77, 75533.23, 12721.05, 32846.89, -42168.57, -2243.85, 9529.98, -44424.49, -2937.24, 41310.70, 13216.21, -31351.09, 0.00, 0.00, 0.00, 0.00, 0.00, 0.00, 0.00
23, 5351.01, 75532.47, 12720.87, 32848.43, -42169.22, -2240.29, 9544.55, -44406.54, -2937.24, 41310.70, 13216.21, -31351.09, 0.00, 0.00, 0.00, 0.00, -0.02, 0.36, 0.94
24, 5351.01, 75532.47, 12720.87, 32848.43, -42169.22, -2240.29, 9544.55, -44406.54, -2930.67, 41338.66, 13238.51, -31381.09, 0.00, 0.00, 0.00, 0.00, 0.00, 0.00, 0.00
25, 5356.60, 75542.30, 12726.10, 32849.46, -42164.39, -2247.36, 9550.27, -44397.56, -2930.67, 41338.66, 13238.51, -31381.09, 0.00, 0.00, 0.00, 0.00, 0.00, 0.00, 0.00
26, 5356.60, 75542.30, 12726.10, 32849.46, -42164.39, -2247.36, 9550.27, -44397.56, -2928.41, 41321.63, 13231.65, -31373.53, 0.00, 0.00, 0.00, 0.00, 0.00, 0.00, 0.00
27, 5358.61, 75548.70, 12728.60, 32849.78, -42159.79, -2242.15, 9546.65, -44403.57, -2928.41, 41321.63, 13231.65, -31373.53, 0.00, 0.00, 0.00, 0.00, 0.00, 0.00, 0.00
28, 5358.61, 75548.70, 12728.60, 32849.78, -42159.79, -2242.15, 9546.65, -44403.57, -2930.83, 41331.64, 13247.66, -31392.15, 0.00, 0.00, 0.00, 0.00, 0.00, 0.00, 0.00
29, 5360.80, 75547.80, 12731.08, 32851.88, -42161.71, -2244.94, 9545.51, -44402.36, -2930.83, 41331.64, 13247.66, -31392.15, 0.00, 0.00, 0.00, 0.00, 0.00, 0.00, 0.00
30, 5360.80, 75547.80, 12731.08, 32851.88, -42161.71, -2244.94, 9545.51, -44402.36, -2919.43, 41317.18, 13243.01, -31348.46, 0.00, 0.00, 0.00, 0.00, 0.00, 0.00, 0.00
31, 5365.33, 75551.73, 12734.55, 32846.20, -42159.10, -2246.53, 9536.59, -44411.71, -2919.43, 41317.18, 13243.01, -31348.46, 0.00, 0.00, 0.00, 0.00, 0.00, 0.00, 0.00
32, 5365.33, 75551.73, 12734.55, 32846.20, -42159.10, -2246.53, 9536.59, -44411.71, -2924.48, 41327.57, 13261.42, -31351.56, 0.00, 0.00, 0.00, 0.00, 0.00, 0.00, 0.00
33, 5377.94, 75562.84, 12746.39, 32862.94, -42153.00, -2227.42, 9556.91, -44388.35, -2924.48, 41327.57, 13261.42, -31351.56, 0.00, 0.00, 0.00, 0.00, -0.03, 0.36, 0.94
34, 5377.94, 75562.84, 12746.39, 32862.94, -42153.00, -2227.42, 9556.91, -44388.35, -2917.93, 41326.38, 13258.38, -31342.80, 0.00, 0.00, 0.00, 0.00, 0.00, 0.00, 0.00
35, 5366.43, 75550.15, 12739.22, 32853.98, -42159.88, -2235.64, 9539.12, -44412.51, -2917.93, 41326.38, 13258.38, -31342.80, 0.00, 0.00, 0.00, 0.00, 0.00, 0.00, 0.00
36, 5366.43, 75550.15, 12739.22, 32853.98, -42159.88, -2235.64, 9539.12, -44412.51, -2921.33, 41330.79, 13263.32, -31361.84, 0.00, 0.00, 0.00, 0.00, 0.00, 0.00, 0.00
37, 5372.96, 75558.59, 12744.14, 32861.15, -42149.91, -2239.20, 9554.57, -44385.00, -2921.33, 41330.79, 13263.32, -31361.84, 0.00, 0.00, 0.00, 0.00, 0.00, 0.00, 0.00
38, 5372.96, 75558.59, 12744.14, 32861.15, -42149.91, -2239.20, 9554.57, -44385.00, -2939.14, 41309.60, 13247.72, -31342.46, 0.00, 0.00, 0.00, 0.00, 0.00, 0.00, 0.00
39, 5362.47, 75541.83, 12729.27, 32842.40, -42170.92, -2252.81, 9541.45, -44401.31, -2939.14, 41309.60, 13247.72, -31342.46, 0.00, 0.00, 0.00, 0.00, 0.00, 0.00, 0.00
40, 5362.47, 75541.83, 12729.27, 32842.40, -42170.92, -2252.81, 9541.45, -44401.31, -2919.76, 41321.54, 13265.02, -31342.02, 0.00, 0.00, 0.00, 0.00, 0.00, 0.00, 0.00
41, 5383.60, 75564.23, 12753.55, 32870.50, -42141.91, -2221.12, 9561.94, -44383.39, -2919.76, 41321.54, 13265.02, -31342.02, 0.00, 0.00, 0.00, 0.00, 0.00, 0.00, 0.00
42, 5383.60, 75564.23, 12753.55, 32870.50, -42141.91, -2221.12, 9561.94, -44383.39, -2920.81, 41316.98, 13252.15, -31298.97, 0.00, 0.00, 0.00, 0.00, 0.00, 0.00, 0.00
43, 5361.94, 75542.16, 12728.33, 32841.39, -42158.47, -2256.48, 9524.26, -44407.98, -2920.81, 41316.98, 13252.15, -31298.97, 0.00, 0.00, 0.00, 0.00, -0.02, 0.36, 0.94
44, 5361.94, 75542.16, 12728.33, 32841.39, -42158.47, -2256.48, 9524.26, -44407.98, -2919.99, 41326.34, 13253.20, -31334.93, 0.00, 0.00, 0.00, 0.00, 0.00, 0.00, 0.00
45, 5369.49, 75550.59, 12737.70, 32855.27, -42155.99, -2239.91, 9544.69, -44393.27, -2919.99, 41326.34, 13253.20, -31334.93, 0.00, 0.00, 0.00, 0.00, 0.00, 0.00, 0.00
46, 5369.49, 75550.59, 12737.70, 32855.27, -42155.99, -2239.91, 9544.69, -44393.27, -2926.38, 41308.32, 13257.60, -31328.96, 0.00, 0.00, 0.00, 0.00, 0.00, 0.00, 0.00
47, 5354.11, 75537.00, 12721.47, 32837.35, -42176.06, -2257.55, 9525.80, -44418.17, -2926.38, 41308.32, 13257.60, -31328.96, 0.00, 0.00, 0.00, 0.00, 0.00, 0.00, 0.00
48, 5354.11, 75537.00, 12721.47, 32837.35, -42176.06, -2257.55, 9525.80, -44418.17, -2919.41, 41311.01, 13254.61, -31323.85, 0.00, 0.00, 0.00, 0.00, 0.00, 0.00, 0.00
49, 5372.40, 75556.36, 12740.38, 32851.79, -42155.41, -2246.19, 9545.40, -44391.01, -2919.41, 41311.01, 13254.61, -31323.85, 0.00, 0.00, 0.00, 0.00, 0.00, 0.00, 0.00
50, 5372.40, 75556.36, 12740.38, 32851.79, -42155.41, -2246.19, 9545.40, -44391.01, -2919.05, 41312.41, 13264.71, -31309.00, 0.00, 0.00, 0.00, 0.00, 0.00, 0.00, 0.00
51, 5356.44, 75539.30, 12721.12, 32834.82, -42168.09, -2252.47, 9520.97, -44401.79, -2919.05, 41312.41, 13264.71, -31309.00, 0.00, 0.00, 0.00, 0.00, 0.00, 0.00, 0.00
52, 5356.44, 75539.30, 12721.12, 32834.82, -42168.09, -2252.47, 9520.97, -44401.79, -2924.70, 41298.69, 13257.47, -31309.72, 0.00, 0.00, 0.00, 0.00, 0.00, 0.00, 0.00
53, 5371.21, 75553.59, 12737.43, 32850.87, -42158.56, -2248.27, 9539.32, -44389.96, -2924.70, 41298.69, 13257.47, -31309.72, 0.00, 0.00, 0.00, 0.00, -0.02, 0.36, 0.94
54, 5371.21, 75553.59, 12737.43, 32850.87, -42158.56, -2248.27, 9539.32, -44389.96, -2918.09, 41314.56, 13272.80, -31289.33, 0.00, 0.00, 0.00, 0.00, 0.00, 0.00, 0.00
55, 5360.82, 75544.31, 12729.61, 32832.50, -42167.48, -2261.35, 9526.85, -44412.02, -2918.09, 41314.56, 13272.80, -31289.33, 0.00, 0.00, 0.00, 0.00, 0.00, 0.00, 0.00
56, 5360.82, 75544.31, 12729.61, 32832.50, -42167.48, -2261.35, 9526.85, -44412.02, -2908.72, 41316.86, 13266.30, -31326.13, 0.00, 0.00, 0.00, 0.00, 0.00, 0.00, 0.00
57, 5375.26, 75562.39, 12745.75, 32851.00, -42148.23, -2244.94, 9533.91, -44397.52, -2908.72, 41316.86, 13266.30, -31326.13, 0.00, 0.00, 0.00, 0.00, 0.00, 0.00, 0.00
58, 5375.26, 75562.39, 12745.75, 32851.00, -42148.23, -2244.94, 9533.91, -44397.52, -2907.89, 41307.39, 13276.80, -31292.82, 0.00, 0.00, 0.00, 0.00, 0.00, 0.00, 0.00
59, 5365.51, 75548.76, 12735.69, 32837.17, -42165.40, -2254.35, 9522.09, -44406.68, -2907.89, 41307.39, 13276.80, -31292.82, 0.00, 0.00, 0.00, 0.00, 0.00, 0.00, 0.00
60, 5365.51, 75548.76, 12735.69, 32837.17, -42165.40, -2254.35, 9522.09, -44406.68, -2924.30, 41287.05, 13263.66, -31266.02, 0.00, 0.00, 0.00, 0.00, 0.00, 0.00, 0.00
61, 5380.36, 75561.59, 12748.25, 32853.93, -42147.27, -2245.43, 9549.72, -44377.49, -2924.30, 41287.05, 13263.66, -31266.02, 0.00, 0.00, 0.00, 0.00, 0.00, 0.00, 0.00
62, 5380.36, 75561.59, 12748.25, 32853.93, -42147.27, -2245.43, 9549.72, -44377.49, -2913.48, 41310.49, 13279.13, -31284.98, 0.00, 0.00, 0.00, 0.00, -0.02, 0.37, 0.94
63, 5372.26, 75551.04, 12740.14, 32842.78, -42150.63, -2259.29, 9525.35, -44403.55, -2913.48, 41310.49, 13279.13, -31284.98, 0.00, 0.00, 0.00, 0.00, 0.00, 0.00, 0.00
64, 5372.26, 75551.04, 12740.14, 32842.78, -42150.63, -2259.29, 9525.35, -44403.55, -2910.67, 41304.35, 13271.77, -31268.08, 0.00, 0.00, 0.00, 0.00, 0.00, 0.00, 0.00
65, 5379.19, 75557.88, 12748.54, 32856.84, -42153.27, -2246.13, 9542.14, -44390.68, -2910.67, 41304.35, 13271.77, -31268.08, 0.00, 0.00, 0.00, 0.00, 0.00, 0.00, 0.00
66, 5379.19, 75557.88, 12748.54, 32856.84, -42153.27, -2246.13, 9542.14, -44390.68, -2902.91, 41313.36, 13283.91, -31285.62, 0.00, 0.00, 0.00, 0.00, 0.00, 0.00, 0.00
67, 5370.70, 75555.76, 12740.65, 32845.26, -42146.14, -2253.19, 9534.65, -44390.32, -2902.91, 41313.36, 13283.91, -31285.62, 0.00, 0.00, 0.00, 0.00, 0.00, 0.00, 0.00
68, 5370.70, 75555.76, 12740.65, 32845.26, -42146.14, -2253.19, 9534.65, -44390.32, -2908.54, 41285.17, 13272.91, -31251.89, 0.00, 0.00, 0.00, 0.00, 0.00, 0.00, 0.00
69, 5372.15, 75561.08, 12747.60, 32849.24, -42140.75, -2247.69, 9544.44, -44375.68, -2908.54, 41285.17, 13272.91, -31251.89, 0.00, 0.00, 0.00, 0.00, 0.00, 0.00, 0.00
70, 5372.15, 75561.08, 12747.60, 32849.24, -42140.75, -2247.69, 9544.44, -44375.68, -2902.49, 41313.22, 13284.76, -31274.65, 0.00, 0.00, 0.00, 0.00, 0.00, 0.00, 0.00
71, 5358.47, 75548.20, 12733.81, 32843.99, -42156.95, -2254.37, 9533.87, -44397.89, -2902.49, 41313.22, 13284.76, -31274.65, 0.00, 0.00, 0.00, 0.00, 0.00, 0.00, 0.00
72, 5358.47, 75548.20, 12733.81, 32843.99, -42156.95, -2254.37, 9533.87, -44397.89, -2913.75, 41290.60, 13265.07, -31255.47, 0.00, 0.00, 0.00, 0.00, -0.02, 0.37, 0.94
73, 5357.49, 75537.25, 12730.46, 32838.78, -42148.50, -2263.00, 9537.96, -44389.96, -2913.75, 41290.60, 13265.07, -31255.47, 0.00, 0.00, 0.00, 0.00, 0.00, 0.00, 0.00
74, 5357.49, 75537.25, 12730.46, 32838.78, -42148.50, -2263.00, 9537.96, -44389.96, -2890.44, 41319.32, 13285.65, -31298.01, 0.00, 0.00, 0.00, 0.00, 0.00, 0.00, 0.00
75, 5361.62, 75542.63, 12734.10, 32844.43, -42139.68, -2254.08, 9536.42, -44382.18, -2890.44, 41319.32, 13285.65, -31298.01, 0.00, 0.00, 0.00, 0.00, 0.00, 0.00, 0.00
76, 5361.62, 75542.63, 12734.10, 32844.43, -42139.68, -2254.08, 9536.42, -44382.18, -2914.85, 41269.48, 13262.70, -31225.32, 0.00, 0.00, 0.00, 0.00, 0.00, 0.00, 0.00
77, 5351.41, 75535.33, 12725.09, 32838.58, -42151.10, -2252.70, 9527.90, -44392.62, -2914.85, 41269.48, 13262.70, -31225.32, 0.00, 0.00, 0.00, 0.00, 0.00, 0.00, 0.00
78, 5351.41, 75535.33, 12725.09, 32838.58, -42151.10, -2252.70, 9527.90, -44392.62, -2917.30, 41284.72, 13269.78, -31263.50, 0.00, 0.00, 0.00, 0.00, 0.00, 0.00, 0.00
79, 5368.62, 75559.58, 12739.98, 32848.05, -42143.61, -2253.66, 9537.29, -44385.00, -2917.30, 41284.72, 13269.78, -31263.50, 0.00, 0.00, 0.00, 0.00, 0.00, 0.00, 0.00
80, 5368.62, 75559.58, 12739.98, 32848.05, -42143.61, -2253.66, 9537.29, -44385.00, -2911.83, 41275.69, 13268.98, -31234.01, 0.00, 0.00, 0.00, 0.00, 0.00, 0.00, 0.00
81, 5359.75, 75541.90, 12732.67, 32835.41, -42147.79, -2273.71, 9526.76, -44398.97, -2911.83, 41275.69, 13268.98, -31234.01, 0.00, 0.00, 0.00, 0.00, 0.00, 0.00, 0.00
82, 5359.75, 75541.90, 12732.67, 32835.41, -42147.79, -2273.71, 9526.76, -44398.97, -2904.97, 41299.83, 13288.87, -31259.81, 0.00, 0.00, 0.00, 0.00, -0.03, 0.36, 0.93
83, 5373.36, 75554.28, 12747.69, 32853.20, -42142.02, -2255.00, 9543.64, -44385.76, -2904.97, 41299.83, 13288.87, -31259.81, 0.00, 0.00, 0.00, 0.00, 0.00, 0.00, 0.00
84, 5373.36, 75554.28, 12747.69, 32853.20, -42142.02, -2255.00, 9543.64, -44385.76, -2903.40, 41281.66, 13271.30, -31224.18, 0.00, 0.00, 0.00, 0.00, 0.00, 0.00, 0.00
85, 5357.62, 75539.08, 12735.22, 32841.24, -42141.11, -2259.16, 9536.42, -44389.07, -2903.40, 41281.66, 13271.30, -31224.18, 0.00, 0.00, 0.00, 0.00, 0.00, 0.00, 0.00
86, 5357.62, 75539.08, 12735.22, 32841.24, -42141.11, -2259.16, 9536.42, -44389.07, -2900.00, 41284.92, 13288.76, -31219.08, 0.00, 0.00, 0.00, 0.00, 0.00, 0.00, 0.00
87, 5378.75, 75562.26, 12755.60, 32863.16, -42128.68, -2237.03, 9549.38, -44372.14, -2900.00, 41284.92, 13288.76, -31219.08, 0.00, 0.00, 0.00, 0.00, 0.00, 0.00, 0.00
88, 5378.75, 75562.26, 12755.60, 32863.16, -42128.68, -2237.03, 9549.38, -44372.14, -2917.60, 41272.47, 13268.06, -31238.53, 0.00, 0.00, 0.00, 0.00, 0.00, 0.00, 0.00
89, 5356.53, 75536.17, 12734.57, 32842.02, -42147.54, -2260.36, 9530.14, -44396.93, -2917.60, 41272.47, 13268.06, -31238.53, 0.00, 0.00, 0.00, 0.00, 0.00, 0.00, 0.00
90, 5356.53, 75536.17, 12734.57, 32842.02, -42147.54, -2260.36, 9530.14, -44396.93, -2905.28, 41292.99, 13277.43, -31248.63, 0.00, 0.00, 0.00, 0.00, 0.00, 0.00, 0.00
91, 5369.36, 75556.23, 12752.05, 32859.72, -42125.28, -2248.47, 9549.07, -44376.21, -2905.28, 41292.99, 13277.43, -31248.63, 0.00, 0.00, 0.00, 0.00, 0.00, 0.00, 0.00
92, 5369.36, 75556.23, 12752.05, 32859.72, -42125.28, -2248.47, 9549.07, -44376.21, -2908.07, 41282.80, 13273.45, -31261.71, 0.00, 0.00, 0.00, 0.00, -0.02, 0.37, 0.94
93, 5344.15, 75528.27, 12727.53, 32827.80, -42149.84, -2273.37, 9527.50, -44404.73, -2908.07, 41282.80, 13273.45, -31261.71, 0.00, 0.00, 0.00, 0.00, 0.00, 0.00, 0.00
94, 5344.15, 75528.27, 12727.53, 32827.80, -42149.84, -2273.37, 9527.50, -44404.73, -2908.39, 41265.27, 13280.58, -31243.42, 0.00, 0.00, 0.00, 0.00, 0.00, 0.00, 0.00
95, 5361.92, 75547.91, 12747.49, 32855.14, -42124.05, -2250.66, 9563.24, -44365.24, -2908.39, 41265.27, 13280.58, -31243.42, 0.00, 0.00, 0.00, 0.00, 0.00, 0.00, 0.00
96, 5361.92, 75547.91, 12747.49, 32855.14, -42124.05, -2250.66, 9563.24, -44365.24, -2913.48, 41270.73, 13272.20, -31263.61, 0.00, 0.00, 0.00, 0.00, 0.00, 0.00, 0.00
97, 5335.83, 75527.59, 12722.86, 32826.26, -42147.21, -2270.07, 9526.72, -44403.15, -2913.48, 41270.73, 13272.20, -31263.61, 0.00, 0.00, 0.00, 0.00, 0.00, 0.00, 0.00
98, 5335.83, 75527.59, 12722.86, 32826.26, -42147.21, -2270.07, 9526.72, -44403.15, -2911.63, 41271.64, 13270.34, -31329.01, 0.00, 0.00, 0.00, 0.00, 0.00, 0.00, 0.00
99, 5346.07, 75535.21, 12735.44, 32842.54, -42131.61, -2257.03, 9548.35, -44383.14, -2911.63, 41271.64, 13270.34, -31329.01, 0.00, 0.00, 0.00, 0.00, 0.00, 0.00, 0.00
100, 5346.07, 75535.21, 12735.44, 32842.54, -42131.61, -2257.03, 9548.35, -44383.14, -2911.14, 41272.59, 13275.42, -31312.98, 0.00, 0.00, 0.00, 0.00, 0.00, 0.00, 0.00
101, 5337.28, 75519.32, 12717.29, 32821.43, -42146.89, -2279.59, 9519.32, -44404.58, -2911.14, 41272.59, 13275.42, -31312.98, 0.00, 0.00, 0.00, 0.00, -0.01, 0.36, 0.95
102, 5337.28, 75519.32, 12717.29, 32821.43, -42146.89, -2279.59, 9519.32, -44404.58, -2907.56, 41284.83, 13268.15, -31397.76, 0.00, 0.00, 0.00, 0.00, 0.00, 0.00, 0.00
103, 5363.26, 75549.01, 12744.03, 32850.94, -42126.49, -2255.98, 9545.83, -44390.90, -2907.56, 41284.83, 13268.15, -31397.76, 0.00, 0.00, 0.00, 0.00, 0.00, 0.00, 0.00
104, 5363.26, 75549.01, 12744.03, 32850.94, -42126.49, -2255.98, 9545.83, -44390.90, -2917.26, 41250.97, 13278.46, -31402.52, 0.00, 0.00, 0.00, 0.00, 0.00, 0.00, 0.00
105, 5344.61, 75526.41, 12721.38, 32827.56, -42154.25, -2274.96, 9533.78, -44401.43, -2917.26, 41250.97, 13278.46, -31402.52, 0.00, 0.00, 0.00, 0.00, 0.00, 0.00, 0.00
106, 5344.61, 75526.41, 12721.38, 32827.56, -42154.25, -2274.96, 9533.78, -44401.43, -2918.38, 41243.97, 13268.33, -31427.42, 0.00, 0.00, 0.00, 0.00, 0.00, 0.00, 0.00
107, 5367.68, 75553.61, 12749.03, 32856.95, -42124.70, -2249.10, 9554.74, -44386.81, -2918.38, 41243.97, 13268.33, -31427.42, 0.00, 0.00, 0.00, 0.00, 0.00, 0.00, 0.00
108, 5367.68, 75553.61, 12749.03, 32856.95, -42124.70, -2249.10, 9554.74, -44386.81, -2918.04, 41265.90, 13274.72, -31367.16, 0.00, 0.00, 0.00, 0.00, 0.00, 0.00, 0.00
109, 5344.61, 75530.32, 12724.60, 32829.30, -42145.82, -2272.21, 9530.45, -44400.22, -2918.04, 41265.90, 13274.72, -31367.16, 0.00, 0.00, 0.00, 0.00, 0.00, 0.00, 0.00
110, 5344.61, 75530.32, 12724.60, 32829.30, -42145.82, -2272.21, 9530.45, -44400.22, -2913.64, 41262.48, 13267.68, -31298.39, 0.00, 0.00, 0.00, 0.00, 0.00, 0.00, 0.00
111, 5365.36, 75550.39, 12746.75, 32852.57, -42124.01, -2255.51, 9553.29, -44388.48, -2913.64, 41262.48, 13267.68, -31298.39, 0.00, 0.00, 0.00, 0.00, 0.01, 0.34, 0.95
112, 5365.36, 75550.39, 12746.75, 32852.57, -42124.01, -2255.51, 9553.29, -44388.48, -2911.61, 41269.30, 13281.29, -31320.87, 0.00, 0.00, 0.00, 0.00, 0.00, 0.00, 0.00
113, 5358.52, 75542.86, 12741.30, 32846.49, -42132.72, -2255.02, 9539.21, -44403.37, -2911.61, 41269.30, 13281.29, -31320.87, 0.00, 0.00, 0.00, 0.00, 0.00, 0.00, 0.00
114, 5358.52, 75542.86, 12741.30, 32846.49, -42132.72, -2255.02, 9539.21, -44403.37, -2930.16, 41238.09, 13283.87, -31252.63, 0.00, 0.00, 0.00, 0.00, 0.00, 0.00, 0.00
115, 5377.58, 75556.25, 12762.78, 32870.36, -42110.37, -2249.61, 9571.02, -44379.75, -2930.16, 41238.09, 13283.87, -31252.63, 0.00, 0.00, 0.00, 0.00, 0.00, 0.00, 0.00
116, 5377.58, 75556.25, 12762.78, 32870.36, -42110.37, -2249.61, 9571.02, -44379.75, -2921.98, 41249.38, 13292.60, -31248.34, 0.00, 0.00, 0.00, 0.00, 0.00, 0.00, 0.00
117, 5342.94, 75527.73, 12724.00, 32832.57, -42144.93, -2270.67, 9534.20, -44401.20, -2921.98, 41249.38, 13292.60, -31248.34, 0.00, 0.00, 0.00, 0.00, 0.00, 0.00, 0.00
118, 5342.94, 75527.73, 12724.00, 32832.57, -42144.93, -2270.67, 9534.20, -44401.20, -2924.21, 41248.36, 13272.73, -31235.29, 0.00, 0.00, 0.00, 0.00, 0.00, 0.00, 0.00
119, 5355.32, 75539.23, 12738.86, 32829.84, -42138.98, -2269.75, 9547.08, -44403.44, -2924.21, 41248.36, 13272.73, -31235.29, 0.00, 0.00, 0.00, 0.00, 0.00, 0.00, 0.00
120, 5355.32, 75539.23, 12738.86, 32829.84, -42138.98, -2269.75, 9547.08, -44403.44, -2919.85, 41259.57, 13290.10, -31203.88, 0.00, 0.00, 0.00, 0.00, 0.00, 0.00, 0.00
121, 5356.37, 75545.72, 12741.12, 32830.91, -42136.73, -2266.85, 9552.40, -44384.30, -2919.85, 41259.57, 13290.10, -31203.88, 0.00, 0.00, 0.00, 0.00, -0.01, 0.36, 0.94
122, 5356.37, 75545.72, 12741.12, 32830.91, -42136.73, -2266.85, 9552.40, -44384.30, -2922.87, 41246.86, 13285.83, -31202.59, 0.00, 0.00, 0.00, 0.00, 0.00, 0.00, 0.00
123, 5352.44, 75543.51, 12739.26, 32828.63, -42133.91, -2266.33, 9550.30, -44388.53, -2922.87, 41246.86, 13285.83, -31202.59, 0.00, 0.00, 0.00, 0.00, 0.00, 0.00, 0.00
124, 5352.44, 75543.51, 12739.26, 32828.63, -42133.91, -2266.33, 9550.30, -44388.53, -2915.47, 41266.30, 13304.96, -31262.27, 0.00, 0.00, 0.00, 0.00, 0.00, 0.00, 0.00
125, 5363.19, 75550.41, 12750.22, 32843.27, -42122.38, -2253.26, 9558.12, -44399.04, -2915.47, 41266.30, 13304.96, -31262.27, 0.00, 0.00, 0.00, 0.00, 0.00, 0.00, 0.00
126, 5363.19, 75550.41, 12750.22, 32843.27, -42122.38, -2253.26, 9558.12, -44399.04, -2925.71, 41222.81, 13293.59, -31162.69, 0.00, 0.00, 0.00, 0.00, 0.00, 0.00, 0.00
127, 5353.73, 75542.84, 12739.55, 32832.21, -42136.84, -2268.86, 9548.08, -44392.98, -2925.71, 41222.81, 13293.59, -31162.69, 0.00, 0.00, 0.00, 0.00, 0.00, 0.00, 0.00
128, 5353.73, 75542.84, 12739.55, 32832.21, -42136.84, -2268.86, 9548.08, -44392.98, -2918.87, 41261.90, 13304.43, -31179.21, 0.00, 0.00, 0.00, 0.00, 0.00, 0.00, 0.00
129, 5355.30, 75543.40, 12744.12, 32839.38, -42128.14, -2262.76, 9558.68, -44390.12, -2918.87, 41261.90, 13304.43, -31179.21, 0.00, 0.00, 0.00, 0.00, 0.00, 0.00, 0.00
130, 5355.30, 75543.40, 12744.12, 32839.38, -42128.14, -2262.76, 9558.68, -44390.12, -2930.81, 41246.14, 13283.37, -31175.61, 0.00, 0.00, 0.00, 0.00, 0.00, 0.00, 0.00
131, 5346.00, 75530.37, 12731.71, 32828.41, -42141.22, -2271.79, 9545.96, -44410.07, -2930.81, 41246.14, 13283.37, -31175.61, 0.00, 0.00, 0.00, 0.00, -0.02, 0.36, 0.94
132, 5346.00, 75530.37, 12731.71, 32828.41, -42141.22, -2271.79, 9545.96, -44410.07, -2926.56, 41242.41, 13300.32, -31140.63, 0.00, 0.00, 0.00, 0.00, 0.00, 0.00, 0.00
133, 5357.00, 75546.57, 12746.13, 32841.24, -42128.34, -2260.07, 9560.82, -44389.96, -2926.56, 41242.41, 13300.32, -31140.63, 0.00, 0.00, 0.00, 0.00, 0.00, 0.00, 0.00
134, 5357.00, 75546.57, 12746.13, 32841.24, -42128.34, -2260.07, 9560.82, -44389.96, -2925.82, 41245.25, 13290.86, -31044.76, 0.00, 0.00, 0.00, 0.00, 0.00, 0.00, 0.00
135, 5347.36, 75535.59, 12732.92, 32833.39, -42138.40, -2269.24, 9546.76, -44395.14, -2925.82, 41245.25, 13290.86, -31044.76, 0.00, 0.00, 0.00, 0.00, 0.00, 0.00, 0.00
136, 5347.36, 75535.59, 12732.92, 32833.39, -42138.40, -2269.24, 9546.76, -44395.14, -2920.01, 41252.47, 13301.81, -31083.70, 0.00, 0.00, 0.00, 0.00, 0.00, 0.00, 0.00
137, 5364.82, 75555.45, 12752.79, 32847.23, -42121.86, -2255.13, 9572.00, -44384.84, -2920.01, 41252.47, 13301.81, -31083.70, 0.00, 0.00, 0.00, 0.00, 0.00, 0.00, 0.00
138, 5364.82, 75555.45, 12752.79, 32847.23, -42121.86, -2255.13, 9572.00, -44384.84, -2916.10, 41243.93, 13301.70, -31075.25, 0.00, 0.00, 0.00, 0.00, 0.00, 0.00, 0.00
139, 5351.16, 75537.61, 12736.29, 32831.83, -42132.16, -2269.33, 9557.11, -44394.23, -2916.10, 41243.93, 13301.70, -31075.25, 0.00, 0.00, 0.00, 0.00, 0.00, 0.00, 0.00
140, 5351.16, 75537.61, 12736.29, 32831.83, -42132.16, -2269.33, 9557.11, -44394.23, -2917.04, 41268.61, 13300.27, -31077.53, 0.00, 0.00, 0.00, 0.00, -0.02, 0.36, 0.94
141, 5363.44, 75553.52, 12751.96, 32851.99, -42116.32, -2252.52, 9573.43, -44381.76, -2917.04, 41268.61, 13300.27, -31077.53, 0.00, 0.00, 0.00, 0.00, 0.00, 0.00, 0.00
142, 5363.44, 75553.52, 12751.96, 32851.99, -42116.32, -2252.52, 9573.43, -44381.76, -2915.74, 41250.21, 13304.52, -30971.09, 0.00, 0.00, 0.00, 0.00, 0.00, 0.00, 0.00
143, 5347.90, 75540.29, 12738.88, 32831.54, -42127.83, -2268.52, 9561.41, -44389.45, -2915.74, 41250.21, 13304.52, -30971.09, 0.00, 0.00, 0.00, 0.00, 0.00, 0.00, 0.00
144, 5347.90, 75540.29, 12738.88, 32831.54, -42127.83, -2268.52, 9561.41, -44389.45, -2912.61, 41252.78, 13306.22, -30964.83, 0.00, 0.00, 0.00, 0.00, 0.00, 0.00, 0.00
145, 5367.93, 75561.63, 12759.96, 32857.13, -42113.66, -2243.98, 9590.62, -44371.23, -2912.61, 41252.78, 13306.22, -30964.83, 0.00, 0.00, 0.00, 0.00, 0.00, 0.00, 0.00
146, 5367.93, 75561.63, 12759.96, 32857.13, -42113.66, -2243.98, 9590.62, -44371.23, -2911.56, 41262.08, 13306.15, -31000.51, 0.00, 0.00, 0.00, 0.00, 0.00, 0.00, 0.00
147, 5344.39, 75542.19, 12736.69, 32829.13, -42131.54, -2272.21, 9560.06, -44393.85, -2911.56, 41262.08, 13306.15, -31000.51, 0.00, 0.00, 0.00, 0.00, 0.00, 0.00, 0.00
148, 5344.39, 75542.19, 12736.69, 32829.13, -42131.54, -2272.21, 9560.06, -44393.85, -2920.70, 41245.67, 13299.29, -31040.34, 0.00, 0.00, 0.00, 0.00, 0.00, 0.00, 0.00
149, 5361.00, 75556.07, 12751.04, 32845.80, -42122.96, -2250.87, 9569.54, -44388.68, -2920.70, 41245.67, 13299.29, -31040.34, 0.00, 0.00, 0.00, 0.00, 0.00, 0.00, 0.00
150, 5361.00, 75556.07, 12751.04, 32845.80, -42122.96, -2250.87, 9569.54, -44388.68, -2926.33, 41249.09, 13301.23, -31006.63, 0.00, 0.00, 0.00, 0.00, -0.02, 0.36, 0.94
151, 5337.80, 75530.97, 12727.37, 32822.48, -42139.61, -2282.14, 9564.78, -44391.75, -2926.33, 41249.09, 13301.23, -31006.63, 0.00, 0.00, 0.00, 0.00, 0.00, 0.00, 0.00
152, 5337.80, 75530.97, 12727.37, 32822.48, -42139.61, -2282.14, 9564.78, -44391.75, -2921.13, 41247.01, 13284.42, -30975.92, 0.00, 0.00, 0.00, 0.00, 0.00, 0.00, 0.00
153, 5353.38, 75550.10, 12740.76, 32835.98, -42122.78, -2267.18, 9576.00, -44378.29, -2921.13, 41247.01, 13284.42, -30975.92, 0.00, 0.00, 0.00, 0.00, 0.00, 0.00, 0.00
154, 5353.38, 75550.10, 12740.76, 32835.98, -42122.78, -2267.18, 9576.00, -44378.29, -2911.61, 41263.42, 13303.91, -31004.39, 0.00, 0.00, 0.00, 0.00, 0.00, 0.00, 0.00
155, 5332.81, 75534.43, 12726.10, 32818.84, -42142.36, -2277.26, 9559.91, -44401.02, -2911.61, 41263.42, 13303.91, -31004.39, 0.00, 0.00, 0.00, 0.00, 0.00, 0.00, 0.00
156, 5332.81, 75534.43, 12726.10, 32818.84, -42142.36, -2277.26, 9559.91, -44401.02, -2923.38, 41241.63, 13283.02, -31022.59, 0.00, 0.00, 0.00, 0.00, 0.00, 0.00, 0.00
157, 5341.51, 75537.49, 12730.88, 32830.40, -42132.97, -2265.62, 9564.40, -44397.18, -2923.38, 41241.63, 13283.02, -31022.59, 0.00, 0.00, 0.00, 0.00, 0.00, 0.00, 0.00
158, 5341.51, 75537.49, 12730.88, 32830.40, -42132.97, -2265.62, 9564.40, -44397.18, -2922.42, 41259.84, 13297.66, -30991.01, 0.00, 0.00, 0.00, 0.00, 0.00, 0.00, 0.00
159, 5329.86, 75530.79, 12723.89, 32814.84, -42140.75, -2285.20, 9570.75, -44388.57, -2922.42, 41259.84, 13297.66, -30991.01, 0.00, 0.00, 0.00, 0.00, 0.00, 0.00, 0.00
160, 5329.86, 75530.79, 12723.89, 32814.84, -42140.75, -2285.20, 9570.75, -44388.57, -2922.36, 41234.03, 13284.47, -30962.17, 0.00, 0.00, 0.00, 0.00, -0.02, 0.36, 0.94
161, 5346.40, 75546.03, 12737.52, 32832.48, -42126.06, -2267.16, 9575.31, -44385.13, -2922.36, 41234.03, 13284.47, -30962.17, 0.00, 0.00, 0.00, 0.00, 0.00, 0.00, 0.00
162, 5346.40, 75546.03, 12737.52, 32832.48, -42126.06, -2267.16, 9575.31, -44385.13, -2910.51, 41267.46, 13306.57, -30984.75, 0.00, 0.00, 0.00, 0.00, 0.00, 0.00, 0.00
163, 5338.49, 75540.29, 12734.77, 32829.84, -42126.22, -2268.34, 9573.94, -44379.57, -2910.51, 41267.46, 13306.57, -30984.75, 0.00, 0.00, 0.00, 0.00, 0.00, 0.00, 0.00
164, 5338.49, 75540.29, 12734.77, 32829.84, -42126.22, -2268.34, 9573.94, -44379.57, -2912.70, 41251.95, 13290.86, -30939.71, 0.00, 0.00, 0.00, 0.00, 0.00, 0.00, 0.00
165, 5341.66, 75547.75, 12738.53, 32829.61, -42122.96, -2270.67, 9588.27, -44374.38, -2912.70, 41251.95, 13290.86, -30939.71, 0.00, 0.00, 0.00, 0.00, 0.00, 0.00, 0.00
166, 5341.66, 75547.75, 12738.53, 32829.61, -42122.96, -2270.67, 9588.27, -44374.38, -2896.25, 41283.58, 13316.16, -30980.32, 0.00, 0.00, 0.00, 0.00, 0.00, 0.00, 0.00
167, 5335.81, 75540.67, 12732.54, 32823.80, -42129.80, -2272.86, 9573.30, -44390.00, -2896.25, 41283.58, 13316.16, -30980.32, 0.00, 0.00, 0.00, 0.00, 0.00, 0.00, 0.00
168, 5335.81, 75540.67, 12732.54, 32823.80, -42129.80, -2272.86, 9573.30, -44390.00, -2915.61, 41239.28, 13286.06, -30939.11, 0.00, 0.00, 0.00, 0.00, 0.00, 0.00, 0.00
169, 5334.09, 75538.84, 12731.06, 32823.04, -42131.20, -2272.43, 9582.06, -44377.93, -2915.61, 41239.28, 13286.06, -30939.11, 0.00, 0.00, 0.00, 0.00, 0.00, 0.00, 0.00
170, 5334.09, 75538.84, 12731.06, 32823.04, -42131.20, -2272.43, 9582.06, -44377.93, -2918.47, 41271.02, 13301.72, -30947.71, 0.00, 0.00, 0.00, 0.00, -0.02, 0.36, 0.94
171, 5334.65, 75536.00, 12730.99, 32825.19, -42126.89, -2273.35, 9584.61, -44377.15, -2918.47, 41271.02, 13301.72, -30947.71, 0.00, 0.00, 0.00, 0.00, 0.00, 0.00, 0.00
172, 5334.65, 75536.00, 12730.99, 32825.19, -42126.89, -2273.35, 9584.61, -44377.15, -2909.33, 41257.16, 13291.51, -30910.20, 0.00, 0.00, 0.00, 0.00, 0.00, 0.00, 0.00
173, 5331.94, 75534.50, 12728.36, 32828.09, -42124.70, -2265.24, 9585.05, -44381.31, -2909.33, 41257.16, 13291.51, -30910.20, 0.00, 0.00, 0.00, 0.00, 0.00, 0.00, 0.00
174, 5331.94, 75534.50, 12728.36, 32828.09, -42124.70, -2265.24, 9585.05, -44381.31, -2904.16, 41280.52, 13307.20, -30926.36, 0.00, 0.00, 0.00, 0.00, 0.00, 0.00, 0.00
175, 5342.42, 75542.75, 12733.30, 32824.70, -42124.01, -2273.89, 9591.78, -44363.36, -2904.16, 41280.52, 13307.20, -30926.36, 0.00, 0.00, 0.00, 0.00, 0.00, 0.00, 0.00
176, 5342.42, 75542.75, 12733.30, 32824.70, -42124.01, -2273.89, 9591.78, -44363.36, -2906.62, 41264.74, 13297.30, -30898.58, 0.00, 0.00, 0.00, 0.00, 0.00, 0.00, 0.00
177, 5342.60, 75541.36, 12732.69, 32827.38, -42129.28, -2272.32, 9592.63, -44378.00, -2906.62, 41264.74, 13297.30, -30898.58, 0.00, 0.00, 0.00, 0.00, 0.00, 0.00, 0.00
178, 5342.60, 75541.36, 12732.69, 32827.38, -42129.28, -2272.32, 9592.63, -44378.00, -2910.76, 41256.96, 13311.98, -30910.45, 0.00, 0.00, 0.00, 0.00, 0.00, 0.00, 0.00
179, 5351.77, 75556.60, 12745.39, 32839.36, -42115.71, -2257.75, 9609.35, -44369.55, -2910.76, 41256.96, 13311.98, -30910.45, 0.00, 0.00, 0.00, 0.00, -0.02, 0.37, 0.94
180, 5351.77, 75556.60, 12745.39, 32839.36, -42115.71, -2257.75, 9609.35, -44369.55, -2906.37, 41263.11, 13297.90, -30893.24, 0.00, 0.00, 0.00, 0.00, 0.00, 0.00, 0.00
181, 5328.77, 75538.43, 12726.01, 32814.04, -42130.45, -2280.82, 9578.79, -44382.83, -2906.37, 41263.11, 13297.90, -30893.24, 0.00, 0.00, 0.00, 0.00, 0.00, 0.00, 0.00
182, 5328.77, 75538.43, 12726.01, 32814.04, -42130.45, -2280.82, 9578.79, -44382.83, -2897.37, 41281.97, 13313.68, -30895.90, 0.00, 0.00, 0.00, 0.00, 0.00, 0.00, 0.00
183, 5347.30, 75555.64, 12743.98, 32833.64, -42116.25, -2261.95, 9606.58, -44364.77, -2897.37, 41281.97, 13313.68, -30895.90, 0.00, 0.00, 0.00, 0.00, 0.00, 0.00, 0.00
184, 5347.30, 75555.64, 12743.98, 32833.64, -42116.25, -2261.95, 9606.58, -44364.77, -2905.39, 41264.38, 13299.13, -30844.58, 0.00, 0.00, 0.00, 0.00, 0.00, 0.00, 0.00
185, 5334.38, 75535.73, 12729.18, 32823.25, -42121.91, -2267.16, 9597.66, -44370.98, -2905.39, 41264.38, 13299.13, -30844.58, 0.00, 0.00, 0.00, 0.00, 0.00, 0.00, 0.00
186, 5334.38, 75535.73, 12729.18, 32823.25, -42121.91, -2267.16, 9597.66, -44370.98, -2897.90, 41278.98, 13313.57, -30888.37, 0.00, 0.00, 0.00, 0.00, 0.00, 0.00, 0.00
187, 5351.75, 75557.34, 12747.27, 32838.04, -42112.12, -2257.97, 9614.89, -44357.08, -2897.90, 41278.98, 13313.57, -30888.37, 0.00, 0.00, 0.00, 0.00, 0.00, 0.00, 0.00
188, 5351.75, 75557.34, 12747.27, 32838.04, -42112.12, -2257.97, 9614.89, -44357.08, -2897.61, 41273.77, 13309.37, -30839.88, 0.00, 0.00, 0.00, 0.00, 0.00, 0.00, 0.00
189, 5326.58, 75536.29, 12726.01, 32814.21, -42125.15, -2283.03, 9603.99, -44368.01, -2897.61, 41273.77, 13309.37, -30839.88, 0.00, 0.00, 0.00, 0.00, -0.01, 0.37, 0.95
190, 5326.58, 75536.29, 12726.01, 32814.21, -42125.15, -2283.03, 9603.99, -44368.01, -2897.97, 41276.70, 13309.73, -30823.46, 0.00, 0.00, 0.00, 0.00, 0.00, 0.00, 0.00
191, 5346.87, 75555.64, 12745.52, 32838.58, -42110.15, -2259.45, 9622.85, -44348.63, -2897.97, 41276.70, 13309.73, -30823.46, 0.00, 0.00, 0.00, 0.00, 0.00, 0.00, 0.00
192, 5346.87, 75555.64, 12745.52, 32838.58, -42110.15, -2259.45, 9622.85, -44348.63, -2898.42, 41275.82, 13304.05, -30836.42, 0.00, 0.00, 0.00, 0.00, 0.00, 0.00, 0.00
193, 5325.64, 75530.21, 12719.37, 32812.36, -42131.32, -2279.30, 9602.02, -44372.66, -2898.42, 41275.82, 13304.05, -30836.42, 0.00, 0.00, 0.00, 0.00, 0.00, 0.00, 0.00
194, 5325.64, 75530.21, 12719.37, 32812.36, -42131.32, -2279.30, 9602.02, -44372.66, -2907.67, 41268.38, 13296.87, -30848.00, 0.00, 0.00, 0.00, 0.00, 0.00, 0.00, 0.00
195, 5346.54, 75558.10, 12741.43, 32839.94, -42112.96, -2251.80, 9620.01, -44353.59, -2907.67, 41268.38, 13296.87, -30848.00, 0.00, 0.00, 0.00, 0.00, 0.00, 0.00, 0.00
196, 5346.54, 75558.10, 12741.43, 32839.94, -42112.96, -2251.80, 9620.01, -44353.59, -2907.83, 41272.52, 13301.86, -30843.57, 0.00, 0.00, 0.00, 0.00, 0.00, 0.00, 0.00
197, 5329.04, 75530.70, 12721.76, 32812.72, -42130.73, -2282.60, 9605.08, -44369.98, -2907.83, 41272.52, 13301.86, -30843.57, 0.00, 0.00, 0.00, 0.00, 0.00, 0.00, 0.00
198, 5329.04, 75530.70, 12721.76, 32812.72, -42130.73, -2282.60, 9605.08, -44369.98, -2905.10, 41279.58, 13290.84, -30836.33, 0.00, 0.00, 0.00, 0.00, 0.00, 0.00, 0.00
199, 5345.46, 75549.41, 12739.40, 32833.80, -42111.64, -2264.23, 9620.37, -44358.31, -2905.10, 41279.58, 13290.84, -30836.33, 0.00, 0.00, 0.00, 0.00, -0.02, 0.37, 0.95
200, 5345.46, 75549.41, 12739.40, 32833.80, -42111.64, -2264.23, 9620.37, -44358.31, -2888.14, 41295.76, 13309.73, -30793.75, 0.00, 0.00, 0.00, 0.00, 0.00, 0.00, 0.00
201, 5326.31, 75529.96, 12718.99, 32811.13, -42134.54, -2280.88, 9595.89, -44378.63, -2888.14, 41295.76, 13309.73, -30793.75, 0.00, 0.00, 0.00, 0.00, 0.00, 0.00, 0.00
202, 5326.31, 75529.96, 12718.99, 32811.13, -42134.54, -2280.88, 9595.89, -44378.63, -2909.46, 41253.65, 13285.03, -30792.50, 0.00, 0.00, 0.00, 0.00, 0.00, 0.00, 0.00
203, 5337.24, 75542.97, 12731.49, 32829.50, -42121.86, -2261.82, 9629.31, -44352.97, -2909.46, 41253.65, 13285.03, -30792.50, 0.00, 0.00, 0.00, 0.00, 0.00, 0.00, 0.00
204, 5337.24, 75542.97, 12731.49, 32829.50, -42121.86, -2261.82, 9629.31, -44352.97, -2908.19, 41271.42, 13298.33, -30813.46, 0.00, 0.00, 0.00, 0.00, 0.00, 0.00, 0.00
205, 5325.93, 75536.00, 12721.67, 32813.37, -42133.71, -2278.98, 9614.47, -44362.36, -2908.19, 41271.42, 13298.33, -30813.46, 0.00, 0.00, 0.00, 0.00, 0.00, 0.00, 0.00
206, 5325.93, 75536.00, 12721.67, 32813.37, -42133.71, -2278.98, 9614.47, -44362.36, -2900.52, 41281.95, 13292.72, -30782.02, 0.00, 0.00, 0.00, 0.00, 0.00, 0.00, 0.00
207, 5344.53, 75551.55, 12738.88, 32831.27, -42112.38, -2263.18, 9628.84, -44352.63, -2900.52, 41281.95, 13292.72, -30782.02, 0.00, 0.00, 0.00, 0.00, 0.00, 0.00, 0.00
208, 5344.53, 75551.55, 12738.88, 32831.27, -42112.38, -2263.18, 9628.84, -44352.63, -2895.38, 41281.14, 13311.42, -30812.19, 0.00, 0.00, 0.00, 0.00, 0.00, 0.00, 0.00
209, 5335.65, 75541.02, 12729.61, 32820.16, -42121.64, -2273.64, 9623.48, -44357.75, -2895.38, 41281.14, 13311.42, -30812.19, 0.00, 0.00, 0.00, 0.00, -0.01, 0.36, 0.95
210, 5335.65, 75541.02, 12729.61, 32820.16, -42121.64, -2273.64, 9623.48, -44357.75, -2897.48, 41258.28, 13302.98, -30744.78, 0.00, 0.00, 0.00, 0.00, 0.00, 0.00, 0.00
211, 5340.08, 75552.91, 12741.03, 32829.75, -42110.53, -2262.76, 9632.39, -44348.63, -2897.48, 41258.28, 13302.98, -30744.78, 0.00, 0.00, 0.00, 0.00, 0.00, 0.00, 0.00
212, 5340.08, 75552.91, 12741.03, 32829.75, -42110.53, -2262.76, 9632.39, -44348.63, -2888.09, 41293.10, 13316.61, -30759.53, 0.00, 0.00, 0.00, 0.00, 0.00, 0.00, 0.00
213, 5329.39, 75542.21, 12728.78, 32819.04, -42123.70, -2272.37, 9624.84, -44358.69, -2888.09, 41293.10, 13316.61, -30759.53, 0.00, 0.00, 0.00, 0.00, 0.00, 0.00, 0.00
214, 5329.39, 75542.21, 12728.78, 32819.04, -42123.70, -2272.37, 9624.84, -44358.69, -2900.92, 41264.36, 13294.93, -30765.19, 0.00, 0.00, 0.00, 0.00, 0.00, 0.00, 0.00
215, 5334.62, 75543.22, 12730.32, 32826.31, -42125.57, -2258.11, 9624.44, -44361.91, -2900.92, 41264.36, 13294.93, -30765.19, 0.00, 0.00, 0.00, 0.00, 0.00, 0.00, 0.00
216, 5334.62, 75543.22, 12730.32, 32826.31, -42125.57, -2258.11, 9624.44, -44361.91, -2891.82, 41289.08, 13313.75, -30756.54, 0.00, 0.00, 0.00, 0.00, 0.00, 0.00, 0.00
217, 5336.84, 75545.41, 12731.24, 32822.57, -42119.60, -2278.20, 9634.65, -44354.55, -2891.82, 41289.08, 13313.75, -30756.54, 0.00, 0.00, 0.00, 0.00, 0.00, 0.00, 0.00
218, 5336.84, 75545.41, 12731.24, 32822.57, -42119.60, -2278.20, 9634.65, -44354.55, -2898.80, 41269.16, 13294.19, -30737.45, 0.00, 0.00, 0.00, 0.00, -0.02, 0.37, 0.94
219, 5338.42, 75553.01, 12733.52, 32825.52, -42116.43, -2277.60, 9636.55, -44352.72, -2898.80, 41269.16, 13294.19, -30737.45, 0.00, 0.00, 0.00, 0.00, 0.00, 0.00, 0.00
220, 5338.42, 75553.01, 12733.52, 32825.52, -42116.43, -2277.60, 9636.55, -44352.72, -2895.09, 41289.68, 13313.82, -30735.93, 0.00, 0.00, 0.00, 0.00, 0.00, 0.00, 0.00
221, 5336.77, 75546.86, 12734.06, 32827.11, -42118.08, -2262.98, 9640.71, -44341.81, -2895.09, 41289.68, 13313.82, -30735.93, 0.00, 0.00, 0.00, 0.00, 0.00, 0.00, 0.00
222, 5336.77, 75546.86, 12734.06, 32827.11, -42118.08, -2262.98, 9640.71, -44341.81, -2901.52, 41257.25, 13298.59, -30720.53, 0.00, 0.00, 0.00, 0.00, 0.00, 0.00, 0.00
223, 5327.96, 75537.83, 12724.56, 32818.86, -42125.01, -2274.16, 9634.88, -44355.02, -2901.52, 41257.25, 13298.59, -30720.53, 0.00, 0.00, 0.00, 0.00, 0.00, 0.00, 0.00
224, 5327.96, 75537.83, 12724.56, 32818.86, -42125.01, -2274.16, 9634.88, -44355.02, -2898.95, 41283.45, 13310.28, -30746.54, 0.00, 0.00, 0.00, 0.00, 0.00, 0.00, 0.00
225, 5340.21, 75549.19, 12734.46, 32830.38, -42116.03, -2265.98, 9637.13, -44352.52, -2898.95, 41283.45, 13310.28, -30746.54, 0.00, 0.00, 0.00, 0.00, 0.00, 0.00, 0.00
226, 5340.21, 75549.19, 12734.46, 32830.38, -42116.03, -2265.98, 9637.13, -44352.52, -2901.46, 41265.07, 13295.00, -30701.42, 0.00, 0.00, 0.00, 0.00, 0.00, 0.00, 0.00
227, 5328.99, 75539.80, 12725.72, 32816.54, -42124.72, -2283.57, 9637.96, -44357.39, -2901.46, 41265.07, 13295.00, -30701.42, 0.00, 0.00, 0.00, 0.00, 0.00, 0.00, 0.00
228, 5328.99, 75539.80, 12725.72, 32816.54, -42124.72, -2283.57, 9637.96, -44357.39, -2893.57, 41285.39, 13317.19, -30730.59, 0.00, 0.00, 0.00, 0.00, -0.02, 0.37, 0.95
229, 5341.13, 75556.11, 12740.81, 32833.66, -42105.23, -2263.52, 9650.57, -44341.32, -2893.57, 41285.39, 13317.19, -30730.59, 0.00, 0.00, 0.00, 0.00, 0.00, 0.00, 0.00
230, 5341.13, 75556.11, 12740.81, 32833.66, -42105.23, -2263.52, 9650.57, -44341.32, -2891.56, 41271.49, 13309.35, -30701.28, 0.00, 0.00, 0.00, 0.00, 0.00, 0.00, 0.00
231, 5333.30, 75553.27, 12734.28, 32825.50, -42115.38, -2268.70, 9643.53, -44339.24, -2891.56, 41271.49, 13309.35, -30701.28, 0.00, 0.00, 0.00, 0.00, 0.00, 0.00, 0.00
232, 5333.30, 75553.27, 12734.28, 32825.50, -42115.38, -2268.70, 9643.53, -44339.24, -2886.35, 41282.48, 13322.33, -30695.61, 0.00, 0.00, 0.00, 0.00, 0.00, 0.00, 0.00
233, 5348.62, 75567.42, 12747.89, 32841.35, -42103.11, -2254.64, 9664.92, -44329.57, -2886.35, 41282.48, 13322.33, -30695.61, 0.00, 0.00, 0.00, 0.00, 0.00, 0.00, 0.00
234, 5348.62, 75567.42, 12747.89, 32841.35, -42103.11, -2254.64, 9664.92, -44329.57, -2890.10, 41273.28, 13314.24, -30706.67, 0.00, 0.00, 0.00, 0.00, 0.00, 0.00, 0.00
235, 5327.25, 75547.22, 12729.12, 32816.61, -42120.16, -2283.14, 9639.03, -44355.16, -2890.10, 41273.28, 13314.24, -30706.67, 0.00, 0.00, 0.00, 0.00, 0.00, 0.00, 0.00
236, 5327.25, 75547.22, 12729.12, 32816.61, -42120.16, -2283.14, 9639.03, -44355.16, -2881.50, 41297.93, 13316.90, -30691.22, 0.00, 0.00, 0.00, 0.00, 0.00, 0.00, 0.00
237, 5344.59, 75559.96, 12746.91, 32836.19, -42096.38, -2259.11, 9669.83, -44326.39, -2881.50, 41297.93, 13316.90, -30691.22, 0.00, 0.00, 0.00, 0.00, 0.00, 0.00, 0.00
238, 5344.59, 75559.96, 12746.91, 32836.19, -42096.38, -2259.11, 9669.83, -44326.39, -2888.36, 41281.10, 13314.42, -30672.49, 0.00, 0.00, 0.00, 0.00, -0.02, 0.37, 0.95
239, 5331.11, 75546.13, 12730.64, 32822.75, -42114.62, -2267.16, 9649.94, -44336.14, -2888.36, 41281.10, 13314.42, -30672.49, 0.00, 0.00, 0.00, 0.00, 0.00, 0.00, 0.00
240, 5331.11, 75546.13, 12730.64, 32822.75, -42114.62, -2267.16, 9649.94, -44336.14, -2881.97, 41290.31, 13315.38, -30664.47, 0.00, 0.00, 0.00, 0.00, 0.00, 0.00, 0.00
241, 5343.01, 75561.03, 12743.71, 32838.94, -42093.52, -2259.56, 9664.87, -44325.88, -2881.97, 41290.31, 13315.38, -30664.47, 0.00, 0.00, 0.00, 0.00, 0.00, 0.00, 0.00
242, 5343.01, 75561.03, 12743.71, 32838.94, -42093.52, -2259.56, 9664.87, -44325.88, -2884.87, 41278.26, 13318.06, -30637.02, 0.00, 0.00, 0.00, 0.00, 0.00, 0.00, 0.00
243, 5327.02, 75543.46, 12725.96, 32813.75, -42120.21, -2280.68, 9653.76, -44339.15, -2884.87, 41278.26, 13318.06, -30637.02, 0.00, 0.00, 0.00, 0.00, 0.00, 0.00, 0.00
244, 5327.02, 75543.46, 12725.96, 32813.75, -42120.21, -2280.68, 9653.76, -44339.15, -2882.32, 41290.93, 13306.60, -30665.72, 0.00, 0.00, 0.00, 0.00, 0.00, 0.00, 0.00
245, 5335.16, 75558.05, 12740.09, 32831.63, -42105.90, -2265.35, 9671.69, -44333.27, -2882.32, 41290.93, 13306.60, -30665.72, 0.00, 0.00, 0.00, 0.00, 0.00, 0.00, 0.00
246, 5335.16, 75558.05, 12740.09, 32831.63, -42105.90, -2265.35, 9671.69, -44333.27, -2886.64, 41280.56, 13311.85, -30645.11, 0.00, 0.00, 0.00, 0.00, 0.00, 0.00, 0.00
247, 5327.40, 75543.26, 12726.28, 32813.81, -42118.69, -2279.21, 9656.91, -44333.30, -2886.64, 41280.56, 13311.85, -30645.11, 0.00, 0.00, 0.00, 0.00, 0.00, 0.00, 0.00
248, 5327.40, 75543.26, 12726.28, 32813.81, -42118.69, -2279.21, 9656.91, -44333.30, -2888.45, 41283.07, 13307.13, -30625.91, 0.00, 0.00, 0.00, 0.00, -0.02, 0.37, 0.94
249, 5345.78, 75564.07, 12748.79, 32841.71, -42097.39, -2249.21, 9681.14, -44308.89, -2888.45, 41283.07, 13307.13, -30625.91, 0.00, 0.00, 0.00, 0.00, 0.00, 0.00, 0.00
250, 5345.78, 75564.07, 12748.79, 32841.71, -42097.39, -2249.21, 9681.14, -44308.89, -2885.77, 41292.28, 13314.60, -30640.11, 0.00, 0.00, 0.00, 0.00, 0.00, 0.00, 0.00
251, 5329.71, 75542.81, 12727.93, 32815.13, -42113.34, -2276.73, 9658.64, -44337.63, -2885.77, 41292.28, 13314.60, -30640.11, 0.00, 0.00, 0.00, 0.00, 0.00, 0.00, 0.00
252, 5329.71, 75542.81, 12727.93, 32815.13, -42113.34, -2276.73, 9658.64, -44337.63, -2882.15, 41290.64, 13306.46, -30613.71, 0.00, 0.00, 0.00, 0.00, 0.00, 0.00, 0.00
253, 5335.07, 75556.34, 12738.93, 32829.14, -42102.71, -2266.89, 9672.90, -44320.67, -2882.15, 41290.64, 13306.46, -30613.71, 0.00, 0.00, 0.00, 0.00, 0.00, 0.00, 0.00
254, 5335.07, 75556.34, 12738.93, 32829.14, -42102.71, -2266.89, 9672.90, -44320.67, -2874.72, 41291.79, 13316.25, -30621.17, 0.00, 0.00, 0.00, 0.00, 0.00, 0.00, 0.00
255, 5325.53, 75544.70, 12726.01, 32816.02, -42109.79, -2276.68, 9662.97, -44334.17, -2874.72, 41291.79, 13316.25, -30621.17, 0.00, 0.00, 0.00, 0.00, 0.00, 0.00, 0.00
0, 5325.53, 75544.70, 12726.01, 32816.02, -42109.79, -2276.68, 9662.97, -44334.17, -2882.68, 41273.28, 13303.47, -30603.43, 0.00, 0.00, 0.00, 0.00, 0.00, 0.00, 0.00
1, 5331.61, 75548.63, 12731.08, 32827.83, -42109.68, -2260.21, 9675.62, -44318.95, -2882.68, 41273.28, 13303.47, -30603.43, 0.00, 0.00, 0.00, 0.00, -0.02, 0.36, 0.94
2, 5331.61, 75548.63, 12731.08, 32827.83, -42109.68, -2260.21, 9675.62, -44318.95, -2881.27, 41298.29, 13316.65, -30610.06, 0.00, 0.00, 0.00, 0.00, 0.00, 0.00, 0.00
3, 5325.44, 75545.41, 12726.03, 32815.36, -42109.03, -2279.25, 9673.23, -44316.94, -2881.27, 41298.29, 13316.65, -30610.06, 0.00, 0.00, 0.00, 0.00, 0.00, 0.00, 0.00
4, 5325.44, 75545.41, 12726.03, 32815.36, -42109.03, -2279.25, 9673.23, -44316.94, -2882.46, 41282.84, 13302.44, -30607.32, 0.00, 0.00, 0.00, 0.00, 0.00, 0.00, 0.00
5, 5326.13, 75551.22, 12729.25, 32821.17, -42105.95, -2269.24, 9675.58, -44321.99, -2882.46, 41282.84, 13302.44, -30607.32, 0.00, 0.00, 0.00, 0.00, 0.00, 0.00, 0.00
6, 5326.13, 75551.22, 12729.25, 32821.17, -42105.95, -2269.24, 9675.58, -44321.99, -2876.71, 41301.66, 13321.13, -30568.20, 0.00, 0.00, 0.00, 0.00, 0.00, 0.00, 0.00
7, 5330.40, 75550.97, 12727.82, 32814.91, -42101.39, -2273.51, 9672.92, -44320.67, -2876.71, 41301.66, 13321.13, -30568.20, 0.00, 0.00, 0.00, 0.00, 0.00, 0.00, 0.00
8, 5330.40, 75550.97, 12727.82, 32814.91, -42101.39, -2273.51, 9672.92, -44320.67, -2881.59, 41275.18, 13309.73, -30545.47, 0.00, 0.00, 0.00, 0.00, 0.00, 0.00, 0.00
9, 5333.22, 75558.33, 12734.53, 32825.91, -42105.93, -2265.75, 9688.47, -44303.21, -2881.59, 41275.18, 13309.73, -30545.47, 0.00, 0.00, 0.00, 0.00, 0.00, 0.00, 0.00
10, 5333.22, 75558.33, 12734.53, 32825.91, -42105.93, -2265.75, 9688.47, -44303.21, -2873.67, 41307.45, 13332.97, -30583.40, 0.00, 0.00, 0.00, 0.00, 0.00, 0.00, 0.00
11, 5335.27, 75559.02, 12736.31, 32822.89, -42100.63, -2264.86, 9688.86, -44302.48, -2873.67, 41307.45, 13332.97, -30583.40, 0.00, 0.00, 0.00, 0.00, -0.02, 0.36, 0.94
12, 5335.27, 75559.02, 12736.31, 32822.89, -42100.63, -2264.86, 9688.86, -44302.48, -2874.43, 41293.21, 13313.97, -30568.87, 0.00, 0.00, 0.00, 0.00, 0.00, 0.00, 0.00
13, 5332.17, 75557.32, 12733.86, 32823.80, -42101.66, -2266.80, 9688.30, -44305.98, -2874.43, 41293.21, 13313.97, -30568.87, 0.00, 0.00, 0.00, 0.00, 0.00, 0.00, 0.00
14, 5332.17, 75557.32, 12733.86, 32823.80, -42101.66, -2266.80, 9688.30, -44305.98, -2866.70, 41324.44, 13331.27, -30580.22, 0.00, 0.00, 0.00, 0.00, 0.00, 0.00, 0.00
15, 5338.13, 75560.12, 12734.08, 32826.11, -42094.70, -2262.69, 9685.44, -44312.33, -2866.70, 41324.44, 13331.27, -30580.22, 0.00, 0.00, 0.00, 0.00, 0.00, 0.00, 0.00
16, 5338.13, 75560.12, 12734.08, 32826.11, -42094.70, -2262.69, 9685.44, -44312.33, -2875.51, 41289.35, 13313.95, -30561.67, 0.00, 0.00, 0.00, 0.00, 0.00, 0.00, 0.00
17, 5327.00, 75554.88, 12730.19, 32816.76, -42100.40, -2269.39, 9680.09, -44308.38, -2875.51, 41289.35, 13313.95, -30561.67, 0.00, 0.00, 0.00, 0.00, 0.00, 0.00, 0.00
18, 5327.00, 75554.88, 12730.19, 32816.76, -42100.40, -2269.39, 9680.09, -44308.38, -2870.12, 41308.73, 13328.81, -30528.19, 0.00, 0.00, 0.00, 0.00, 0.00, 0.00, 0.00
19, 5328.30, 75557.27, 12734.17, 32824.30, -42094.57, -2267.99, 9699.16, -44289.49, -2870.12, 41308.73, 13328.81, -30528.19, 0.00, 0.00, 0.00, 0.00, 0.00, 0.00, 0.00
20, 5328.30, 75557.27, 12734.17, 32824.30, -42094.57, -2267.99, 9699.16, -44289.49, -2874.88, 41289.08, 13314.31, -30534.11, 0.00, 0.00, 0.00, 0.00, 0.00, 0.00, 0.00
21, 5315.98, 75540.84, 12722.17, 32814.42, -42106.57, -2272.52, 9686.37, -44309.67, -2874.88, 41289.08, 13314.31, -30534.11, 0.00, 0.00, 0.00, 0.00, -0.02, 0.36, 0.94
22, 5315.98, 75540.84, 12722.17, 32814.42, -42106.57, -2272.52, 9686.37, -44309.67, -2870.93, 41314.09, 13325.35, -30543.95, 0.00, 0.00, 0.00, 0.00, 0.00, 0.00, 0.00
23, 5328.48, 75554.10, 12734.66, 32825.82, -42098.53, -2255.05, 9696.34, -44297.13, -2870.93, 41314.09, 13325.35, -30543.95, 0.00, 0.00, 0.00, 0.00, 0.00, 0.00, 0.00
24, 5328.48, 75554.10, 12734.66, 32825.82, -42098.53, -2255.05, 9696.34, -44297.13, -2878.70, 41293.33, 13315.05, -30528.06, 0.00, 0.00, 0.00, 0.00, 0.00, 0.00, 0.00
25, 5314.48, 75540.38, 12720.58, 32812.81, -42104.09, -2276.30, 9688.52, -44305.18, -2878.70, 41293.33, 13315.05, -30528.06, 0.00, 0.00, 0.00, 0.00, 0.00, 0.00, 0.00
26, 5314.48, 75540.38, 12720.58, 32812.81, -42104.09, -2276.30, 9688.52, -44305.18, -2864.67, 41308.86, 13327.09, -30506.60, 0.00, 0.00, 0.00, 0.00, 0.00, 0.00, 0.00
27, 5332.12, 75558.98, 12739.53, 32830.26, -42088.42, -2261.17, 9704.23, -44288.68, -2864.67, 41308.86, 13327.09, -30506.60, 0.00, 0.00, 0.00, 0.00, 0.00, 0.00, 0.00
28, 5332.12, 75558.98, 12739.53, 32830.26, -42088.42, -2261.17, 9704.23, -44288.68, -2874.21, 41298.76, 13317.88, -30504.01, 0.00, 0.00, 0.00, 0.00, 0.00, 0.00, 0.00
29, 5308.85, 75539.73, 12721.05, 32809.23, -42107.27, -2276.59, 9693.53, -44298.72, -2874.21, 41298.76, 13317.88, -30504.01, 0.00, 0.00, 0.00, 0.00, 0.00, 0.00, 0.00
30, 5308.85, 75539.73, 12721.05, 32809.23, -42107.27, -2276.59, 9693.53, -44298.72, -2872.40, 41313.73, 13321.13, -30516.12, 0.00, 0.00, 0.00, 0.00, 0.00, 0.00, 0.00
31, 5327.90, 75555.45, 12735.62, 32827.20, -42089.74, -2255.72, 9703.88, -44287.57, -2872.40, 41313.73, 13321.13, -30516.12, 0.00, 0.00, 0.00, 0.00, -0.02, 0.36, 0.94
32, 5327.90, 75555.45, 12735.62, 32827.20, -42089.74, -2255.72, 9703.88, -44287.57, -2869.87, 41307.54, 13316.36, -30500.94, 0.00, 0.00, 0.00, 0.00, 0.00, 0.00, 0.00
33, 5313.68, 75541.80, 12719.17, 32807.62, -42100.02, -2271.65, 9686.73, -44298.12, -2869.87, 41307.54, 13316.36, -30500.94, 0.00, 0.00, 0.00, 0.00, 0.00, 0.00, 0.00
34, 5313.68, 75541.80, 12719.17, 32807.62, -42100.02, -2271.65, 9686.73, -44298.12, -2863.44, 41303.18, 13321.50, -30472.47, 0.00, 0.00, 0.00, 0.00, 0.00, 0.00, 0.00
35, 5334.24, 75564.65, 12742.48, 32834.00, -42083.46, -2253.55, 9717.87, -44275.30, -2863.44, 41303.18, 13321.50, -30472.47, 0.00, 0.00, 0.00, 0.00, 0.00, 0.00, 0.00
36, 5334.24, 75564.65, 12742.48, 32834.00, -42083.46, -2253.55, 9717.87, -44275.30, -2863.97, 41317.02, 13326.36, -30486.35, 0.00, 0.00, 0.00, 0.00, 0.00, 0.00, 0.00
37, 5316.03, 75542.73, 12724.20, 32815.09, -42101.05, -2270.18, 9700.10, -44286.31, -2863.97, 41317.02, 13326.36, -30486.35, 0.00, 0.00, 0.00, 0.00, 0.00, 0.00, 0.00
38, 5316.03, 75542.73, 12724.20, 32815.09, -42101.05, -2270.18, 9700.10, -44286.31, -2865.96, 41309.55, 13323.14, -30496.96, 0.00, 0.00, 0.00, 0.00, 0.00, 0.00, 0.00
39, 5332.57, 75560.85, 12740.56, 32833.93, -42083.86, -2249.93, 9717.29, -44274.02, -2865.96, 41309.55, 13323.14, -30496.96, 0.00, 0.00, 0.00, 0.00, 0.00, 0.00, 0.00
40, 5332.57, 75560.85, 12740.56, 32833.93, -42083.86, -2249.93, 9717.29, -44274.02, -2869.14, 41316.26, 13322.67, -30486.08, 0.00, 0.00, 0.00, 0.00, -0.02, 0.36, 0.94
41, 5316.05, 75534.61, 12718.23, 32812.88, -42101.12, -2270.83, 9696.59, -44291.05, -2869.14, 41316.26, 13322.67, -30486.08, 0.00, 0.00, 0.00, 0.00, 0.00, 0.00, 0.00
42, 5316.05, 75534.61, 12718.23, 32812.88, -42101.12, -2270.83, 9696.59, -44291.05, -2870.10, 41304.14, 13311.22, -30445.96, 0.00, 0.00, 0.00, 0.00, 0.00, 0.00, 0.00
43, 5330.67, 75556.80, 12739.91, 32837.46, -42084.33, -2244.79, 9727.21, -44264.05, -2870.10, 41304.14, 13311.22, -30445.96, 0.00, 0.00, 0.00, 0.00, 0.00, 0.00, 0.00
44, 5330.67, 75556.80, 12739.91, 32837.46, -42084.33, -2244.79, 9727.21, -44264.05, -2859.26, 41328.13, 13320.79, -30479.58, 0.00, 0.00, 0.00, 0.00, 0.00, 0.00, 0.00
45, 5312.18, 75537.07, 12717.61, 32811.64, -42101.57, -2273.42, 9696.28, -44292.64, -2859.26, 41328.13, 13320.79, -30479.58, 0.00, 0.00, 0.00, 0.00, 0.00, 0.00, 0.00
46, 5312.18, 75537.07, 12717.61, 32811.64, -42101.57, -2273.42, 9696.28, -44292.64, -2859.88, 41313.80, 13313.59, -30437.13, 0.00, 0.00, 0.00, 0.00, 0.00, 0.00, 0.00
47, 5334.13, 75559.65, 12740.81, 32839.76, -42079.06, -2248.47, 9728.02, -44258.84, -2859.88, 41313.80, 13313.59, -30437.13, 0.00, 0.00, 0.00, 0.00, 0.00, 0.00, 0.00
48, 5334.13, 75559.65, 12740.81, 32839.76, -42079.06, -2248.47, 9728.02, -44258.84, -2863.21, 41324.48, 13325.30, -30464.29, 0.00, 0.00, 0.00, 0.00, 0.00, 0.00, 0.00
49, 5319.22, 75540.94, 12724.71, 32819.91, -42092.51, -2262.33, 9710.49, -44279.25, -2863.21, 41324.48, 13325.30, -30464.29, 0.00, 0.00, 0.00, 0.00, 0.00, 0.00, 0.00
50, 5319.22, 75540.94, 12724.71, 32819.91, -42092.51, -2262.33, 9710.49, -44279.25, -2873.41, 41302.87, 13309.84, -30451.19, 0.00, 0.00, 0.00, 0.00, -0.03, 0.36, 0.95
51, 5323.05, 75553.84, 12734.17, 32829.32, -42088.24, -2256.56, 9720.95, -44268.48, -2873.41, 41302.87, 13309.84, -30451.19, 0.00, 0.00, 0.00, 0.00, 0.00, 0.00, 0.00
52, 5323.05, 75553.84, 12734.17, 32829.32, -42088.24, -2256.56, 9720.95, -44268.48, -2862.27, 41334.34, 13329.44, -30444.66, 0.00, 0.00, 0.00, 0.00, 0.00, 0.00, 0.00
53, 5323.25, 75547.55, 12730.10, 32823.85, -42090.81, -2260.70, 9711.25, -44272.75, -2862.27, 41334.34, 13329.44, -30444.66, 0.00, 0.00, 0.00, 0.00, 0.00, 0.00, 0.00
54, 5323.25, 75547.55, 12730.10, 32823.85, -42090.81, -2260.70, 9711.25, -44272.75, -2865.76, 41306.31, 13315.78, -30430.36, 0.00, 0.00, 0.00, 0.00, 0.00, 0.00, 0.00
55, 5325.64, 75554.57, 12735.08, 32828.99, -42084.36, -2256.25, 9719.72, -44268.63, -2865.76, 41306.31, 13315.78, -30430.36, 0.00, 0.00, 0.00, 0.00, 0.00, 0.00, 0.00
56, 5325.64, 75554.57, 12735.08, 32828.99, -42084.36, -2256.25, 9719.72, -44268.63, -2862.83, 41322.70, 13330.13, -30456.20, 0.00, 0.00, 0.00, 0.00, 0.00, 0.00, 0.00
57, 5322.40, 75551.27, 12730.23, 32823.96, -42087.04, -2256.83, 9718.63, -44271.18, -2862.83, 41322.70, 13330.13, -30456.20, 0.00, 0.00, 0.00, 0.00, 0.00, 0.00, 0.00
58, 5322.40, 75551.27, 12730.23, 32823.96, -42087.04, -2256.83, 9718.63, -44271.18, -2865.47, 41310.36, 13317.01, -30401.30, 0.00, 0.00, 0.00, 0.00, 0.00, 0.00, 0.00
59, 5322.42, 75555.64, 12737.12, 32829.28, -42083.04, -2252.01, 9718.99, -44255.60, -2865.47, 41310.36, 13317.01, -30401.30, 0.00, 0.00, 0.00, 0.00, 0.00, 0.00, 0.00
60, 5322.42, 75555.64, 12737.12, 32829.28, -42083.04, -2252.01, 9718.99, -44255.60, -2854.97, 41334.66, 13339.12, -30421.10, 0.00, 0.00, 0.00, 0.00, -0.03, 0.36, 0.95
61, 5328.68, 75556.49, 12739.15, 32830.04, -42070.12, -2254.75, 9729.20, -44253.66, -2854.97, 41334.66, 13339.12, -30421.10, 0.00, 0.00, 0.00, 0.00, 0.00, 0.00, 0.00
62, 5328.68, 75556.49, 12739.15, 32830.04, -42070.12, -2254.75, 9729.20, -44253.66, -2856.62, 41317.76, 13322.29, -30395.15, 0.00, 0.00, 0.00, 0.00, 0.00, 0.00, 0.00
63, 5321.91, 75550.21, 12732.63, 32827.47, -42083.30, -2256.92, 9723.14, -44262.38, -2856.62, 41317.76, 13322.29, -30395.15, 0.00, 0.00, 0.00, 0.00, 0.00, 0.00, 0.00
64, 5321.91, 75550.21, 12732.63, 32827.47, -42083.30, -2256.92, 9723.14, -44262.38, -2855.39, 41330.34, 13337.17, -30418.18, 0.00, 0.00, 0.00, 0.00, 0.00, 0.00, 0.00
65, 5323.87, 75553.99, 12737.88, 32832.72, -42074.48, -2248.12, 9734.16, -44253.59, -2855.39, 41330.34, 13337.17, -30418.18, 0.00, 0.00, 0.00, 0.00, 0.00, 0.00, 0.00
66, 5323.87, 75553.99, 12737.88, 32832.72, -42074.48, -2248.12, 9734.16, -44253.59, -2861.20, 41309.91, 13322.60, -30394.01, 0.00, 0.00, 0.00, 0.00, 0.00, 0.00, 0.00
67, 5311.51, 75546.46, 12728.83, 32822.62, -42084.82, -2258.35, 9716.35, -44264.84, -2861.20, 41309.91, 13322.60, -30394.01, 0.00, 0.00, 0.00, 0.00, 0.00, 0.00, 0.00
68, 5311.51, 75546.46, 12728.83, 32822.62, -42084.82, -2258.35, 9716.35, -44264.84, -2854.59, 41328.06, 13330.76, -30401.21, 0.00, 0.00, 0.00, 0.00, 0.00, 0.00, 0.00
69, 5326.31, 75559.69, 12739.00, 32832.99, -42067.95, -2245.05, 9726.88, -44251.02, -2854.59, 41328.06, 13330.76, -30401.21, 0.00, 0.00, 0.00, 0.00, 0.00, 0.00, 0.00
70, 5326.31, 75559.69, 12739.00, 32832.99, -42067.95, -2245.05, 9726.88, -44251.02, -2842.96, 41343.80, 13328.23, -30383.96, 0.00, 0.00, 0.00, 0.00, -0.03, 0.36, 0.93
71, 5314.44, 75548.31, 12727.19, 32818.28, -42083.10, -2263.99, 9723.88, -44252.41, -2842.96, 41343.80, 13328.23, -30383.96, 0.00, 0.00, 0.00, 0.00, 0.00, 0.00, 0.00
72, 5314.44, 75548.31, 12727.19, 32818.28, -42083.10, -2263.99, 9723.88, -44252.41, -2857.49, 41326.56, 13332.84, -30373.83, 0.00, 0.00, 0.00, 0.00, 0.00, 0.00, 0.00
73, 5325.21, 75559.35, 12738.48, 32836.68, -42074.41, -2244.92, 9732.84, -44250.04, -2857.49, 41326.56, 13332.84, -30373.83, 0.00, 0.00, 0.00, 0.00, 0.00, 0.00, 0.00
74, 5325.21, 75559.35, 12738.48, 32836.68, -42074.41, -2244.92, 9732.84, -44250.04, -2856.31, 41310.94, 13320.59, -30359.57, 0.00, 0.00, 0.00, 0.00, 0.00, 0.00, 0.00
75, 5309.86, 75541.27, 12727.33, 32822.30, -42080.80, -2258.22, 9726.94, -44248.23, -2856.31, 41310.94, 13320.59, -30359.57, 0.00, 0.00, 0.00, 0.00, 0.00, 0.00, 0.00
76, 5309.86, 75541.27, 12727.33, 32822.30, -42080.80, -2258.22, 9726.94, -44248.23, -2847.03, 41329.45, 13353.36, -30385.14, 0.00, 0.00, 0.00, 0.00, 0.00, 0.00, 0.00
77, 5333.55, 75562.33, 12749.46, 32857.64, -42061.33, -2229.25, 9737.60, -44241.61, -2847.03, 41329.45, 13353.36, -30385.14, 0.00, 0.00, 0.00, 0.00, 0.00, 0.00, 0.00
78, 5333.55, 75562.33, 12749.46, 32857.64, -42061.33, -2229.25, 9737.60, -44241.61, -2860.20, 41316.84, 13298.37, -30359.52, 0.00, 0.00, 0.00, 0.00, 0.00, 0.00, 0.00
79, 5301.21, 75537.74, 12715.26, 32815.11, -42088.91, -2274.74, 9715.07, -44254.57, -2860.20, 41316.84, 13298.37, -30359.52, 0.00, 0.00, 0.00, 0.00, -0.02, 0.36, 0.94
80, 5301.21, 75537.74, 12715.26, 32815.11, -42088.91, -2274.74, 9715.07, -44254.57, -2847.17, 41336.69, 13337.31, -30366.50, 0.00, 0.00, 0.00, 0.00, 0.00, 0.00, 0.00
81, 5328.23, 75565.81, 12743.67, 32841.89, -42067.19, -2241.88, 9743.73, -44229.30, -2847.17, 41336.69, 13337.31, -30366.50, 0.00, 0.00, 0.00, 0.00, 0.00, 0.00, 0.00
82, 5328.23, 75565.81, 12743.67, 32841.89, -42067.19, -2241.88, 9743.73, -44229.30, -2844.28, 41345.09, 13336.01, -30367.21, 0.00, 0.00, 0.00, 0.00, 0.00, 0.00, 0.00
83, 5314.89, 75549.85, 12726.37, 32813.50, -42080.69, -2260.16, 9718.78, -44257.32, -2844.28, 41345.09, 13336.01, -30367.21, 0.00, 0.00, 0.00, 0.00, 0.00, 0.00, 0.00
84, 5314.89, 75549.85, 12726.37, 32813.50, -42080.69, -2260.16, 9718.78, -44257.32, -2852.17, 41316.06, 13326.96, -30347.05, 0.00, 0.00, 0.00, 0.00, 0.00, 0.00, 0.00
85, 5335.79, 75575.85, 12747.13, 32838.18, -42064.57, -2239.18, 9747.86, -44225.52, -2852.17, 41316.06, 13326.96, -30347.05, 0.00, 0.00, 0.00, 0.00, 0.00, 0.00, 0.00
86, 5335.79, 75575.85, 12747.13, 32838.18, -42064.57, -2239.18, 9747.86, -44225.52, -2845.18, 41329.34, 13341.87, -30324.43, 0.00, 0.00, 0.00, 0.00, 0.00, 0.00, 0.00
87, 5318.75, 75560.45, 12734.06, 32820.83, -42068.69, -2258.80, 9727.70, -44240.76, -2845.18, 41329.34, 13341.87, -30324.43, 0.00, 0.00, 0.00, 0.00, 0.00, 0.00, 0.00
88, 5318.75, 75560.45, 12734.06, 32820.83, -42068.69, -2258.80, 9727.70, -44240.76, -2831.94, 41351.35, 13347.08, -30327.85, 0.00, 0.00, 0.00, 0.00, 0.00, 0.00, 0.00
89, 5341.04, 75584.70, 12758.33, 32846.98, -42051.57, -2239.11, 9752.60, -44215.48, -2831.94, 41351.35, 13347.08, -30327.85, 0.00, 0.00, 0.00, 0.00, -0.01, 0.36, 0.94
90, 5341.04, 75584.70, 12758.33, 32846.98, -42051.57, -2239.11, 9752.60, -44215.48, -2836.01, 41346.32, 13356.08, -30332.46, 0.00, 0.00, 0.00, 0.00, 0.00, 0.00, 0.00
91, 5325.68, 75559.69, 12736.92, 32827.61, -42070.74, -2254.75, 9734.45, -44240.72, -2836.01, 41346.32, 13356.08, -30332.46, 0.00, 0.00, 0.00, 0.00, 0.00, 0.00, 0.00
92, 5325.68, 75559.69, 12736.92, 32827.61, -42070.74, -2254.75, 9734.45, -44240.72, -2842.20, 41328.78, 13341.55, -30318.26, 0.00, 0.00, 0.00, 0.00, 0.00, 0.00, 0.00
93, 5337.69, 75575.67, 12754.51, 32845.20, -42056.13, -2236.07, 9746.41, -44222.34, -2842.20, 41328.78, 13341.55, -30318.26, 0.00, 0.00, 0.00, 0.00, 0.00, 0.00, 0.00
94, 5337.69, 75575.67, 12754.51, 32845.20, -42056.13, -2236.07, 9746.41, -44222.34, -2842.96, 41339.50, 13350.38, -30340.50, 0.00, 0.00, 0.00, 0.00, 0.00, 0.00, 0.00
95, 5324.10, 75559.02, 12737.88, 32828.48, -42068.53, -2253.06, 9733.78, -44232.83, -2842.96, 41339.50, 13350.38, -30340.50, 0.00, 0.00, 0.00, 0.00, 0.00, 0.00, 0.00
96, 5324.10, 75559.02, 12737.88, 32828.48, -42068.53, -2253.06, 9733.78, -44232.83, -2842.49, 41326.88, 13337.93, -30293.97, 0.00, 0.00, 0.00, 0.00, 0.00, 0.00, 0.00
97, 5335.85, 75572.85, 12751.40, 32844.79, -42053.78, -2238.33, 9752.38, -44217.88, -2842.49, 41326.88, 13337.93, -30293.97, 0.00, 0.00, 0.00, 0.00, 0.00, 0.00, 0.00
98, 5335.85, 75572.85, 12751.40, 32844.79, -42053.78, -2238.33, 9752.38, -44217.88, -2822.27, 41377.95, 13354.72, -30327.63, 0.00, 0.00, 0.00, 0.00, 0.00, 0.00, 0.00
99, 5323.40, 75562.88, 12739.67, 32832.30, -42058.96, -2247.42, 9724.84, -44232.87, -2822.27, 41377.95, 13354.72, -30327.63, 0.00, 0.00, 0.00, 0.00, -0.02, 0.37, 0.94
100, 5323.40, 75562.88, 12739.67, 32832.30, -42058.96, -2247.42, 9724.84, -44232.87, -2842.11, 41321.91, 13329.64, -30284.13, 0.00, 0.00, 0.00, 0.00, 0.00, 0.00, 0.00
101, 5329.53, 75564.09, 12740.87, 32840.55, -42062.79, -2246.66, 9747.62, -44222.50, -2842.11, 41321.91, 13329.64, -30284.13, 0.00, 0.00, 0.00, 0.00, 0.00, 0.00, 0.00
102, 5329.53, 75564.09, 12740.87, 32840.55, -42062.79, -2246.66, 9747.62, -44222.50, -2843.07, 41339.57, 13350.83, -30301.83, 0.00, 0.00, 0.00, 0.00, 0.00, 0.00, 0.00
103, 5327.45, 75564.09, 12742.19, 32836.16, -42060.82, -2248.32, 9746.37, -44223.21, -2843.07, 41339.57, 13350.83, -30301.83, 0.00, 0.00, 0.00, 0.00, 0.00, 0.00, 0.00
104, 5327.45, 75564.09, 12742.19, 32836.16, -42060.82, -2248.32, 9746.37, -44223.21, -2840.24, 41326.00, 13338.78, -30293.12, 0.00, 0.00, 0.00, 0.00, 0.00, 0.00, 0.00
105, 5332.14, 75573.23, 12748.54, 32846.78, -42053.80, -2235.55, 9752.78, -44215.48, -2840.24, 41326.00, 13338.78, -30293.12, 0.00, 0.00, 0.00, 0.00, 0.00, 0.00, 0.00
106, 5332.14, 75573.23, 12748.54, 32846.78, -42053.80, -2235.55, 9752.78, -44215.48, -2835.72, 41353.27, 13353.36, -30284.85, 0.00, 0.00, 0.00, 0.00, 0.00, 0.00, 0.00
107, 5334.33, 75573.88, 12746.71, 32841.95, -42056.39, -2239.82, 9746.03, -44220.24, -2835.72, 41353.27, 13353.36, -30284.85, 0.00, 0.00, 0.00, 0.00, 0.00, 0.00, 0.00
108, 5334.33, 75573.88, 12746.71, 32841.95, -42056.39, -2239.82, 9746.03, -44220.24, -2831.59, 41344.96, 13336.21, -30278.07, 0.00, 0.00, 0.00, 0.00, 0.00, 0.00, 0.00
109, 5330.73, 75570.91, 12742.44, 32835.61, -42057.67, -2250.55, 9734.61, -44225.76, -2831.59, 41344.96, 13336.21, -30278.07, 0.00, 0.00, 0.00, 0.00, -0.02, 0.36, 0.94
110, 5330.73, 75570.91, 12742.44, 32835.61, -42057.67, -2250.55, 9734.61, -44225.76, -2838.18, 41353.30, 13344.48, -30295.08, 0.00, 0.00, 0.00, 0.00, 0.00, 0.00, 0.00
111, 5333.89, 75570.02, 12743.15, 32840.14, -42057.58, -2242.75, 9742.79, -44212.29, -2838.18, 41353.30, 13344.48, -30295.08, 0.00, 0.00, 0.00, 0.00, 0.00, 0.00, 0.00
112, 5333.89, 75570.02, 12743.15, 32840.14, -42057.58, -2242.75, 9742.79, -44212.29, -2846.29, 41328.11, 13329.15, -30276.46, 0.00, 0.00, 0.00, 0.00, 0.00, 0.00, 0.00
113, 5323.49, 75564.48, 12736.83, 32834.71, -42067.68, -2249.61, 9738.19, -44223.28, -2846.29, 41328.11, 13329.15, -30276.46, 0.00, 0.00, 0.00, 0.00, 0.00, 0.00, 0.00
114, 5323.49, 75564.48, 12736.83, 32834.71, -42067.68, -2249.61, 9738.19, -44223.28, -2836.64, 41344.54, 13345.96, -30280.02, 0.00, 0.00, 0.00, 0.00, 0.00, 0.00, 0.00
115, 5336.41, 75571.71, 12747.22, 32846.89, -42053.09, -2234.39, 9750.79, -44219.37, -2836.64, 41344.54, 13345.96, -30280.02, 0.00, 0.00, 0.00, 0.00, 0.00, 0.00, 0.00
116, 5336.41, 75571.71, 12747.22, 32846.89, -42053.09, -2234.39, 9750.79, -44219.37, -2842.43, 41323.95, 13333.26, -30243.41, 0.00, 0.00, 0.00, 0.00, 0.00, 0.00, 0.00
117, 5323.09, 75561.92, 12737.25, 32829.73, -42061.64, -2250.91, 9741.45, -44215.41, -2842.43, 41323.95, 13333.26, -30243.41, 0.00, 0.00, 0.00, 0.00, 0.00, 0.00, 0.00
118, 5323.09, 75561.92, 12737.25, 32829.73, -42061.64, -2250.91, 9741.45, -44215.41, -2836.46, 41346.05, 13350.05, -30259.86, 0.00, 0.00, 0.00, 0.00, -0.02, 0.36, 0.94
119, 5334.20, 75578.76, 12750.53, 32845.71, -42047.72, -2238.59, 9752.83, -44210.50, -2836.46, 41346.05, 13350.05, -30259.86, 0.00, 0.00, 0.00, 0.00, 0.00, 0.00, 0.00
120, 5334.20, 75578.76, 12750.53, 32845.71, -42047.72, -2238.59, 9752.83, -44210.50, -2834.18, 41335.17, 13343.72, -30258.99, 0.00, 0.00, 0.00, 0.00, 0.00, 0.00, 0.00
121, 5325.84, 75564.48, 12736.47, 32829.66, -42061.76, -2249.77, 9732.04, -44220.60, -2834.18, 41335.17, 13343.72, -30258.99, 0.00, 0.00, 0.00, 0.00, 0.00, 0.00, 0.00
122, 5325.84, 75564.48, 12736.47, 32829.66, -42061.76, -2249.77, 9732.04, -44220.60, -2833.93, 41343.75, 13349.15, -30290.32, 0.00, 0.00, 0.00, 0.00, 0.00, 0.00, 0.00
123, 5340.75, 75583.47, 12752.00, 32849.44, -42050.49, -2236.87, 9758.35, -44205.94, -2833.93, 41343.75, 13349.15, -30290.32, 0.00, 0.00, 0.00, 0.00, 0.00, 0.00, 0.00
124, 5340.75, 75583.47, 12752.00, 32849.44, -42050.49, -2236.87, 9758.35, -44205.94, -2836.82, 41335.41, 13343.28, -30233.33, 0.00, 0.00, 0.00, 0.00, 0.00, 0.00, 0.00
125, 5318.24, 75558.30, 12732.54, 32828.83, -42060.04, -2249.41, 9745.79, -44209.47, -2836.82, 41335.41, 13343.28, -30233.33, 0.00, 0.00, 0.00, 0.00, 0.00, 0.00, 0.00
126, 5318.24, 75558.30, 12732.54, 32828.83, -42060.04, -2249.41, 9745.79, -44209.47, -2833.22, 41344.87, 13343.23, -30210.59, 0.00, 0.00, 0.00, 0.00, 0.00, 0.00, 0.00
127, 5331.49, 75573.48, 12749.95, 32850.34, -42043.72, -2228.51, 9759.17, -44200.62, -2833.22, 41344.87, 13343.23, -30210.59, 0.00, 0.00, 0.00, 0.00, 0.00, 0.00, 0.00
128, 5331.49, 75573.48, 12749.95, 32850.34, -42043.72, -2228.51, 9759.17, -44200.62, -2828.12, 41349.32, 13347.32, -30220.79, 0.00, 0.00, 0.00, 0.00, -0.02, 0.37, 0.94
129, 5324.34, 75563.16, 12734.75, 32830.15, -42053.91, -2247.67, 9734.72, -44222.37, -2828.12, 41349.32, 13347.32, -30220.79, 0.00, 0.00, 0.00, 0.00, 0.00, 0.00, 0.00
130, 5324.34, 75563.16, 12734.75, 32830.15, -42053.91, -2247.67, 9734.72, -44222.37, -2818.02, 41361.52, 13347.77, -30245.78, 0.00, 0.00, 0.00, 0.00, 0.00, 0.00, 0.00
131, 5333.95, 75576.19, 12747.67, 32847.56, -42049.82, -2236.58, 9746.48, -44210.81, -2818.02, 41361.52, 13347.77, -30245.78, 0.00, 0.00, 0.00, 0.00, 0.00, 0.00, 0.00
132, 5333.95, 75576.19, 12747.67, 32847.56, -42049.82, -2236.58, 9746.48, -44210.81, -2849.36, 41333.43, 13338.94, -30255.72, 0.00, 0.00, 0.00, 0.00, 0.00, 0.00, 0.00
133, 5315.85, 75557.99, 12731.22, 32829.88, -42059.23, -2253.73, 9744.71, -44210.77, -2849.36, 41333.43, 13338.94, -30255.72, 0.00, 0.00, 0.00, 0.00, 0.00, 0.00, 0.00
134, 5315.85, 75557.99, 12731.22, 32829.88, -42059.23, -2253.73, 9744.71, -44210.77, -2843.83, 41321.22, 13339.43, -30240.63, 0.00, 0.00, 0.00, 0.00, 0.00, 0.00, 0.00
135, 5333.51, 75573.66, 12745.57, 32844.70, -42045.93, -2236.34, 9759.75, -44199.61, -2843.83, 41321.22, 13339.43, -30240.63, 0.00, 0.00, 0.00, 0.00, 0.00, 0.00, 0.00
136, 5333.51, 75573.66, 12745.57, 32844.70, -42045.93, -2236.34, 9759.75, -44199.61, -2832.77, 41344.82, 13345.40, -30175.57, 0.00, 0.00, 0.00, 0.00, 0.00, 0.00, 0.00
137, 5315.76, 75555.94, 12730.06, 32827.83, -42059.59, -2250.98, 9739.53, -44212.93, -2832.77, 41344.82, 13345.40, -30175.57, 0.00, 0.00, 0.00, 0.00, 0.00, 0.00, 0.00
138, 5315.76, 75555.94, 12730.06, 32827.83, -42059.59, -2250.98, 9739.53, -44212.93, -2832.50, 41344.63, 13333.98, -30200.47, 0.00, 0.00, 0.00, 0.00, -0.02, 0.36, 0.94
139, 5333.62, 75575.42, 12746.10, 32850.74, -42044.86, -2230.57, 9751.78, -44209.54, -2832.50, 41344.63, 13333.98, -30200.47, 0.00, 0.00, 0.00, 0.00, 0.00, 0.00, 0.00
140, 5333.62, 75575.42, 12746.10, 32850.74, -42044.86, -2230.57, 9751.78, -44209.54, -2830.27, 41347.55, 13341.73, -30226.35, 0.00, 0.00, 0.00, 0.00, 0.00, 0.00, 0.00
141, 5322.04, 75562.41, 12732.85, 32830.06, -42060.44, -2250.93, 9733.25, -44216.31, -2830.27, 41347.55, 13341.73, -30226.35, 0.00, 0.00, 0.00, 0.00, 0.00, 0.00, 0.00
142, 5322.04, 75562.41, 12732.85, 32830.06, -42060.44, -2250.93, 9733.25, -44216.31, -2844.89, 41317.71, 13338.11, -30204.45, 0.00, 0.00, 0.00, 0.00, 0.00, 0.00, 0.00
143, 5341.26, 75583.85, 12751.60, 32853.00, -42043.34, -2234.37, 9766.01, -44190.98, -2844.89, 41317.71, 13338.11, -30204.45, 0.00, 0.00, 0.00, 0.00, 0.00, 0.00, 0.00
144, 5341.26, 75583.85, 12751.60, 32853.00, -42043.34, -2234.37, 9766.01, -44190.98, -2835.48, 41350.35, 13354.67, -30208.56, 0.00, 0.00, 0.00, 0.00, 0.00, 0.00, 0.00
145, 5327.63, 75570.69, 12740.16, 32834.82, -42053.18, -2247.83, 9743.15, -44207.77, -2835.48, 41350.35, 13354.67, -30208.56, 0.00, 0.00, 0.00, 0.00, 0.00, 0.00, 0.00
146, 5327.63, 75570.69, 12740.16, 32834.82, -42053.18, -2247.83, 9743.15, -44207.77, -2836.91, 41334.79, 13338.38, -30187.88, 0.00, 0.00, 0.00, 0.00, 0.00, 0.00, 0.00
147, 5341.91, 75582.66, 12753.93, 32851.48, -42037.64, -2230.82, 9761.68, -44190.94, -2836.91, 41334.79, 13338.38, -30187.88, 0.00, 0.00, 0.00, 0.00, 0.00, 0.00, 0.00
148, 5341.91, 75582.66, 12753.93, 32851.48, -42037.64, -2230.82, 9761.68, -44190.94, -2819.56, 41369.32, 13359.30, -30198.55, 0.00, 0.00, 0.00, 0.00, -0.03, 0.37, 0.94
149, 5328.95, 75571.52, 12743.33, 32841.55, -42041.95, -2243.60, 9747.35, -44213.40, -2819.56, 41369.32, 13359.30, -30198.55, 0.00, 0.00, 0.00, 0.00, 0.00, 0.00, 0.00
150, 5328.95, 75571.52, 12743.33, 32841.55, -42041.95, -2243.60, 9747.35, -44213.40, -2825.19, 41352.00, 13339.90, -30178.45, 0.00, 0.00, 0.00, 0.00, 0.00, 0.00, 0.00
151, 5331.74, 75574.84, 12746.48, 32847.18, -42043.59, -2233.86, 9751.66, -44195.07, -2825.19, 41352.00, 13339.90, -30178.45, 0.00, 0.00, 0.00, 0.00, 0.00, 0.00, 0.00
152, 5331.74, 75574.84, 12746.48, 32847.18, -42043.59, -2233.86, 9751.66, -44195.07, -2839.52, 41344.67, 13352.60, -30171.54, 0.00, 0.00, 0.00, 0.00, 0.00, 0.00, 0.00
153, 5323.58, 75568.30, 12738.08, 32840.07, -42049.91, -2241.72, 9755.11, -44189.98, -2839.52, 41344.67, 13352.60, -30171.54, 0.00, 0.00, 0.00, 0.00, 0.00, 0.00, 0.00
154, 5323.58, 75568.30, 12738.08, 32840.07, -42049.91, -2241.72, 9755.11, -44189.98, -2845.15, 41318.20, 13334.63, -30167.19, 0.00, 0.00, 0.00, 0.00, 0.00, 0.00, 0.00
155, 5322.46, 75567.31, 12739.58, 32841.04, -42047.21, -2241.41, 9753.52, -44196.73, -2845.15, 41318.20, 13334.63, -30167.19, 0.00, 0.00, 0.00, 0.00, 0.00, 0.00, 0.00
156, 5322.46, 75567.31, 12739.58, 32841.04, -42047.21, -2241.41, 9753.52, -44196.73, -2828.61, 41349.68, 13359.03, -30174.52, 0.00, 0.00, 0.00, 0.00, 0.00, 0.00, 0.00
157, 5325.95, 75570.98, 12742.68, 32843.68, -42039.36, -2235.42, 9755.26, -44193.13, -2828.61, 41349.68, 13359.03, -30174.52, 0.00, 0.00, 0.00, 0.00, -0.02, 0.37, 0.95
158, 5325.95, 75570.98, 12742.68, 32843.68, -42039.36, -2235.42, 9755.26, -44193.13, -2824.12, 41343.35, 13342.85, -30156.48, 0.00, 0.00, 0.00, 0.00, 0.00, 0.00, 0.00
159, 5321.19, 75567.69, 12739.82, 32837.04, -42041.84, -2244.58, 9753.36, -44195.16, -2824.12, 41343.35, 13342.85, -30156.48, 0.00, 0.00, 0.00, 0.00, 0.00, 0.00, 0.00
160, 5321.19, 75567.69, 12739.82, 32837.04, -42041.84, -2244.58, 9753.36, -44195.16, -2820.72, 41358.91, 13360.93, -30173.80, 0.00, 0.00, 0.00, 0.00, 0.00, 0.00, 0.00
161, 5319.67, 75570.82, 12741.95, 32840.25, -42041.37, -2241.57, 9753.59, -44192.97, -2820.72, 41358.91, 13360.93, -30173.80, 0.00, 0.00, 0.00, 0.00, 0.00, 0.00, 0.00
162, 5319.67, 75570.82, 12741.95, 32840.25, -42041.37, -2241.57, 9753.59, -44192.97, -2823.47, 41348.42, 13339.68, -30162.25, 0.00, 0.00, 0.00, 0.00, 0.00, 0.00, 0.00
163, 5313.39, 75555.60, 12728.92, 32833.46, -42049.40, -2245.23, 9744.73, -44198.09, -2823.47, 41348.42, 13339.68, -30162.25, 0.00, 0.00, 0.00, 0.00, 0.00, 0.00, 0.00
164, 5313.39, 75555.60, 12728.92, 32833.46, -42049.40, -2245.23, 9744.73, -44198.09, -2834.83, 41345.99, 13350.76, -30166.40, 0.00, 0.00, 0.00, 0.00, 0.00, 0.00, 0.00
165, 5324.90, 75564.96, 12740.29, 32844.84, -42042.80, -2238.35, 9761.19, -44182.56, -2834.83, 41345.99, 13350.76, -30166.40, 0.00, 0.00, 0.00, 0.00, 0.00, 0.00, 0.00
166, 5324.90, 75564.96, 12740.29, 32844.84, -42042.80, -2238.35, 9761.19, -44182.56, -2837.38, 41339.80, 13334.38, -30147.52, 0.00, 0.00, 0.00, 0.00, 0.00, 0.00, 0.00
167, 5313.59, 75553.09, 12727.73, 32830.02, -42053.98, -2251.09, 9743.73, -44202.47, -2837.38, 41339.80, 13334.38, -30147.52, 0.00, 0.00, 0.00, 0.00, -0.02, 0.37, 0.95
168, 5313.59, 75553.09, 12727.73, 32830.02, -42053.98, -2251.09, 9743.73, -44202.47, -2822.44, 41371.29, 13351.23, -30140.28, 0.00, 0.00, 0.00, 0.00, 0.00, 0.00, 0.00
169, 5330.15, 75571.58, 12745.34, 32851.34, -42035.89, -2230.73, 9762.44, -44180.21, -2822.44, 41371.29, 13351.23, -30140.28, 0.00, 0.00, 0.00, 0.00, 0.00, 0.00, 0.00
170, 5330.15, 75571.58, 12745.34, 32851.34, -42035.89, -2230.73, 9762.44, -44180.21, -2829.44, 41339.21, 13340.01, -30129.21, 0.00, 0.00, 0.00, 0.00, 0.00, 0.00, 0.00
171, 5314.80, 75556.36, 12731.80, 32834.91, -42050.16, -2247.91, 9745.52, -44197.40, -2829.44, 41339.21, 13340.01, -30129.21, 0.00, 0.00, 0.00, 0.00, 0.00, 0.00, 0.00
172, 5314.80, 75556.36, 12731.80, 32834.91, -42050.16, -2247.91, 9745.52, -44197.40, -2829.51, 41343.80, 13351.88, -30146.18, 0.00, 0.00, 0.00, 0.00, 0.00, 0.00, 0.00
173, 5330.42, 75576.45, 12751.47, 32853.73, -42032.21, -2228.07, 9770.10, -44172.90, -2829.51, 41343.80, 13351.88, -30146.18, 0.00, 0.00, 0.00, 0.00, 0.00, 0.00, 0.00
174, 5330.42, 75576.45, 12751.47, 32853.73, -42032.21, -2228.07, 9770.10, -44172.90, -2822.02, 41352.52, 13351.32, -30128.07, 0.00, 0.00, 0.00, 0.00, 0.00, 0.00, 0.00
175, 5321.75, 75559.87, 12733.70, 32835.63, -42044.82, -2242.86, 9751.48, -44191.48, -2822.02, 41352.52, 13351.32, -30128.07, 0.00, 0.00, 0.00, 0.00, 0.00, 0.00, 0.00
176, 5321.75, 75559.87, 12733.70, 32835.63, -42044.82, -2242.86, 9751.48, -44191.48, -2820.23, 41359.58, 13351.03, -30142.33, 0.00, 0.00, 0.00, 0.00, 0.00, 0.00, 0.00
177, 5333.62, 75580.90, 12752.05, 32854.09, -42022.95, -2227.42, 9772.65, -44171.18, -2820.23, 41359.58, 13351.03, -30142.33, 0.00, 0.00, 0.00, 0.00, -0.02, 0.37, 0.94
178, 5333.62, 75580.90, 12752.05, 32854.09, -42022.95, -2227.42, 9772.65, -44171.18, -2812.83, 41368.12, 13359.70, -30126.24, 0.00, 0.00, 0.00, 0.00, 0.00, 0.00, 0.00
179, 5312.00, 75560.54, 12733.05, 32826.29, -42038.11, -2250.71, 9745.27, -44184.82, -2812.83, 41368.12, 13359.70, -30126.24, 0.00, 0.00, 0.00, 0.00, 0.00, 0.00, 0.00
180, 5312.00, 75560.54, 12733.05, 32826.29, -42038.11, -2250.71, 9745.27, -44184.82, -2817.64, 41362.62, 13354.05, -30113.30, 0.00, 0.00, 0.00, 0.00, 0.00, 0.00, 0.00
181, 5328.43, 75580.05, 12751.58, 32854.79, -42030.96, -2227.64, 9770.46, -44165.55, -2817.64, 41362.62, 13354.05, -30113.30, 0.00, 0.00, 0.00, 0.00, 0.00, 0.00, 0.00
182, 5328.43, 75580.05, 12751.58, 32854.79, -42030.96, -2227.64, 9770.46, -44165.55, -2824.41, 41346.66, 13356.26, -30126.75, 0.00, 0.00, 0.00, 0.00, 0.00, 0.00, 0.00
183, 5310.13, 75551.82, 12724.38, 32828.16, -42046.94, -2247.11, 9755.04, -44184.82, -2824.41, 41346.66, 13356.26, -30126.75, 0.00, 0.00, 0.00, 0.00, 0.00, 0.00, 0.00
184, 5310.13, 75551.82, 12724.38, 32828.16, -42046.94, -2247.11, 9755.04, -44184.82, -2832.73, 41332.44, 13340.97, -30112.00, 0.00, 0.00, 0.00, 0.00, 0.00, 0.00, 0.00
185, 5319.51, 75564.16, 12741.54, 32852.23, -42031.79, -2227.24, 9764.49, -44170.40, -2832.73, 41332.44, 13340.97, -30112.00, 0.00, 0.00, 0.00, 0.00, 0.00, 0.00, 0.00
186, 5319.51, 75564.16, 12741.54, 32852.23, -42031.79, -2227.24, 9764.49, -44170.40, -2820.16, 41360.05, 13348.57, -30108.92, 0.00, 0.00, 0.00, 0.00, 0.00, 0.00, 0.00
187, 5300.11, 75547.35, 12723.57, 32828.27, -42043.27, -2248.34, 9749.09, -44190.07, -2820.16, 41360.05, 13348.57, -30108.92, 0.00, 0.00, 0.00, 0.00, -0.03, 0.37, 0.94
188, 5300.11, 75547.35, 12723.57, 32828.27, -42043.27, -2248.34, 9749.09, -44190.07, -2810.64, 41361.23, 13339.57, -30108.63, 0.00, 0.00, 0.00, 0.00, 0.00, 0.00, 0.00
189, 5316.85, 75563.76, 12737.70, 32846.65, -42030.00, -2234.48, 9762.84, -44177.66, -2810.64, 41361.23, 13339.57, -30108.63, 0.00, 0.00, 0.00, 0.00, 0.00, 0.00, 0.00
190, 5316.85, 75563.76, 12737.70, 32846.65, -42030.00, -2234.48, 9762.84, -44177.66, -2829.48, 41349.30, 13353.45, -30108.78, 0.00, 0.00, 0.00, 0.00, 0.00, 0.00, 0.00
191, 5305.43, 75549.52, 12727.64, 32832.30, -42044.12, -2241.88, 9750.95, -44179.05, -2829.48, 41349.30, 13353.45, -30108.78, 0.00, 0.00, 0.00, 0.00, 0.00, 0.00, 0.00
192, 5305.43, 75549.52, 12727.64, 32832.30, -42044.12, -2241.88, 9750.95, -44179.05, -2828.32, 41335.77, 13342.83, -30103.57, 0.00, 0.00, 0.00, 0.00, 0.00, 0.00, 0.00
193, 5326.49, 75572.05, 12745.90, 32852.13, -42022.71, -2230.66, 9775.38, -44152.92, -2828.32, 41335.77, 13342.83, -30103.57, 0.00, 0.00, 0.00, 0.00, 0.00, 0.00, 0.00
194, 5326.49, 75572.05, 12745.90, 32852.13, -42022.71, -2230.66, 9775.38, -44152.92, -2814.22, 41368.45, 13367.77, -30080.39, 0.00, 0.00, 0.00, 0.00, 0.00, 0.00, 0.00
195, 5309.57, 75556.36, 12730.41, 32833.86, -42032.99, -2243.94, 9762.84, -44171.58, -2814.22, 41368.45, 13367.77, -30080.39, 0.00, 0.00, 0.00, 0.00, 0.00, 0.00, 0.00
196, 5309.57, 75556.36, 12730.41, 32833.86, -42032.99, -2243.94, 9762.84, -44171.58, -2815.09, 41344.58, 13345.02, -30079.08, 0.00, 0.00, 0.00, 0.00, -0.03, 0.36, 0.94
197, 5314.31, 75570.02, 12741.70, 32845.51, -42022.48, -2231.75, 9768.27, -44166.89, -2815.09, 41344.58, 13345.02, -30079.08, 0.00, 0.00, 0.00, 0.00, 0.00, 0.00, 0.00
198, 5314.31, 75570.02, 12741.70, 32845.51, -42022.48, -2231.75, 9768.27, -44166.89, -2793.25, 41388.97, 13368.67, -30088.55, 0.00, 0.00, 0.00, 0.00, 0.00, 0.00, 0.00
199, 5311.13, 75563.84, 12736.14, 32836.48, -42025.55, -2239.91, 9760.29, -44166.93, -2793.25, 41388.97, 13368.67, -30088.55, 0.00, 0.00, 0.00, 0.00, 0.00, 0.00, 0.00
200, 5311.13, 75563.84, 12736.14, 32836.48, -42025.55, -2239.91, 9760.29, -44166.93, -2809.68, 41345.96, 13349.04, -30078.09, 0.00, 0.00, 0.00, 0.00, 0.00, 0.00, 0.00
201, 5312.94, 75564.16, 12740.20, 32846.80, -42021.17, -2230.57, 9771.20, -44163.58, -2809.68, 41345.96, 13349.04, -30078.09, 0.00, 0.00, 0.00, 0.00, 0.00, 0.00, 0.00
202, 5312.94, 75564.16, 12740.20, 32846.80, -42021.17, -2230.57, 9771.20, -44163.58, -2814.91, 41350.79, 13363.91, -30073.31, 0.00, 0.00, 0.00, 0.00, 0.00, 0.00, 0.00
203, 5310.73, 75561.70, 12734.62, 32837.37, -42024.05, -2234.30, 9770.15, -44158.08, -2814.91, 41350.79, 13363.91, -30073.31, 0.00, 0.00, 0.00, 0.00, 0.00, 0.00, 0.00
204, 5310.73, 75561.70, 12734.62, 32837.37, -42024.05, -2234.30, 9770.15, -44158.08, -2808.68, 41352.04, 13352.02, -30050.49, 0.00, 0.00, 0.00, 0.00, 0.00, 0.00, 0.00
205, 5316.90, 75563.89, 12740.70, 32849.26, -42017.32, -2226.95, 9770.35, -44153.88, -2808.68, 41352.04, 13352.02, -30050.49, 0.00, 0.00, 0.00, 0.00, 0.00, 0.00, 0.00
206, 5316.90, 75563.89, 12740.70, 32849.26, -42017.32, -2226.95, 9770.35, -44153.88, -2805.46, 41371.25, 13364.73, -30072.73, 0.00, 0.00, 0.00, 0.00, -0.02, 0.36, 0.94
