%OpenBCI Raw EEG Data
%
%Sample Rate = 250.0 Hz
%First Column = SampleIndex
%Other Columns = EEG data in microvolts followed by Accel Data (in G) interleaved with Aux Data
0, 0.00, 0.00, 0.00, 0.00, 0.00, 0.00, 0.00, 0.00, -7283.41, 41982.83, 13068.33, -47073.80, 0.00, 0.00, 0.00, 0.00, -0.12, 0.43, 0.90
1, 6003.12, 75220.39, 11807.15, 33981.24, -27848.13, -4912.20, 10154.93, -30011.33, -7283.41, 41982.83, 13068.33, -47073.80, 0.00, 0.00, 0.00, 0.00, 0.00, 0.00, 0.00
2, 6003.12, 75220.39, 11807.15, 33981.24, -27848.13, -4912.20, 10154.93, -30011.33, -14132.40, 41192.21, 13823.82, -55672.89, 0.00, 0.00, 0.00, 0.00, 0.00, 0.00, 0.00
3, 5990.83, 75200.20, 11793.38, 33970.94, -27860.17, -4922.28, 10140.74, -30017.95, -14132.40, 41192.21, 13823.82, -55672.89, 0.00, 0.00, 0.00, 0.00, 0.00, 0.00, 0.00
4, 5990.83, 75200.20, 11793.38, 33970.94, -27860.17, -4922.28, 10140.74, -30017.95, -14124.80, 41199.23, 13814.88, -55654.55, 0.00, 0.00, 0.00, 0.00, 0.00, 0.00, 0.00
5, 6004.66, 75215.67, 11810.68, 33987.82, -27845.20, -4906.54, 10160.32, -29999.21, -14124.80, 41199.23, 13814.88, -55654.55, 0.00, 0.00, 0.00, 0.00, 0.00, 0.00, 0.00
6, 6004.66, 75215.67, 11810.68, 33987.82, -27845.20, -4906.54, 10160.32, -29999.21, -14115.33, 41200.41, 13814.83, -55643.46, 0.00, 0.00, 0.00, 0.00, -0.14, 0.40, 0.90
7, 5989.15, 75200.74, 11789.85, 33969.60, -27867.62, -4923.19, 10132.45, -30024.27, -14115.33, 41200.41, 13814.83, -55643.46, 0.00, 0.00, 0.00, 0.00, 0.00, 0.00, 0.00
8, 5989.15, 75200.74, 11789.85, 33969.60, -27867.62, -4923.19, 10132.45, -30024.27, -14107.84, 41187.87, 13803.79, -55655.26, 0.00, 0.00, 0.00, 0.00, 0.00, 0.00, 0.00
9, 5995.18, 75204.03, 11797.94, 33982.12, -27861.49, -4915.26, 10147.71, -30013.34, -14107.84, 41187.87, 13803.79, -55655.26, 0.00, 0.00, 0.00, 0.00, 0.00, 0.00, 0.00
10, 5995.18, 75204.03, 11797.94, 33982.12, -27861.49, -4915.26, 10147.71, -30013.34, -14096.93, 41192.97, 13804.19, -55617.24, 0.00, 0.00, 0.00, 0.00, 0.00, 0.00, 0.00
11, 5988.08, 75188.72, 11787.82, 33979.68, -27866.66, -4912.60, 10140.56, -30011.60, -14096.93, 41192.97, 13804.19, -55617.24, 0.00, 0.00, 0.00, 0.00, 0.00, 0.00, 0.00
12, 5988.08, 75188.72, 11787.82, 33979.68, -27866.66, -4912.60, 10140.56, -30011.60, -14068.68, 41218.94, 13802.83, -55580.47, 0.00, 0.00, 0.00, 0.00, 0.00, 0.00, 0.00
13, 6004.06, 75207.98, 11805.12, 33993.36, -27851.52, -4895.86, 10152.45, -29982.27, -14068.68, 41218.94, 13802.83, -55580.47, 0.00, 0.00, 0.00, 0.00, 0.00, 0.00, 0.00
14, 6004.06, 75207.98, 11805.12, 33993.36, -27851.52, -4895.86, 10152.45, -29982.27, -14060.41, 41224.84, 13805.31, -55580.43, 0.00, 0.00, 0.00, 0.00, 0.00, 0.00, 0.00
15, 5991.85, 75189.05, 11787.50, 33976.42, -27868.40, -4913.47, 10133.50, -30003.80, -14060.41, 41224.84, 13805.31, -55580.43, 0.00, 0.00, 0.00, 0.00, 0.00, 0.00, 0.00
16, 5991.85, 75189.05, 11787.50, 33976.42, -27868.40, -4913.47, 10133.50, -30003.80, -14044.41, 41223.23, 13798.78, -55556.40, 0.00, 0.00, 0.00, 0.00, -0.14, 0.40, 0.91
17, 5998.18, 75204.88, 11801.61, 33989.65, -27850.92, -4897.80, 10161.06, -29970.76, -14044.41, 41223.23, 13798.78, -55556.40, 0.00, 0.00, 0.00, 0.00, 0.00, 0.00, 0.00
18, 5998.18, 75204.88, 11801.61, 33989.65, -27850.92, -4897.80, 10161.06, -29970.76, -14020.98, 41255.04, 13812.15, -55519.81, 0.00, 0.00, 0.00, 0.00, 0.00, 0.00, 0.00
19, 6001.02, 75201.26, 11795.80, 33979.75, -27860.42, -4905.29, 10139.18, -29985.58, -14020.98, 41255.04, 13812.15, -55519.81, 0.00, 0.00, 0.00, 0.00, 0.00, 0.00, 0.00
20, 6001.02, 75201.26, 11795.80, 33979.75, -27860.42, -4905.29, 10139.18, -29985.58, -14009.74, 41229.18, 13808.77, -55522.91, 0.00, 0.00, 0.00, 0.00, 0.00, 0.00, 0.00
21, 6009.98, 75214.47, 11809.57, 33991.39, -27851.61, -4899.06, 10149.05, -29973.11, -14009.74, 41229.18, 13808.77, -55522.91, 0.00, 0.00, 0.00, 0.00, 0.00, 0.00, 0.00
22, 6009.98, 75214.47, 11809.57, 33991.39, -27851.61, -4899.06, 10149.05, -29973.11, -13982.04, 41249.43, 13825.27, -55510.85, 0.00, 0.00, 0.00, 0.00, 0.00, 0.00, 0.00
23, 6001.96, 75207.88, 11801.61, 33979.37, -27852.73, -4905.90, 10140.92, -29981.02, -13982.04, 41249.43, 13825.27, -55510.85, 0.00, 0.00, 0.00, 0.00, 0.00, 0.00, 0.00
24, 6001.96, 75207.88, 11801.61, 33979.37, -27852.73, -4905.90, 10140.92, -29981.02, -13973.01, 41234.39, 13815.01, -55503.67, 0.00, 0.00, 0.00, 0.00, 0.00, 0.00, 0.00
25, 6006.47, 75216.12, 11808.56, 33987.37, -27849.85, -4899.81, 10149.52, -29967.12, -13973.01, 41234.39, 13815.01, -55503.67, 0.00, 0.00, 0.00, 0.00, 0.00, 0.00, 0.00
26, 6006.47, 75216.12, 11808.56, 33987.37, -27849.85, -4899.81, 10149.52, -29967.12, -13950.19, 41262.10, 13825.74, -55481.50, 0.00, 0.00, 0.00, 0.00, -0.14, 0.40, 0.91
27, 5994.54, 75203.13, 11796.98, 33982.23, -27855.57, -4893.44, 10141.08, -29956.90, -13950.19, 41262.10, 13825.74, -55481.50, 0.00, 0.00, 0.00, 0.00, 0.00, 0.00, 0.00
28, 5994.54, 75203.13, 11796.98, 33982.23, -27855.57, -4893.44, 10141.08, -29956.90, -13943.69, 41260.71, 13803.52, -55442.79, 0.00, 0.00, 0.00, 0.00, 0.00, 0.00, 0.00
29, 5986.53, 75193.55, 11788.51, 33972.26, -27872.13, -4910.43, 10129.25, -29977.49, -13943.69, 41260.71, 13803.52, -55442.79, 0.00, 0.00, 0.00, 0.00, 0.00, 0.00, 0.00
30, 5986.53, 75193.55, 11788.51, 33972.26, -27872.13, -4910.43, 10129.25, -29977.49, -13930.39, 41241.83, 13806.52, -55472.11, 0.00, 0.00, 0.00, 0.00, 0.00, 0.00, 0.00
31, 5987.18, 75195.36, 11788.98, 33973.20, -27872.42, -4907.30, 10129.41, -29977.26, -13930.39, 41241.83, 13806.52, -55472.11, 0.00, 0.00, 0.00, 0.00, 0.00, 0.00, 0.00
32, 5987.18, 75195.36, 11788.98, 33973.20, -27872.42, -4907.30, 10129.41, -29977.26, -13924.96, 41232.48, 13799.39, -55466.16, 0.00, 0.00, 0.00, 0.00, 0.00, 0.00, 0.00
33, 5997.46, 75203.72, 11797.65, 33981.63, -27876.04, -4902.16, 10119.86, -29970.43, -13924.96, 41232.48, 13799.39, -55466.16, 0.00, 0.00, 0.00, 0.00, 0.00, 0.00, 0.00
34, 5997.46, 75203.72, 11797.65, 33981.63, -27876.04, -4902.16, 10119.86, -29970.43, -13894.96, 41271.18, 13821.45, -55426.00, 0.00, 0.00, 0.00, 0.00, 0.00, 0.00, 0.00
35, 6008.42, 75219.09, 11810.75, 33994.32, -27864.02, -4888.17, 10133.88, -29955.87, -13894.96, 41271.18, 13821.45, -55426.00, 0.00, 0.00, 0.00, 0.00, 0.00, 0.00, 0.00
36, 6008.42, 75219.09, 11810.75, 33994.32, -27864.02, -4888.17, 10133.88, -29955.87, -13890.76, 41249.41, 13807.99, -55428.59, 0.00, 0.00, 0.00, 0.00, -0.14, 0.40, 0.90
37, 5998.67, 75206.15, 11799.15, 33979.55, -27881.41, -4902.77, 10107.75, -29974.25, -13890.76, 41249.41, 13807.99, -55428.59, 0.00, 0.00, 0.00, 0.00, 0.00, 0.00, 0.00
38, 5998.67, 75206.15, 11799.15, 33979.55, -27881.41, -4902.77, 10107.75, -29974.25, -13875.98, 41262.01, 13823.48, -55401.57, 0.00, 0.00, 0.00, 0.00, 0.00, 0.00, 0.00
39, 6024.13, 75236.05, 11827.76, 34002.05, -27858.92, -4886.16, 10131.46, -29949.30, -13875.98, 41262.01, 13823.48, -55401.57, 0.00, 0.00, 0.00, 0.00, 0.00, 0.00, 0.00
40, 6024.13, 75236.05, 11827.76, 34002.05, -27858.92, -4886.16, 10131.46, -29949.30, -13852.16, 41268.63, 13831.35, -55385.14, 0.00, 0.00, 0.00, 0.00, 0.00, 0.00, 0.00
41, 6016.98, 75229.87, 11820.72, 33993.20, -27872.18, -4886.96, 10126.03, -29953.84, -13852.16, 41268.63, 13831.35, -55385.14, 0.00, 0.00, 0.00, 0.00, 0.00, 0.00, 0.00
42, 6016.98, 75229.87, 11820.72, 33993.20, -27872.18, -4886.96, 10126.03, -29953.84, -13831.13, 41289.48, 13840.13, -55351.77, 0.00, 0.00, 0.00, 0.00, 0.00, 0.00, 0.00
43, 6025.76, 75245.85, 11835.56, 34005.92, -27857.96, -4877.49, 10135.76, -29934.28, -13831.13, 41289.48, 13840.13, -55351.77, 0.00, 0.00, 0.00, 0.00, 0.00, 0.00, 0.00
44, 6025.76, 75245.85, 11835.56, 34005.92, -27857.96, -4877.49, 10135.76, -29934.28, -13823.48, 41276.94, 13831.64, -55369.40, 0.00, 0.00, 0.00, 0.00, 0.00, 0.00, 0.00
45, 6008.44, 75224.50, 11813.88, 33986.47, -27890.24, -4894.81, 10100.35, -29961.28, -13823.48, 41276.94, 13831.64, -55369.40, 0.00, 0.00, 0.00, 0.00, -0.13, 0.41, 0.91
46, 6008.44, 75224.50, 11813.88, 33986.47, -27890.24, -4894.81, 10100.35, -29961.28, -13809.06, 41279.80, 13833.34, -55361.38, 0.00, 0.00, 0.00, 0.00, 0.00, 0.00, 0.00
47, 6026.34, 75244.10, 11834.40, 34006.28, -27871.35, -4878.58, 10123.95, -29941.86, -13809.06, 41279.80, 13833.34, -55361.38, 0.00, 0.00, 0.00, 0.00, 0.00, 0.00, 0.00
48, 6026.34, 75244.10, 11834.40, 34006.28, -27871.35, -4878.58, 10123.95, -29941.86, -13800.06, 41273.43, 13841.32, -55332.66, 0.00, 0.00, 0.00, 0.00, 0.00, 0.00, 0.00
49, 6010.32, 75224.26, 11813.03, 33982.21, -27897.17, -4900.46, 10098.05, -29963.56, -13800.06, 41273.43, 13841.32, -55332.66, 0.00, 0.00, 0.00, 0.00, 0.00, 0.00, 0.00
50, 6010.32, 75224.26, 11813.03, 33982.21, -27897.17, -4900.46, 10098.05, -29963.56, -13777.15, 41293.06, 13826.74, -55307.73, 0.00, 0.00, 0.00, 0.00, 0.00, 0.00, 0.00
51, 6021.20, 75238.02, 11827.65, 34006.68, -27887.80, -4874.16, 10119.57, -29933.90, -13777.15, 41293.06, 13826.74, -55307.73, 0.00, 0.00, 0.00, 0.00, 0.00, 0.00, 0.00
52, 6021.20, 75238.02, 11827.65, 34006.68, -27887.80, -4874.16, 10119.57, -29933.90, -13774.11, 41283.31, 13824.08, -55327.50, 0.00, 0.00, 0.00, 0.00, 0.00, 0.00, 0.00
53, 5997.96, 75207.45, 11797.97, 33973.67, -27924.06, -4903.55, 10075.36, -29977.40, -13774.11, 41283.31, 13824.08, -55327.50, 0.00, 0.00, 0.00, 0.00, 0.00, 0.00, 0.00
54, 5997.96, 75207.45, 11797.97, 33973.67, -27924.06, -4903.55, 10075.36, -29977.40, -13765.95, 41268.36, 13816.22, -55315.11, 0.00, 0.00, 0.00, 0.00, 0.00, 0.00, 0.00
55, 6022.77, 75238.65, 11829.62, 34002.72, -27896.29, -4880.64, 10110.21, -29943.65, -13765.95, 41268.36, 13816.22, -55315.11, 0.00, 0.00, 0.00, 0.00, -0.13, 0.41, 0.91
56, 6022.77, 75238.65, 11829.62, 34002.72, -27896.29, -4880.64, 10110.21, -29943.65, -13740.15, 41291.38, 13827.53, -55292.63, 0.00, 0.00, 0.00, 0.00, 0.00, 0.00, 0.00
57, 6007.63, 75213.98, 11803.11, 33982.99, -27929.15, -4891.86, 10076.90, -29965.35, -13740.15, 41291.38, 13827.53, -55292.63, 0.00, 0.00, 0.00, 0.00, 0.00, 0.00, 0.00
58, 6007.63, 75213.98, 11803.11, 33982.99, -27929.15, -4891.86, 10076.90, -29965.35, -13745.41, 41270.57, 13805.15, -55286.39, 0.00, 0.00, 0.00, 0.00, 0.00, 0.00, 0.00
59, 6014.88, 75224.08, 11816.76, 33996.09, -27916.84, -4880.03, 10096.66, -29947.29, -13745.41, 41270.57, 13805.15, -55286.39, 0.00, 0.00, 0.00, 0.00, 0.00, 0.00, 0.00
60, 6014.88, 75224.08, 11816.76, 33996.09, -27916.84, -4880.03, 10096.66, -29947.29, -13711.23, 41290.18, 13816.84, -55278.19, 0.00, 0.00, 0.00, 0.00, 0.00, 0.00, 0.00
61, 6008.48, 75214.76, 11806.01, 33983.66, -27934.43, -4889.27, 10072.79, -29967.43, -13711.23, 41290.18, 13816.84, -55278.19, 0.00, 0.00, 0.00, 0.00, 0.00, 0.00, 0.00
62, 6008.48, 75214.76, 11806.01, 33983.66, -27934.43, -4889.27, 10072.79, -29967.43, -13716.21, 41272.85, 13810.99, -55275.95, 0.00, 0.00, 0.00, 0.00, 0.00, 0.00, 0.00
63, 6015.08, 75226.85, 11817.10, 33993.71, -27926.92, -4884.66, 10082.74, -29947.45, -13716.21, 41272.85, 13810.99, -55275.95, 0.00, 0.00, 0.00, 0.00, 0.00, 0.00, 0.00
64, 6015.08, 75226.85, 11817.10, 33993.71, -27926.92, -4884.66, 10082.74, -29947.45, -13688.34, 41295.32, 13826.57, -55247.63, 0.00, 0.00, 0.00, 0.00, 0.00, 0.00, 0.00
65, 6013.40, 75226.78, 11811.94, 33984.38, -27939.88, -4890.92, 10069.13, -29961.73, -13688.34, 41295.32, 13826.57, -55247.63, 0.00, 0.00, 0.00, 0.00, -0.13, 0.41, 0.91
66, 6013.40, 75226.78, 11811.94, 33984.38, -27939.88, -4890.92, 10069.13, -29961.73, -13678.44, 41285.04, 13821.16, -55229.23, 0.00, 0.00, 0.00, 0.00, 0.00, 0.00, 0.00
67, 6028.13, 75244.53, 11829.44, 34003.42, -27931.88, -4876.79, 10083.99, -29945.35, -13678.44, 41285.04, 13821.16, -55229.23, 0.00, 0.00, 0.00, 0.00, 0.00, 0.00, 0.00
68, 6028.13, 75244.53, 11829.44, 34003.42, -27931.88, -4876.79, 10083.99, -29945.35, -13665.88, 41293.68, 13838.10, -55225.64, 0.00, 0.00, 0.00, 0.00, 0.00, 0.00, 0.00
69, 6023.10, 75235.19, 11818.86, 33990.88, -27943.17, -4885.96, 10067.25, -29956.97, -13665.88, 41293.68, 13838.10, -55225.64, 0.00, 0.00, 0.00, 0.00, 0.00, 0.00, 0.00
70, 6023.10, 75235.19, 11818.86, 33990.88, -27943.17, -4885.96, 10067.25, -29956.97, -13645.69, 41289.06, 13822.32, -55210.44, 0.00, 0.00, 0.00, 0.00, 0.00, 0.00, 0.00
71, 6033.56, 75248.30, 11834.11, 34003.60, -27936.35, -4876.37, 10077.17, -29941.86, -13645.69, 41289.06, 13822.32, -55210.44, 0.00, 0.00, 0.00, 0.00, 0.00, 0.00, 0.00
72, 6033.56, 75248.30, 11834.11, 34003.60, -27936.35, -4876.37, 10077.17, -29941.86, -13634.34, 41306.85, 13837.92, -55199.98, 0.00, 0.00, 0.00, 0.00, 0.00, 0.00, 0.00
73, 6031.75, 75240.13, 11827.49, 34001.54, -27950.47, -4879.43, 10070.02, -29954.20, -13634.34, 41306.85, 13837.92, -55199.98, 0.00, 0.00, 0.00, 0.00, 0.00, 0.00, 0.00
74, 6031.75, 75240.13, 11827.49, 34001.54, -27950.47, -4879.43, 10070.02, -29954.20, -13627.37, 41286.75, 13818.70, -55199.53, 0.00, 0.00, 0.00, 0.00, 0.00, 0.00, 0.00
75, 6038.75, 75249.60, 11837.35, 34013.16, -27946.25, -4869.57, 10078.36, -29943.11, -13627.37, 41286.75, 13818.70, -55199.53, 0.00, 0.00, 0.00, 0.00, -0.14, 0.41, 0.91
76, 6038.75, 75249.60, 11837.35, 34013.16, -27946.25, -4869.57, 10078.36, -29943.11, -13604.05, 41307.68, 13833.65, -55170.79, 0.00, 0.00, 0.00, 0.00, 0.00, 0.00, 0.00
77, 6034.88, 75242.65, 11831.38, 34007.11, -27957.72, -4874.42, 10058.93, -29953.15, -13604.05, 41307.68, 13833.65, -55170.79, 0.00, 0.00, 0.00, 0.00, 0.00, 0.00, 0.00
78, 6034.88, 75242.65, 11831.38, 34007.11, -27957.72, -4874.42, 10058.93, -29953.15, -13601.93, 41277.75, 13816.60, -55186.57, 0.00, 0.00, 0.00, 0.00, 0.00, 0.00, 0.00
79, 6033.25, 75238.20, 11831.94, 34013.57, -27959.08, -4867.58, 10063.58, -29952.25, -13601.93, 41277.75, 13816.60, -55186.57, 0.00, 0.00, 0.00, 0.00, 0.00, 0.00, 0.00
80, 6033.25, 75238.20, 11831.94, 34013.57, -27959.08, -4867.58, 10063.58, -29952.25, -13580.14, 41308.50, 13825.60, -55140.32, 0.00, 0.00, 0.00, 0.00, 0.00, 0.00, 0.00
81, 6023.59, 75230.52, 11824.88, 34007.71, -27955.08, -4869.60, 10073.42, -29937.05, -13580.14, 41308.50, 13825.60, -55140.32, 0.00, 0.00, 0.00, 0.00, 0.00, 0.00, 0.00
82, 6023.59, 75230.52, 11824.88, 34007.71, -27955.08, -4869.60, 10073.42, -29937.05, -13573.07, 41292.90, 13801.82, -55144.43, 0.00, 0.00, 0.00, 0.00, 0.00, 0.00, 0.00
83, 6007.50, 75213.77, 11806.88, 33994.61, -27984.65, -4881.96, 10045.81, -29953.88, -13573.07, 41292.90, 13801.82, -55144.43, 0.00, 0.00, 0.00, 0.00, 0.00, 0.00, 0.00
84, 6007.50, 75213.77, 11806.88, 33994.61, -27984.65, -4881.96, 10045.81, -29953.88, -13567.15, 41294.98, 13805.26, -55139.18, 0.00, 0.00, 0.00, 0.00, -0.14, 0.41, 0.92
85, 6013.58, 75219.88, 11812.36, 34001.54, -27978.73, -4873.95, 10052.92, -29952.88, -13567.15, 41294.98, 13805.26, -55139.18, 0.00, 0.00, 0.00, 0.00, 0.00, 0.00, 0.00
86, 6013.58, 75219.88, 11812.36, 34001.54, -27978.73, -4873.95, 10052.92, -29952.88, -13565.68, 41271.96, 13798.40, -55118.68, 0.00, 0.00, 0.00, 0.00, 0.00, 0.00, 0.00
87, 6005.89, 75208.77, 11799.15, 33988.80, -27996.54, -4888.21, 10042.77, -29963.16, -13565.68, 41271.96, 13798.40, -55118.68, 0.00, 0.00, 0.00, 0.00, 0.00, 0.00, 0.00
88, 6005.89, 75208.77, 11799.15, 33988.80, -27996.54, -4888.21, 10042.77, -29963.16, -13541.38, 41302.71, 13806.47, -55111.80, 0.00, 0.00, 0.00, 0.00, 0.00, 0.00, 0.00
89, 6018.48, 75228.26, 11814.57, 34000.94, -27984.79, -4877.53, 10040.96, -29949.21, -13541.38, 41302.71, 13806.47, -55111.80, 0.00, 0.00, 0.00, 0.00, 0.00, 0.00, 0.00
90, 6018.48, 75228.26, 11814.57, 34000.94, -27984.79, -4877.53, 10040.96, -29949.21, -13520.37, 41293.39, 13802.63, -55106.21, 0.00, 0.00, 0.00, 0.00, 0.00, 0.00, 0.00
91, 6020.11, 75223.41, 11812.63, 34002.10, -27993.28, -4877.58, 10036.76, -29952.07, -13520.37, 41293.39, 13802.63, -55106.21, 0.00, 0.00, 0.00, 0.00, 0.00, 0.00, 0.00
92, 6020.11, 75223.41, 11812.63, 34002.10, -27993.28, -4877.58, 10036.76, -29952.07, -13495.56, 41305.04, 13821.76, -55085.74, 0.00, 0.00, 0.00, 0.00, 0.00, 0.00, 0.00
93, 6033.38, 75236.82, 11830.91, 34017.70, -27976.67, -4863.38, 10057.99, -29936.45, -13495.56, 41305.04, 13821.76, -55085.74, 0.00, 0.00, 0.00, 0.00, 0.00, 0.00, 0.00
94, 6033.38, 75236.82, 11830.91, 34017.70, -27976.67, -4863.38, 10057.99, -29936.45, -13507.36, 41283.52, 13812.06, -55083.84, 0.00, 0.00, 0.00, 0.00, -0.14, 0.40, 0.92
95, 6020.49, 75226.56, 11815.44, 33996.87, -28001.50, -4885.51, 10031.28, -29961.37, -13507.36, 41283.52, 13812.06, -55083.84, 0.00, 0.00, 0.00, 0.00, 0.00, 0.00, 0.00
96, 6020.49, 75226.56, 11815.44, 33996.87, -28001.50, -4885.51, 10031.28, -29961.37, -13472.40, 41309.29, 13817.71, -55051.99, 0.00, 0.00, 0.00, 0.00, 0.00, 0.00, 0.00
97, 6049.41, 75256.02, 11845.42, 34025.46, -27975.62, -4858.29, 10051.96, -29930.04, -13472.40, 41309.29, 13817.71, -55051.99, 0.00, 0.00, 0.00, 0.00, 0.00, 0.00, 0.00
98, 6049.41, 75256.02, 11845.42, 34025.46, -27975.62, -4858.29, 10051.96, -29930.04, -13466.28, 41294.67, 13827.55, -55042.80, 0.00, 0.00, 0.00, 0.00, 0.00, 0.00, 0.00
99, 6042.66, 75242.81, 11831.09, 34014.41, -27996.77, -4869.33, 10036.04, -29958.85, -13466.28, 41294.67, 13827.55, -55042.80, 0.00, 0.00, 0.00, 0.00, 0.00, 0.00, 0.00
100, 6042.66, 75242.81, 11831.09, 34014.41, -27996.77, -4869.33, 10036.04, -29958.85, -13453.47, 41296.39, 13824.20, -55043.76, 0.00, 0.00, 0.00, 0.00, 0.00, 0.00, 0.00
101, 6058.75, 75260.27, 11852.64, 34036.61, -27972.63, -4850.69, 10059.22, -29924.00, -13453.47, 41296.39, 13824.20, -55043.76, 0.00, 0.00, 0.00, 0.00, 0.00, 0.00, 0.00
102, 6058.75, 75260.27, 11852.64, 34036.61, -27972.63, -4850.69, 10059.22, -29924.00, -13431.45, 41312.95, 13830.63, -55023.46, 0.00, 0.00, 0.00, 0.00, 0.00, 0.00, 0.00
103, 6053.01, 75247.95, 11841.22, 34026.15, -27987.31, -4862.62, 10038.57, -29939.85, -13431.45, 41312.95, 13830.63, -55023.46, 0.00, 0.00, 0.00, 0.00, 0.00, 0.00, 0.00
104, 6053.01, 75247.95, 11841.22, 34026.15, -27987.31, -4862.62, 10038.57, -29939.85, -13419.36, 41298.54, 13820.04, -55005.14, 0.00, 0.00, 0.00, 0.00, -0.14, 0.40, 0.92
105, 6052.81, 75254.81, 11849.13, 34031.78, -27983.96, -4859.96, 10047.02, -29935.24, -13419.36, 41298.54, 13820.04, -55005.14, 0.00, 0.00, 0.00, 0.00, 0.00, 0.00, 0.00
106, 6052.81, 75254.81, 11849.13, 34031.78, -27983.96, -4859.96, 10047.02, -29935.24, -13413.86, 41297.28, 13825.85, -55011.13, 0.00, 0.00, 0.00, 0.00, 0.00, 0.00, 0.00
107, 6042.03, 75240.59, 11831.60, 34017.27, -28002.24, -4870.80, 10027.55, -29948.61, -13413.86, 41297.28, 13825.85, -55011.13, 0.00, 0.00, 0.00, 0.00, 0.00, 0.00, 0.00
108, 6042.03, 75240.59, 11831.60, 34017.27, -28002.24, -4870.80, 10027.55, -29948.61, -13392.74, 41300.39, 13807.07, -55007.69, 0.00, 0.00, 0.00, 0.00, 0.00, 0.00, 0.00
109, 6040.69, 75242.59, 11838.94, 34029.52, -27995.31, -4860.10, 10040.40, -29937.37, -13392.74, 41300.39, 13807.07, -55007.69, 0.00, 0.00, 0.00, 0.00, 0.00, 0.00, 0.00
110, 6040.69, 75242.59, 11838.94, 34029.52, -27995.31, -4860.10, 10040.40, -29937.37, -13389.03, 41300.79, 13805.60, -54980.64, 0.00, 0.00, 0.00, 0.00, 0.00, 0.00, 0.00
111, 6028.02, 75228.57, 11823.67, 34019.42, -28008.32, -4860.07, 10029.99, -29943.51, -13389.03, 41300.79, 13805.60, -54980.64, 0.00, 0.00, 0.00, 0.00, 0.00, 0.00, 0.00
112, 6028.02, 75228.57, 11823.67, 34019.42, -28008.32, -4860.07, 10029.99, -29943.51, -13384.07, 41290.76, 13801.15, -54976.48, 0.00, 0.00, 0.00, 0.00, 0.00, 0.00, 0.00
113, 6030.75, 75235.52, 11830.80, 34027.78, -28006.85, -4860.41, 10034.32, -29937.10, -13384.07, 41290.76, 13801.15, -54976.48, 0.00, 0.00, 0.00, 0.00, 0.00, 0.00, 0.00
114, 6030.75, 75235.52, 11830.80, 34027.78, -28006.85, -4860.41, 10034.32, -29937.10, -13344.46, 41322.54, 13808.73, -54955.43, 0.00, 0.00, 0.00, 0.00, -0.14, 0.40, 0.91
115, 6027.26, 75231.27, 11828.27, 34013.32, -28010.13, -4871.99, 10019.44, -29943.02, -13344.46, 41322.54, 13808.73, -54955.43, 0.00, 0.00, 0.00, 0.00, 0.00, 0.00, 0.00
116, 6027.26, 75231.27, 11828.27, 34013.32, -28010.13, -4871.99, 10019.44, -29943.02, -13348.48, 41294.54, 13833.56, -54961.62, 0.00, 0.00, 0.00, 0.00, 0.00, 0.00, 0.00
117, 6050.73, 75255.41, 11858.96, 34047.81, -27992.97, -4845.86, 10043.35, -29931.71, -13348.48, 41294.54, 13833.56, -54961.62, 0.00, 0.00, 0.00, 0.00, 0.00, 0.00, 0.00
118, 6050.73, 75255.41, 11858.96, 34047.81, -27992.97, -4845.86, 10043.35, -29931.71, -13348.60, 41304.03, 13826.36, -54934.53, 0.00, 0.00, 0.00, 0.00, 0.00, 0.00, 0.00
119, 6017.40, 75222.29, 11806.10, 33957.51, -28060.67, -4900.13, 9983.25, -29973.73, -13348.60, 41304.03, 13826.36, -54934.53, 0.00, 0.00, 0.00, 0.00, 0.00, 0.00, 0.00
120, 6017.40, 75222.29, 11806.10, 33957.51, -28060.67, -4900.13, 9983.25, -29973.73, -13343.86, 41278.57, 13817.85, -54954.82, 0.00, 0.00, 0.00, 0.00, 0.00, 0.00, 0.00
121, 6055.24, 75263.08, 11845.49, 33963.03, -28054.57, -4894.72, 9990.51, -29964.99, -13343.86, 41278.57, 13817.85, -54954.82, 0.00, 0.00, 0.00, 0.00, 0.00, 0.00, 0.00
122, 6055.24, 75263.08, 11845.49, 33963.03, -28054.57, -4894.72, 9990.51, -29964.99, -13318.08, 41279.85, 13889.64, -54956.68, 0.00, 0.00, 0.00, 0.00, 0.00, 0.00, 0.00
123, 6074.33, 75283.89, 11865.00, 33960.25, -28059.53, -4899.81, 9978.13, -29979.32, -13318.08, 41279.85, 13889.64, -54956.68, 0.00, 0.00, 0.00, 0.00, -0.14, 0.41, 0.92
124, 6074.33, 75283.89, 11865.00, 33960.25, -28059.53, -4899.81, 9978.13, -29979.32, -13308.81, 41265.14, 13894.18, -54953.80, 0.00, 0.00, 0.00, 0.00, 0.00, 0.00, 0.00
125, 6082.74, 75294.55, 11878.90, 33966.78, -28042.95, -4887.63, 10001.67, -29955.29, -13308.81, 41265.14, 13894.18, -54953.80, 0.00, 0.00, 0.00, 0.00, 0.00, 0.00, 0.00
126, 6082.74, 75294.55, 11878.90, 33966.78, -28042.95, -4887.63, 10001.67, -29955.29, -13266.68, 41307.16, 13921.94, -54906.03, 0.00, 0.00, 0.00, 0.00, 0.00, 0.00, 0.00
127, 6095.28, 75307.43, 11889.99, 33974.27, -28028.37, -4875.99, 10009.85, -29940.16, -13266.68, 41307.16, 13921.94, -54906.03, 0.00, 0.00, 0.00, 0.00, 0.00, 0.00, 0.00
128, 6095.28, 75307.43, 11889.99, 33974.27, -28028.37, -4875.99, 10009.85, -29940.16, -13267.77, 41283.63, 13914.99, -54897.27, 0.00, 0.00, 0.00, 0.00, 0.00, 0.00, 0.00
129, 6092.59, 75309.69, 11889.21, 33971.21, -28039.05, -4884.53, 9996.19, -29952.45, -13267.77, 41283.63, 13914.99, -54897.27, 0.00, 0.00, 0.00, 0.00, 0.00, 0.00, 0.00
130, 6092.59, 75309.69, 11889.21, 33971.21, -28039.05, -4884.53, 9996.19, -29952.45, -13253.69, 41301.48, 13927.71, -54881.53, 0.00, 0.00, 0.00, 0.00, 0.00, 0.00, 0.00
131, 6089.80, 75312.68, 11891.71, 33979.03, -28037.76, -4874.96, 10005.49, -29943.42, -13253.69, 41301.48, 13927.71, -54881.53, 0.00, 0.00, 0.00, 0.00, 0.00, 0.00, 0.00
132, 6089.80, 75312.68, 11891.71, 33979.03, -28037.76, -4874.96, 10005.49, -29943.42, -13255.66, 41278.78, 13910.50, -54882.27, 0.00, 0.00, 0.00, 0.00, 0.00, 0.00, 0.00
133, 6083.03, 75305.20, 11882.75, 33968.97, -28046.21, -4884.24, 9995.36, -29950.78, -13255.66, 41278.78, 13910.50, -54882.27, 0.00, 0.00, 0.00, 0.00, -0.14, 0.40, 0.91
134, 6083.03, 75305.20, 11882.75, 33968.97, -28046.21, -4884.24, 9995.36, -29950.78, -13220.36, 41315.03, 13922.05, -54856.12, 0.00, 0.00, 0.00, 0.00, 0.00, 0.00, 0.00
135, 6089.64, 75314.20, 11893.52, 33981.76, -28034.94, -4871.38, 10008.95, -29933.81, -13220.36, 41315.03, 13922.05, -54856.12, 0.00, 0.00, 0.00, 0.00, 0.00, 0.00, 0.00
136, 6089.64, 75314.20, 11893.52, 33981.76, -28034.94, -4871.38, 10008.95, -29933.81, -13220.32, 41284.14, 13910.38, -54852.68, 0.00, 0.00, 0.00, 0.00, 0.00, 0.00, 0.00
137, 6072.72, 75290.71, 11870.36, 33959.07, -28062.68, -4894.05, 9980.84, -29956.54, -13220.32, 41284.14, 13910.38, -54852.68, 0.00, 0.00, 0.00, 0.00, 0.00, 0.00, 0.00
138, 6072.72, 75290.71, 11870.36, 33959.07, -28062.68, -4894.05, 9980.84, -29956.54, -13210.46, 41300.93, 13904.71, -54849.12, 0.00, 0.00, 0.00, 0.00, 0.00, 0.00, 0.00
139, 6078.96, 75297.10, 11877.74, 33973.84, -28058.48, -4882.22, 9987.05, -29946.29, -13210.46, 41300.93, 13904.71, -54849.12, 0.00, 0.00, 0.00, 0.00, 0.00, 0.00, 0.00
140, 6078.96, 75297.10, 11877.74, 33973.84, -28058.48, -4882.22, 9987.05, -29946.29, -13205.66, 41284.09, 13892.26, -54837.63, 0.00, 0.00, 0.00, 0.00, 0.00, 0.00, 0.00
141, 6064.01, 75278.84, 11860.24, 33955.81, -28073.16, -4896.04, 9969.46, -29962.40, -13205.66, 41284.09, 13892.26, -54837.63, 0.00, 0.00, 0.00, 0.00, 0.00, 0.00, 0.00
142, 6064.01, 75278.84, 11860.24, 33955.81, -28073.16, -4896.04, 9969.46, -29962.40, -13186.48, 41297.19, 13899.23, -54824.20, 0.00, 0.00, 0.00, 0.00, 0.00, 0.00, 0.00
143, 6071.52, 75293.03, 11875.73, 33969.51, -28057.12, -4884.55, 9986.33, -29944.99, -13186.48, 41297.19, 13899.23, -54824.20, 0.00, 0.00, 0.00, 0.00, -0.14, 0.39, 0.91
144, 6071.52, 75293.03, 11875.73, 33969.51, -28057.12, -4884.55, 9986.33, -29944.99, -13175.39, 41281.35, 13899.23, -54825.92, 0.00, 0.00, 0.00, 0.00, 0.00, 0.00, 0.00
145, 6064.16, 75281.59, 11859.95, 33954.73, -28078.64, -4899.52, 9962.13, -29968.46, -13175.39, 41281.35, 13899.23, -54825.92, 0.00, 0.00, 0.00, 0.00, 0.00, 0.00, 0.00
146, 6064.16, 75281.59, 11859.95, 33954.73, -28078.64, -4899.52, 9962.13, -29968.46, -13173.63, 41273.37, 13897.84, -54808.31, 0.00, 0.00, 0.00, 0.00, 0.00, 0.00, 0.00
147, 6072.79, 75293.39, 11875.08, 33970.94, -28063.62, -4884.24, 9982.38, -29947.92, -13173.63, 41273.37, 13897.84, -54808.31, 0.00, 0.00, 0.00, 0.00, 0.00, 0.00, 0.00
148, 6072.79, 75293.39, 11875.08, 33970.94, -28063.62, -4884.24, 9982.38, -29947.92, -13160.42, 41284.30, 13897.78, -54789.11, 0.00, 0.00, 0.00, 0.00, 0.00, 0.00, 0.00
149, 6062.17, 75274.80, 11859.21, 33951.00, -28083.67, -4898.92, 9957.23, -29962.13, -13160.42, 41284.30, 13897.78, -54789.11, 0.00, 0.00, 0.00, 0.00, 0.00, 0.00, 0.00
150, 6062.17, 75274.80, 11859.21, 33951.00, -28083.67, -4898.92, 9957.23, -29962.13, -13137.57, 41294.76, 13902.14, -54775.63, 0.00, 0.00, 0.00, 0.00, 0.00, 0.00, 0.00
151, 6082.40, 75302.71, 11885.18, 33973.09, -28058.66, -4881.73, 9983.63, -29934.95, -13137.57, 41294.76, 13902.14, -54775.63, 0.00, 0.00, 0.00, 0.00, 0.00, 0.00, 0.00
152, 6082.40, 75302.71, 11885.18, 33973.09, -28058.66, -4881.73, 9983.63, -29934.95, -13114.86, 41303.68, 13906.76, -54759.67, 0.00, 0.00, 0.00, 0.00, 0.00, 0.00, 0.00
153, 6063.47, 75281.66, 11862.81, 33953.10, -28084.47, -4899.66, 9959.53, -29959.32, -13114.86, 41303.68, 13906.76, -54759.67, 0.00, 0.00, 0.00, 0.00, -0.14, 0.40, 0.91
154, 6063.47, 75281.66, 11862.81, 33953.10, -28084.47, -4899.66, 9959.53, -29959.32, -13118.71, 41284.90, 13895.39, -54755.67, 0.00, 0.00, 0.00, 0.00, 0.00, 0.00, 0.00
155, 6079.92, 75302.20, 11881.70, 33970.18, -28067.80, -4885.13, 9982.58, -29936.52, -13118.71, 41284.90, 13895.39, -54755.67, 0.00, 0.00, 0.00, 0.00, 0.00, 0.00, 0.00
156, 6079.92, 75302.20, 11881.70, 33970.18, -28067.80, -4885.13, 9982.58, -29936.52, -13097.47, 41302.38, 13903.70, -54729.47, 0.00, 0.00, 0.00, 0.00, 0.00, 0.00, 0.00
157, 6069.59, 75284.56, 11866.09, 33955.85, -28087.31, -4895.37, 9957.52, -29953.42, -13097.47, 41302.38, 13903.70, -54729.47, 0.00, 0.00, 0.00, 0.00, 0.00, 0.00, 0.00
158, 6069.59, 75284.56, 11866.09, 33955.85, -28087.31, -4895.37, 9957.52, -29953.42, -13077.33, 41298.58, 13899.16, -54734.08, 0.00, 0.00, 0.00, 0.00, 0.00, 0.00, 0.00
159, 6079.18, 75302.16, 11883.66, 33970.36, -28067.67, -4884.66, 9975.78, -29934.55, -13077.33, 41298.58, 13899.16, -54734.08, 0.00, 0.00, 0.00, 0.00, 0.00, 0.00, 0.00
160, 6079.18, 75302.16, 11883.66, 33970.36, -28067.67, -4884.66, 9975.78, -29934.55, -13057.87, 41308.32, 13911.99, -54701.22, 0.00, 0.00, 0.00, 0.00, 0.00, 0.00, 0.00
161, 6070.20, 75290.42, 11870.94, 33954.69, -28083.87, -4897.45, 9955.11, -29953.33, -13057.87, 41308.32, 13911.99, -54701.22, 0.00, 0.00, 0.00, 0.00, 0.00, 0.00, 0.00
162, 6070.20, 75290.42, 11870.94, 33954.69, -28083.87, -4897.45, 9955.11, -29953.33, -13054.09, 41294.91, 13900.77, -54693.29, 0.00, 0.00, 0.00, 0.00, -0.14, 0.40, 0.91
163, 6074.78, 75296.52, 11879.35, 33968.41, -28070.10, -4884.97, 9973.42, -29933.43, -13054.09, 41294.91, 13900.77, -54693.29, 0.00, 0.00, 0.00, 0.00, 0.00, 0.00, 0.00
164, 6074.78, 75296.52, 11879.35, 33968.41, -28070.10, -4884.97, 9973.42, -29933.43, -13019.94, 41332.15, 13910.03, -54670.51, 0.00, 0.00, 0.00, 0.00, 0.00, 0.00, 0.00
165, 6073.62, 75290.77, 11875.19, 33964.84, -28075.11, -4885.53, 9965.30, -29936.99, -13019.94, 41332.15, 13910.03, -54670.51, 0.00, 0.00, 0.00, 0.00, 0.00, 0.00, 0.00
166, 6073.62, 75290.77, 11875.19, 33964.84, -28075.11, -4885.53, 9965.30, -29936.99, -13027.94, 41290.84, 13895.79, -54675.88, 0.00, 0.00, 0.00, 0.00, 0.00, 0.00, 0.00
167, 6071.23, 75289.91, 11873.51, 33962.69, -28078.08, -4889.69, 9961.70, -29941.79, -13027.94, 41290.84, 13895.79, -54675.88, 0.00, 0.00, 0.00, 0.00, 0.00, 0.00, 0.00
168, 6071.23, 75289.91, 11873.51, 33962.69, -28078.08, -4889.69, 9961.70, -29941.79, -13005.59, 41313.31, 13909.38, -54644.56, 0.00, 0.00, 0.00, 0.00, 0.00, 0.00, 0.00
169, 6071.40, 75289.21, 11871.08, 33957.68, -28085.70, -4894.43, 9953.59, -29947.45, -13005.59, 41313.31, 13909.38, -54644.56, 0.00, 0.00, 0.00, 0.00, 0.00, 0.00, 0.00
170, 6071.40, 75289.21, 11871.08, 33957.68, -28085.70, -4894.43, 9953.59, -29947.45, -13005.67, 41295.61, 13890.74, -54651.24, 0.00, 0.00, 0.00, 0.00, 0.00, 0.00, 0.00
171, 6067.45, 75285.48, 11868.42, 33955.09, -28087.36, -4897.31, 9952.61, -29947.85, -13005.67, 41295.61, 13890.74, -54651.24, 0.00, 0.00, 0.00, 0.00, 0.00, 0.00, 0.00
172, 6067.45, 75285.48, 11868.42, 33955.09, -28087.36, -4897.31, 9952.61, -29947.85, -12987.70, 41316.35, 13899.01, -54641.99, 0.00, 0.00, 0.00, 0.00, -0.14, 0.40, 0.91
173, 6065.48, 75282.15, 11863.52, 33951.52, -28093.73, -4900.64, 9944.49, -29952.03, -12987.70, 41316.35, 13899.01, -54641.99, 0.00, 0.00, 0.00, 0.00, 0.00, 0.00, 0.00
174, 6065.48, 75282.15, 11863.52, 33951.52, -28093.73, -4900.64, 9944.49, -29952.03, -12986.92, 41293.35, 13883.99, -54627.06, 0.00, 0.00, 0.00, 0.00, 0.00, 0.00, 0.00
175, 6069.15, 75285.34, 11865.80, 33954.85, -28092.23, -4896.17, 9947.17, -29950.44, -12986.92, 41293.35, 13883.99, -54627.06, 0.00, 0.00, 0.00, 0.00, 0.00, 0.00, 0.00
176, 6069.15, 75285.34, 11865.80, 33954.85, -28092.23, -4896.17, 9947.17, -29950.44, -12960.59, 41308.91, 13903.86, -54601.82, 0.00, 0.00, 0.00, 0.00, 0.00, 0.00, 0.00
177, 6078.71, 75298.62, 11879.06, 33961.98, -28077.93, -4892.86, 9953.99, -29938.98, -12960.59, 41308.91, 13903.86, -54601.82, 0.00, 0.00, 0.00, 0.00, 0.00, 0.00, 0.00
178, 6078.71, 75298.62, 11879.06, 33961.98, -28077.93, -4892.86, 9953.99, -29938.98, -12944.05, 41305.42, 13904.42, -54607.41, 0.00, 0.00, 0.00, 0.00, 0.00, 0.00, 0.00
179, 6075.87, 75299.20, 11876.82, 33957.93, -28085.59, -4898.43, 9946.06, -29944.38, -12944.05, 41305.42, 13904.42, -54607.41, 0.00, 0.00, 0.00, 0.00, 0.00, 0.00, 0.00
180, 6075.87, 75299.20, 11876.82, 33957.93, -28085.59, -4898.43, 9946.06, -29944.38, -12923.69, 41322.14, 13917.16, -54584.07, 0.00, 0.00, 0.00, 0.00, 0.00, 0.00, 0.00
181, 6080.26, 75306.24, 11883.42, 33962.04, -28082.04, -4896.22, 9946.33, -29945.03, -12923.69, 41322.14, 13917.16, -54584.07, 0.00, 0.00, 0.00, 0.00, 0.00, 0.00, 0.00
182, 6080.26, 75306.24, 11883.42, 33962.04, -28082.04, -4896.22, 9946.33, -29945.03, -12932.94, 41284.95, 13898.83, -54589.91, 0.00, 0.00, 0.00, 0.00, -0.14, 0.40, 0.91
183, 6068.50, 75291.60, 11869.40, 33952.75, -28090.91, -4902.88, 9936.60, -29951.11, -12932.94, 41284.95, 13898.83, -54589.91, 0.00, 0.00, 0.00, 0.00, 0.00, 0.00, 0.00
184, 6068.50, 75291.60, 11869.40, 33952.75, -28090.91, -4902.88, 9936.60, -29951.11, -12903.86, 41323.48, 13908.10, -54559.13, 0.00, 0.00, 0.00, 0.00, 0.00, 0.00, 0.00
185, 6084.46, 75311.32, 11888.71, 33967.14, -28071.94, -4890.25, 9954.82, -29931.94, -12903.86, 41323.48, 13908.10, -54559.13, 0.00, 0.00, 0.00, 0.00, 0.00, 0.00, 0.00
186, 6084.46, 75311.32, 11888.71, 33967.14, -28071.94, -4890.25, 9954.82, -29931.94, -12896.04, 41299.65, 13901.91, -54563.67, 0.00, 0.00, 0.00, 0.00, 0.00, 0.00, 0.00
187, 6072.32, 75296.43, 11873.18, 33951.79, -28088.36, -4905.87, 9934.66, -29950.85, -12896.04, 41299.65, 13901.91, -54563.67, 0.00, 0.00, 0.00, 0.00, 0.00, 0.00, 0.00
188, 6072.32, 75296.43, 11873.18, 33951.79, -28088.36, -4905.87, 9934.66, -29950.85, -12871.23, 41322.99, 13910.96, -54529.58, 0.00, 0.00, 0.00, 0.00, 0.00, 0.00, 0.00
189, 6088.03, 75311.67, 11889.41, 33971.05, -28072.20, -4887.92, 9951.20, -29927.62, -12871.23, 41322.99, 13910.96, -54529.58, 0.00, 0.00, 0.00, 0.00, 0.00, 0.00, 0.00
190, 6088.03, 75311.67, 11889.41, 33971.05, -28072.20, -4887.92, 9951.20, -29927.62, -12867.50, 41308.01, 13897.11, -54529.05, 0.00, 0.00, 0.00, 0.00, 0.00, 0.00, 0.00
191, 6067.09, 75284.23, 11865.67, 33950.46, -28094.38, -4907.06, 9927.35, -29956.05, -12867.50, 41308.01, 13897.11, -54529.05, 0.00, 0.00, 0.00, 0.00, 0.00, 0.00, 0.00
192, 6067.09, 75284.23, 11865.67, 33950.46, -28094.38, -4907.06, 9927.35, -29956.05, -12861.06, 41306.56, 13897.98, -54524.55, 0.00, 0.00, 0.00, 0.00, -0.14, 0.40, 0.92
193, 6079.21, 75296.77, 11880.31, 33967.50, -28076.40, -4891.66, 9947.06, -29935.91, -12861.06, 41306.56, 13897.98, -54524.55, 0.00, 0.00, 0.00, 0.00, 0.00, 0.00, 0.00
194, 6079.21, 75296.77, 11880.31, 33967.50, -28076.40, -4891.66, 9947.06, -29935.91, -12845.23, 41303.99, 13881.53, -54502.60, 0.00, 0.00, 0.00, 0.00, 0.00, 0.00, 0.00
195, 6055.56, 75267.80, 11851.99, 33944.09, -28104.50, -4913.49, 9917.60, -29962.74, -12845.23, 41303.99, 13881.53, -54502.60, 0.00, 0.00, 0.00, 0.00, 0.00, 0.00, 0.00
196, 6055.56, 75267.80, 11851.99, 33944.09, -28104.50, -4913.49, 9917.60, -29962.74, -12843.85, 41310.36, 13870.60, -54488.81, 0.00, 0.00, 0.00, 0.00, 0.00, 0.00, 0.00
197, 6064.30, 75280.29, 11869.71, 33965.44, -28081.97, -4895.08, 9939.57, -29934.21, -12843.85, 41310.36, 13870.60, -54488.81, 0.00, 0.00, 0.00, 0.00, 0.00, 0.00, 0.00
198, 6064.30, 75280.29, 11869.71, 33965.44, -28081.97, -4895.08, 9939.57, -29934.21, -12827.40, 41312.68, 13874.53, -54477.91, 0.00, 0.00, 0.00, 0.00, 0.00, 0.00, 0.00
199, 6048.36, 75257.20, 11847.07, 33945.95, -28102.78, -4911.19, 9918.54, -29956.68, -12827.40, 41312.68, 13874.53, -54477.91, 0.00, 0.00, 0.00, 0.00, 0.00, 0.00, 0.00
200, 6048.36, 75257.20, 11847.07, 33945.95, -28102.78, -4911.19, 9918.54, -29956.68, -12803.59, 41317.00, 13873.66, -54473.30, 0.00, 0.00, 0.00, 0.00, 0.00, 0.00, 0.00
201, 6074.73, 75289.88, 11877.20, 33970.14, -28074.53, -4892.42, 9943.13, -29929.77, -12803.59, 41317.00, 13873.66, -54473.30, 0.00, 0.00, 0.00, 0.00, 0.00, 0.00, 0.00
202, 6074.73, 75289.88, 11877.20, 33970.14, -28074.53, -4892.42, 9943.13, -29929.77, -12790.29, 41318.76, 13881.80, -54462.82, 0.00, 0.00, 0.00, 0.00, -0.14, 0.40, 0.91
203, 6059.87, 75273.09, 11857.31, 33951.23, -28095.65, -4909.63, 9918.63, -29952.95, -12790.29, 41318.76, 13881.80, -54462.82, 0.00, 0.00, 0.00, 0.00, 0.00, 0.00, 0.00
204, 6059.87, 75273.09, 11857.31, 33951.23, -28095.65, -4909.63, 9918.63, -29952.95, -12777.13, 41303.41, 13882.04, -54443.37, 0.00, 0.00, 0.00, 0.00, 0.00, 0.00, 0.00
205, 6075.79, 75295.23, 11882.12, 33977.02, -28071.78, -4890.54, 9942.55, -29937.39, -12777.13, 41303.41, 13882.04, -54443.37, 0.00, 0.00, 0.00, 0.00, 0.00, 0.00, 0.00
206, 6075.79, 75295.23, 11882.12, 33977.02, -28071.78, -4890.54, 9942.55, -29937.39, -12777.40, 41303.34, 13881.73, -54436.20, 0.00, 0.00, 0.00, 0.00, 0.00, 0.00, 0.00
207, 6057.77, 75273.74, 11860.57, 33953.39, -28087.40, -4906.45, 9924.38, -29949.35, -12777.40, 41303.34, 13881.73, -54436.20, 0.00, 0.00, 0.00, 0.00, 0.00, 0.00, 0.00
208, 6057.77, 75273.74, 11860.57, 33953.39, -28087.40, -4906.45, 9924.38, -29949.35, -12739.76, 41329.89, 13876.68, -54406.43, 0.00, 0.00, 0.00, 0.00, 0.00, 0.00, 0.00
209, 6069.91, 75286.73, 11874.45, 33966.16, -28075.00, -4898.34, 9939.75, -29926.86, -12739.76, 41329.89, 13876.68, -54406.43, 0.00, 0.00, 0.00, 0.00, 0.00, 0.00, 0.00
210, 6069.91, 75286.73, 11874.45, 33966.16, -28075.00, -4898.34, 9939.75, -29926.86, -12732.98, 41327.17, 13878.76, -54417.29, 0.00, 0.00, 0.00, 0.00, 0.00, 0.00, 0.00
211, 6054.28, 75268.65, 11854.36, 33950.29, -28092.72, -4913.14, 9914.47, -29955.31, -12732.98, 41327.17, 13878.76, -54417.29, 0.00, 0.00, 0.00, 0.00, -0.14, 0.40, 0.91
212, 6054.28, 75268.65, 11854.36, 33950.29, -28092.72, -4913.14, 9914.47, -29955.31, -12727.75, 41294.11, 13869.97, -54406.13, 0.00, 0.00, 0.00, 0.00, 0.00, 0.00, 0.00
213, 6069.35, 75287.89, 11875.64, 33969.40, -28068.67, -4898.92, 9939.57, -29936.47, -12727.75, 41294.11, 13869.97, -54406.13, 0.00, 0.00, 0.00, 0.00, 0.00, 0.00, 0.00
214, 6069.35, 75287.89, 11875.64, 33969.40, -28068.67, -4898.92, 9939.57, -29936.47, -12713.27, 41311.45, 13884.77, -54385.32, 0.00, 0.00, 0.00, 0.00, 0.00, 0.00, 0.00
215, 6065.79, 75279.73, 11866.88, 33962.38, -28075.98, -4903.55, 9927.71, -29944.79, -12713.27, 41311.45, 13884.77, -54385.32, 0.00, 0.00, 0.00, 0.00, 0.00, 0.00, 0.00
216, 6065.79, 75279.73, 11866.88, 33962.38, -28075.98, -4903.55, 9927.71, -29944.79, -12697.31, 41308.44, 13874.58, -54382.38, 0.00, 0.00, 0.00, 0.00, 0.00, 0.00, 0.00
217, 6070.49, 75285.61, 11873.80, 33968.97, -28070.35, -4902.63, 9932.87, -29936.16, -12697.31, 41308.44, 13874.58, -54382.38, 0.00, 0.00, 0.00, 0.00, 0.00, 0.00, 0.00
218, 6070.49, 75285.61, 11873.80, 33968.97, -28070.35, -4902.63, 9932.87, -29936.16, -12687.03, 41317.46, 13885.48, -54372.79, 0.00, 0.00, 0.00, 0.00, 0.00, 0.00, 0.00
219, 6066.13, 75280.02, 11865.94, 33961.62, -28076.74, -4909.29, 9921.04, -29948.65, -12687.03, 41317.46, 13885.48, -54372.79, 0.00, 0.00, 0.00, 0.00, 0.00, 0.00, 0.00
220, 6066.13, 75280.02, 11865.94, 33961.62, -28076.74, -4909.29, 9921.04, -29948.65, -12673.93, 41299.83, 13873.12, -54358.23, 0.00, 0.00, 0.00, 0.00, 0.00, 0.00, 0.00
221, 6074.91, 75295.72, 11881.49, 33978.85, -28059.75, -4896.95, 9938.14, -29930.59, -12673.93, 41299.83, 13873.12, -54358.23, 0.00, 0.00, 0.00, 0.00, -0.14, 0.39, 0.91
222, 6074.91, 75295.72, 11881.49, 33978.85, -28059.75, -4896.95, 9938.14, -29930.59, -12640.65, 41331.23, 13924.76, -54328.28, 0.00, 0.00, 0.00, 0.00, 0.00, 0.00, 0.00
223, 6098.90, 75312.30, 11902.37, 34008.18, -28051.55, -4885.93, 9943.89, -29923.73, -12640.65, 41331.23, 13924.76, -54328.28, 0.00, 0.00, 0.00, 0.00, 0.00, 0.00, 0.00
224, 6098.90, 75312.30, 11902.37, 34008.18, -28051.55, -4885.93, 9943.89, -29923.73, -12655.58, 41303.65, 13851.22, -54342.27, 0.00, 0.00, 0.00, 0.00, 0.00, 0.00, 0.00
225, 6068.45, 75276.63, 11862.34, 33982.25, -28082.60, -4908.35, 9917.94, -29944.77, -12655.58, 41303.65, 13851.22, -54342.27, 0.00, 0.00, 0.00, 0.00, 0.00, 0.00, 0.00
226, 6068.45, 75276.63, 11862.34, 33982.25, -28082.60, -4908.35, 9917.94, -29944.77, -12636.45, 41318.41, 13819.97, -54321.13, 0.00, 0.00, 0.00, 0.00, 0.00, 0.00, 0.00
227, 6067.94, 75272.42, 11855.43, 33987.44, -28074.55, -4905.02, 9921.25, -29944.94, -12636.45, 41318.41, 13819.97, -54321.13, 0.00, 0.00, 0.00, 0.00, 0.00, 0.00, 0.00
228, 6067.94, 75272.42, 11855.43, 33987.44, -28074.55, -4905.02, 9921.25, -29944.94, -12640.31, 41303.25, 13758.75, -54301.89, 0.00, 0.00, 0.00, 0.00, 0.00, 0.00, 0.00
229, 6056.81, 75252.15, 11835.58, 33993.49, -28083.31, -4907.03, 9914.27, -29950.40, -12640.31, 41303.25, 13758.75, -54301.89, 0.00, 0.00, 0.00, 0.00, 0.00, 0.00, 0.00
230, 6056.81, 75252.15, 11835.58, 33993.49, -28083.31, -4907.03, 9914.27, -29950.40, -12625.96, 41310.36, 13731.08, -54302.85, 0.00, 0.00, 0.00, 0.00, 0.00, 0.00, 0.00
231, 6063.20, 75252.89, 11834.22, 34024.74, -28072.54, -4893.20, 9920.44, -29942.82, -12625.96, 41310.36, 13731.08, -54302.85, 0.00, 0.00, 0.00, 0.00, -0.14, 0.40, 0.91
232, 6063.20, 75252.89, 11834.22, 34024.74, -28072.54, -4893.20, 9920.44, -29942.82, -12618.52, 41302.51, 13690.51, -54289.95, 0.00, 0.00, 0.00, 0.00, 0.00, 0.00, 0.00
233, 6045.39, 75230.59, 11812.18, 34020.43, -28077.46, -4902.88, 9909.09, -29949.57, -12618.52, 41302.51, 13690.51, -54289.95, 0.00, 0.00, 0.00, 0.00, 0.00, 0.00, 0.00
234, 6045.39, 75230.59, 11812.18, 34020.43, -28077.46, -4902.88, 9909.09, -29949.57, -12612.22, 41312.13, 13666.68, -54267.39, 0.00, 0.00, 0.00, 0.00, 0.00, 0.00, 0.00
235, 6064.52, 75246.52, 11827.49, 34043.38, -28059.15, -4888.13, 9925.83, -29937.08, -12612.22, 41312.13, 13666.68, -54267.39, 0.00, 0.00, 0.00, 0.00, 0.00, 0.00, 0.00
236, 6064.52, 75246.52, 11827.49, 34043.38, -28059.15, -4888.13, 9925.83, -29937.08, -12595.74, 41291.76, 13683.76, -54274.88, 0.00, 0.00, 0.00, 0.00, 0.00, 0.00, 0.00
237, 6053.61, 75236.51, 11814.33, 34026.35, -28078.39, -4911.08, 9898.04, -29963.70, -12595.74, 41291.76, 13683.76, -54274.88, 0.00, 0.00, 0.00, 0.00, 0.00, 0.00, 0.00
238, 6053.61, 75236.51, 11814.33, 34026.35, -28078.39, -4911.08, 9898.04, -29963.70, -12589.44, 41289.13, 13683.85, -54276.80, 0.00, 0.00, 0.00, 0.00, 0.00, 0.00, 0.00
239, 6069.01, 75253.98, 11832.57, 34042.02, -28066.91, -4899.52, 9912.82, -29951.63, -12589.44, 41289.13, 13683.85, -54276.80, 0.00, 0.00, 0.00, 0.00, 0.00, 0.00, 0.00
240, 6069.01, 75253.98, 11832.57, 34042.02, -28066.91, -4899.52, 9912.82, -29951.63, -12578.89, 41277.25, 13691.65, -54268.56, 0.00, 0.00, 0.00, 0.00, 0.00, 0.00, 0.00
241, 6063.00, 75239.70, 11821.03, 34029.05, -28082.11, -4910.41, 9895.74, -29968.19, -12578.89, 41277.25, 13691.65, -54268.56, 0.00, 0.00, 0.00, 0.00, -0.14, 0.40, 0.91
242, 6063.00, 75239.70, 11821.03, 34029.05, -28082.11, -4910.41, 9895.74, -29968.19, -12565.82, 41297.93, 13694.60, -54235.32, 0.00, 0.00, 0.00, 0.00, 0.00, 0.00, 0.00
243, 6081.44, 75264.55, 11845.46, 34051.45, -28057.05, -4890.14, 9925.29, -29936.32, -12565.82, 41297.93, 13694.60, -54235.32, 0.00, 0.00, 0.00, 0.00, 0.00, 0.00, 0.00
244, 6081.44, 75264.55, 11845.46, 34051.45, -28057.05, -4890.14, 9925.29, -29936.32, -12556.47, 41291.05, 13703.43, -54234.07, 0.00, 0.00, 0.00, 0.00, 0.00, 0.00, 0.00
245, 6066.62, 75243.73, 11825.39, 34032.03, -28078.06, -4907.93, 9899.23, -29964.14, -12556.47, 41291.05, 13703.43, -54234.07, 0.00, 0.00, 0.00, 0.00, 0.00, 0.00, 0.00
246, 6066.62, 75243.73, 11825.39, 34032.03, -28078.06, -4907.93, 9899.23, -29964.14, -12541.21, 41287.56, 13702.83, -54218.27, 0.00, 0.00, 0.00, 0.00, 0.00, 0.00, 0.00
247, 6084.26, 75269.25, 11852.30, 34054.69, -28052.69, -4893.38, 9922.56, -29940.90, -12541.21, 41287.56, 13702.83, -54218.27, 0.00, 0.00, 0.00, 0.00, 0.00, 0.00, 0.00
248, 6084.26, 75269.25, 11852.30, 34054.69, -28052.69, -4893.38, 9922.56, -29940.90, -12529.16, 41296.21, 13704.79, -54202.26, 0.00, 0.00, 0.00, 0.00, 0.00, 0.00, 0.00
249, 6055.98, 75234.96, 11820.88, 34027.07, -28075.76, -4910.10, 9901.13, -29954.46, -12529.16, 41296.21, 13704.79, -54202.26, 0.00, 0.00, 0.00, 0.00, 0.00, 0.00, 0.00
250, 6055.98, 75234.96, 11820.88, 34027.07, -28075.76, -4910.10, 9901.13, -29954.46, -12515.25, 41310.56, 13699.07, -54177.72, 0.00, 0.00, 0.00, 0.00, -0.14, 0.40, 0.91
251, 6072.10, 75251.37, 11840.17, 34046.67, -28057.52, -4895.86, 9921.34, -29936.00, -12515.25, 41310.56, 13699.07, -54177.72, 0.00, 0.00, 0.00, 0.00, 0.00, 0.00, 0.00
252, 6072.10, 75251.37, 11840.17, 34046.67, -28057.52, -4895.86, 9921.34, -29936.00, -12515.17, 41299.32, 13701.02, -54169.32, 0.00, 0.00, 0.00, 0.00, 0.00, 0.00, 0.00
253, 6053.03, 75227.50, 11817.39, 34026.26, -28075.67, -4911.15, 9898.38, -29957.26, -12515.17, 41299.32, 13701.02, -54169.32, 0.00, 0.00, 0.00, 0.00, 0.00, 0.00, 0.00
254, 6053.03, 75227.50, 11817.39, 34026.26, -28075.67, -4911.15, 9898.38, -29957.26, -12492.14, 41302.69, 13699.34, -54147.52, 0.00, 0.00, 0.00, 0.00, 0.00, 0.00, 0.00
255, 6077.31, 75252.69, 11843.61, 34052.90, -28050.70, -4890.81, 9925.43, -29924.22, -12492.14, 41302.69, 13699.34, -54147.52, 0.00, 0.00, 0.00, 0.00, 0.00, 0.00, 0.00
0, 6077.31, 75252.69, 11843.61, 34052.90, -28050.70, -4890.81, 9925.43, -29924.22, -12467.09, 41333.74, 13714.83, -54122.89, 0.00, 0.00, 0.00, 0.00, 0.00, 0.00, 0.00
1, 6069.68, 75242.01, 11831.69, 34037.46, -28062.44, -4902.56, 9910.58, -29941.84, -12467.09, 41333.74, 13714.83, -54122.89, 0.00, 0.00, 0.00, 0.00, 0.00, 0.00, 0.00
2, 6069.68, 75242.01, 11831.69, 34037.46, -28062.44, -4902.56, 9910.58, -29941.84, -12462.08, 41298.00, 13707.45, -54129.93, 0.00, 0.00, 0.00, 0.00, 0.00, 0.00, 0.00
3, 6082.16, 75261.92, 11848.77, 34052.34, -28046.61, -4893.38, 9924.62, -29928.56, -12462.08, 41298.00, 13707.45, -54129.93, 0.00, 0.00, 0.00, 0.00, 0.00, 0.00, 0.00
4, 6082.16, 75261.92, 11848.77, 34052.34, -28046.61, -4893.38, 9924.62, -29928.56, -12444.65, 41324.77, 13717.51, -54111.63, 0.00, 0.00, 0.00, 0.00, -0.13, 0.40, 0.91
5, 6071.43, 75245.80, 11831.40, 34032.43, -28063.06, -4909.14, 9908.66, -29938.86, -12444.65, 41324.77, 13717.51, -54111.63, 0.00, 0.00, 0.00, 0.00, 0.00, 0.00, 0.00
6, 6071.43, 75245.80, 11831.40, 34032.43, -28063.06, -4909.14, 9908.66, -29938.86, -12440.18, 41316.66, 13698.76, -54080.47, 0.00, 0.00, 0.00, 0.00, 0.00, 0.00, 0.00
7, 6074.15, 75248.46, 11836.86, 34042.93, -28056.56, -4897.56, 9918.12, -29928.02, -12440.18, 41316.66, 13698.76, -54080.47, 0.00, 0.00, 0.00, 0.00, 0.00, 0.00, 0.00
8, 6074.15, 75248.46, 11836.86, 34042.93, -28056.56, -4897.56, 9918.12, -29928.02, -12416.55, 41352.22, 13710.69, -54066.83, 0.00, 0.00, 0.00, 0.00, 0.00, 0.00, 0.00
9, 6072.41, 75243.39, 11828.45, 34029.25, -28065.07, -4910.77, 9906.05, -29938.30, -12416.55, 41352.22, 13710.69, -54066.83, 0.00, 0.00, 0.00, 0.00, 0.00, 0.00, 0.00
10, 6072.41, 75243.39, 11828.45, 34029.25, -28065.07, -4910.77, 9906.05, -29938.30, -12415.52, 41306.96, 13698.78, -54069.94, 0.00, 0.00, 0.00, 0.00, 0.00, 0.00, 0.00
11, 6078.87, 75249.63, 11838.02, 34040.07, -28056.85, -4905.58, 9914.12, -29928.78, -12415.52, 41306.96, 13698.78, -54069.94, 0.00, 0.00, 0.00, 0.00, 0.00, 0.00, 0.00
12, 6078.87, 75249.63, 11838.02, 34040.07, -28056.85, -4905.58, 9914.12, -29928.78, -12403.18, 41329.40, 13710.11, -54047.34, 0.00, 0.00, 0.00, 0.00, 0.00, 0.00, 0.00
13, 6071.69, 75242.77, 11833.91, 34038.73, -28060.04, -4904.67, 9909.74, -29938.37, -12403.18, 41329.40, 13710.11, -54047.34, 0.00, 0.00, 0.00, 0.00, 0.00, 0.00, 0.00
14, 6071.69, 75242.77, 11833.91, 34038.73, -28060.04, -4904.67, 9909.74, -29938.37, -12396.92, 41313.29, 13691.63, -54043.48, 0.00, 0.00, 0.00, 0.00, -0.14, 0.40, 0.91
15, 6070.11, 75241.40, 11832.88, 34037.84, -28061.18, -4905.60, 9911.52, -29929.46, -12396.92, 41313.29, 13691.63, -54043.48, 0.00, 0.00, 0.00, 0.00, 0.00, 0.00, 0.00
16, 6070.11, 75241.40, 11832.88, 34037.84, -28061.18, -4905.60, 9911.52, -29929.46, -12369.32, 41363.31, 13705.15, -54002.08, 0.00, 0.00, 0.00, 0.00, 0.00, 0.00, 0.00
17, 6069.30, 75241.02, 11830.58, 34035.13, -28059.11, -4902.92, 9913.89, -29924.20, -12369.32, 41363.31, 13705.15, -54002.08, 0.00, 0.00, 0.00, 0.00, 0.00, 0.00, 0.00
18, 6069.30, 75241.02, 11830.58, 34035.13, -28059.11, -4902.92, 9913.89, -29924.20, -12368.05, 41323.39, 13688.36, -53998.88, 0.00, 0.00, 0.00, 0.00, 0.00, 0.00, 0.00
19, 6064.72, 75236.13, 11825.95, 34030.35, -28065.88, -4911.71, 9904.53, -29933.81, -12368.05, 41323.39, 13688.36, -53998.88, 0.00, 0.00, 0.00, 0.00, 0.00, 0.00, 0.00
20, 6064.72, 75236.13, 11825.95, 34030.35, -28065.88, -4911.71, 9904.53, -29933.81, -12346.68, 41344.80, 13714.81, -53985.54, 0.00, 0.00, 0.00, 0.00, 0.00, 0.00, 0.00
21, 6075.92, 75252.20, 11841.51, 34040.77, -28049.49, -4903.57, 9918.21, -29921.86, -12346.68, 41344.80, 13714.81, -53985.54, 0.00, 0.00, 0.00, 0.00, 0.00, 0.00, 0.00
22, 6075.92, 75252.20, 11841.51, 34040.77, -28049.49, -4903.57, 9918.21, -29921.86, -12349.07, 41328.69, 13698.09, -53967.91, 0.00, 0.00, 0.00, 0.00, 0.00, 0.00, 0.00
23, 6061.19, 75237.66, 11824.47, 34022.50, -28065.56, -4915.64, 9905.69, -29926.30, -12349.07, 41328.69, 13698.09, -53967.91, 0.00, 0.00, 0.00, 0.00, 0.00, 0.00, 0.00
24, 6061.19, 75237.66, 11824.47, 34022.50, -28065.56, -4915.64, 9905.69, -29926.30, -12321.53, 41359.27, 13708.41, -53944.46, 0.00, 0.00, 0.00, 0.00, -0.14, 0.40, 0.90
25, 6069.97, 75252.38, 11836.63, 34031.71, -28055.15, -4909.16, 9911.25, -29917.07, -12321.53, 41359.27, 13708.41, -53944.46, 0.00, 0.00, 0.00, 0.00, 0.00, 0.00, 0.00
26, 6069.97, 75252.38, 11836.63, 34031.71, -28055.15, -4909.16, 9911.25, -29917.07, -12314.63, 41338.03, 13704.12, -53952.39, 0.00, 0.00, 0.00, 0.00, 0.00, 0.00, 0.00
27, 6067.05, 75243.01, 11830.69, 34024.72, -28060.45, -4914.46, 9905.49, -29923.62, -12314.63, 41338.03, 13704.12, -53952.39, 0.00, 0.00, 0.00, 0.00, 0.00, 0.00, 0.00
28, 6067.05, 75243.01, 11830.69, 34024.72, -28060.45, -4914.46, 9905.49, -29923.62, -12300.70, 41344.54, 13713.38, -53941.35, 0.00, 0.00, 0.00, 0.00, 0.00, 0.00, 0.00
29, 6076.59, 75256.69, 11844.70, 34037.41, -28047.08, -4906.99, 9916.31, -29917.81, -12300.70, 41344.54, 13713.38, -53941.35, 0.00, 0.00, 0.00, 0.00, 0.00, 0.00, 0.00
30, 6076.59, 75256.69, 11844.70, 34037.41, -28047.08, -4906.99, 9916.31, -29917.81, -12293.33, 41344.22, 13704.61, -53920.12, 0.00, 0.00, 0.00, 0.00, 0.00, 0.00, 0.00
31, 6063.27, 75234.92, 11824.47, 34018.59, -28068.18, -4921.29, 9897.31, -29929.05, -12293.33, 41344.22, 13704.61, -53920.12, 0.00, 0.00, 0.00, 0.00, 0.00, 0.00, 0.00
32, 6063.27, 75234.92, 11824.47, 34018.59, -28068.18, -4921.29, 9897.31, -29929.05, -12275.62, 41361.57, 13708.10, -53877.45, 0.00, 0.00, 0.00, 0.00, 0.00, 0.00, 0.00
33, 6080.05, 75255.95, 11845.75, 34036.27, -28044.06, -4905.87, 9920.60, -29898.21, -12275.62, 41361.57, 13708.10, -53877.45, 0.00, 0.00, 0.00, 0.00, -0.14, 0.40, 0.91
34, 6080.05, 75255.95, 11845.75, 34036.27, -28044.06, -4905.87, 9920.60, -29898.21, -12270.24, 41363.67, 13704.97, -53888.09, 0.00, 0.00, 0.00, 0.00, 0.00, 0.00, 0.00
35, 6065.53, 75235.97, 11826.06, 34020.70, -28066.88, -4923.62, 9893.62, -29935.36, -12270.24, 41363.67, 13704.97, -53888.09, 0.00, 0.00, 0.00, 0.00, 0.00, 0.00, 0.00
36, 6065.53, 75235.97, 11826.06, 34020.70, -28066.88, -4923.62, 9893.62, -29935.36, -12266.61, 41335.08, 13702.80, -53887.89, 0.00, 0.00, 0.00, 0.00, 0.00, 0.00, 0.00
37, 6082.18, 75256.64, 11846.18, 34038.55, -28047.82, -4907.26, 9915.28, -29908.49, -12266.61, 41335.08, 13702.80, -53887.89, 0.00, 0.00, 0.00, 0.00, 0.00, 0.00, 0.00
38, 6082.18, 75256.64, 11846.18, 34038.55, -28047.82, -4907.26, 9915.28, -29908.49, -12241.00, 41366.35, 13703.50, -53850.58, 0.00, 0.00, 0.00, 0.00, 0.00, 0.00, 0.00
39, 6064.99, 75235.48, 11823.42, 34016.22, -28063.84, -4923.80, 9895.21, -29919.91, -12241.00, 41366.35, 13703.50, -53850.58, 0.00, 0.00, 0.00, 0.00, 0.00, 0.00, 0.00
40, 6064.99, 75235.48, 11823.42, 34016.22, -28063.84, -4923.80, 9895.21, -29919.91, -12226.45, 41369.14, 13696.72, -53844.79, 0.00, 0.00, 0.00, 0.00, 0.00, 0.00, 0.00
41, 6080.32, 75254.34, 11843.14, 34035.31, -28047.30, -4911.55, 9913.33, -29904.71, -12226.45, 41369.14, 13696.72, -53844.79, 0.00, 0.00, 0.00, 0.00, 0.00, 0.00, 0.00
42, 6080.32, 75254.34, 11843.14, 34035.31, -28047.30, -4911.55, 9913.33, -29904.71, -12226.90, 41342.72, 13704.39, -53850.45, 0.00, 0.00, 0.00, 0.00, 0.00, 0.00, 0.00
43, 6070.40, 75238.18, 11827.18, 34018.13, -28063.87, -4924.80, 9890.87, -29930.66, -12226.90, 41342.72, 13704.39, -53850.45, 0.00, 0.00, 0.00, 0.00, -0.14, 0.40, 0.91
44, 6070.40, 75238.18, 11827.18, 34018.13, -28063.87, -4924.80, 9890.87, -29930.66, -12206.15, 41359.13, 13704.10, -53809.30, 0.00, 0.00, 0.00, 0.00, 0.00, 0.00, 0.00
45, 6085.11, 75258.92, 11847.36, 34038.26, -28044.31, -4909.34, 9914.61, -29901.60, -12206.15, 41359.13, 13704.10, -53809.30, 0.00, 0.00, 0.00, 0.00, 0.00, 0.00, 0.00
46, 6085.11, 75258.92, 11847.36, 34038.26, -28044.31, -4909.34, 9914.61, -29901.60, -12198.96, 41374.66, 13710.02, -53805.96, 0.00, 0.00, 0.00, 0.00, 0.00, 0.00, 0.00
47, 6069.86, 75243.86, 11829.06, 34017.12, -28058.37, -4924.04, 9894.54, -29917.32, -12198.96, 41374.66, 13710.02, -53805.96, 0.00, 0.00, 0.00, 0.00, 0.00, 0.00, 0.00
48, 6069.86, 75243.86, 11829.06, 34017.12, -28058.37, -4924.04, 9894.54, -29917.32, -12191.18, 41349.43, 13695.87, -53794.57, 0.00, 0.00, 0.00, 0.00, 0.00, 0.00, 0.00
49, 6078.71, 75255.64, 11841.84, 34030.62, -28045.09, -4914.28, 9908.89, -29905.31, -12191.18, 41349.43, 13695.87, -53794.57, 0.00, 0.00, 0.00, 0.00, 0.00, 0.00, 0.00
50, 6078.71, 75255.64, 11841.84, 34030.62, -28045.09, -4914.28, 9908.89, -29905.31, -12168.11, 41377.13, 13713.17, -53776.37, 0.00, 0.00, 0.00, 0.00, 0.00, 0.00, 0.00
51, 6073.24, 75240.69, 11828.81, 34016.45, -28058.08, -4923.71, 9894.56, -29914.61, -12168.11, 41377.13, 13713.17, -53776.37, 0.00, 0.00, 0.00, 0.00, 0.00, 0.00, 0.00
52, 6073.24, 75240.69, 11828.81, 34016.45, -28058.08, -4923.71, 9894.56, -29914.61, -12170.82, 41361.41, 13697.89, -53759.43, 0.00, 0.00, 0.00, 0.00, 0.00, 0.00, 0.00
53, 6086.07, 75261.05, 11849.11, 34035.92, -28040.13, -4912.87, 9910.32, -29902.68, -12170.82, 41361.41, 13697.89, -53759.43, 0.00, 0.00, 0.00, 0.00, -0.14, 0.39, 0.90
54, 6086.07, 75261.05, 11849.11, 34035.92, -28040.13, -4912.87, 9910.32, -29902.68, -12143.61, 41382.75, 13719.41, -53748.81, 0.00, 0.00, 0.00, 0.00, 0.00, 0.00, 0.00
55, 6081.57, 75253.70, 11839.92, 34025.41, -28045.40, -4919.57, 9901.15, -29907.08, -12143.61, 41382.75, 13719.41, -53748.81, 0.00, 0.00, 0.00, 0.00, 0.00, 0.00, 0.00
56, 6081.57, 75253.70, 11839.92, 34025.41, -28045.40, -4919.57, 9901.15, -29907.08, -12137.51, 41374.64, 13711.25, -53737.14, 0.00, 0.00, 0.00, 0.00, 0.00, 0.00, 0.00
57, 6086.56, 75263.95, 11848.99, 34033.93, -28037.58, -4911.24, 9912.51, -29895.03, -12137.51, 41374.64, 13711.25, -53737.14, 0.00, 0.00, 0.00, 0.00, 0.00, 0.00, 0.00
58, 6086.56, 75263.95, 11848.99, 34033.93, -28037.58, -4911.24, 9912.51, -29895.03, -12115.81, 41391.18, 13719.37, -53703.04, 0.00, 0.00, 0.00, 0.00, 0.00, 0.00, 0.00
59, 6089.69, 75261.38, 11846.74, 34028.72, -28036.57, -4916.60, 9908.37, -29897.54, -12115.81, 41391.18, 13719.37, -53703.04, 0.00, 0.00, 0.00, 0.00, 0.00, 0.00, 0.00
60, 6089.69, 75261.38, 11846.74, 34028.72, -28036.57, -4916.60, 9908.37, -29897.54, -12113.73, 41375.45, 13711.72, -53690.50, 0.00, 0.00, 0.00, 0.00, 0.00, 0.00, 0.00
61, 6089.26, 75263.48, 11845.87, 34029.10, -28036.17, -4914.70, 9907.37, -29894.54, -12113.73, 41375.45, 13711.72, -53690.50, 0.00, 0.00, 0.00, 0.00, 0.00, 0.00, 0.00
62, 6089.26, 75263.48, 11845.87, 34029.10, -28036.17, -4914.70, 9907.37, -29894.54, -12100.47, 41405.75, 13719.23, -53694.50, 0.00, 0.00, 0.00, 0.00, 0.00, 0.00, 0.00
63, 6090.00, 75264.98, 11846.38, 34030.15, -28035.48, -4914.05, 9906.78, -29893.83, -12100.47, 41405.75, 13719.23, -53694.50, 0.00, 0.00, 0.00, 0.00, -0.14, 0.40, 0.90
64, 6090.00, 75264.98, 11846.38, 34030.15, -28035.48, -4914.05, 9906.78, -29893.83, -12094.44, 41379.25, 13707.09, -53659.54, 0.00, 0.00, 0.00, 0.00, 0.00, 0.00, 0.00
65, 6086.47, 75263.82, 11842.69, 34023.04, -28037.18, -4919.60, 9906.02, -29892.48, -12094.44, 41379.25, 13707.09, -53659.54, 0.00, 0.00, 0.00, 0.00, 0.00, 0.00, 0.00
66, 6086.47, 75263.82, 11842.69, 34023.04, -28037.18, -4919.60, 9906.02, -29892.48, -12070.14, 41408.46, 13719.86, -53645.97, 0.00, 0.00, 0.00, 0.00, 0.00, 0.00, 0.00
67, 6087.48, 75259.66, 11843.81, 34025.50, -28035.79, -4918.72, 9907.08, -29893.60, -12070.14, 41408.46, 13719.86, -53645.97, 0.00, 0.00, 0.00, 0.00, 0.00, 0.00, 0.00
68, 6087.48, 75259.66, 11843.81, 34025.50, -28035.79, -4918.72, 9907.08, -29893.60, -12070.28, 41377.35, 13707.88, -53660.61, 0.00, 0.00, 0.00, 0.00, 0.00, 0.00, 0.00
69, 6080.55, 75250.63, 11838.60, 34019.46, -28041.85, -4926.84, 9896.17, -29901.69, -12070.28, 41377.35, 13707.88, -53660.61, 0.00, 0.00, 0.00, 0.00, 0.00, 0.00, 0.00
70, 6080.55, 75250.63, 11838.60, 34019.46, -28041.85, -4926.84, 9896.17, -29901.69, -12053.56, 41398.18, 13720.48, -53614.46, 0.00, 0.00, 0.00, 0.00, 0.00, 0.00, 0.00
71, 6085.44, 75257.80, 11849.08, 34030.78, -28026.27, -4911.84, 9911.88, -29883.46, -12053.56, 41398.18, 13720.48, -53614.46, 0.00, 0.00, 0.00, 0.00, 0.00, 0.00, 0.00
72, 6085.44, 75257.80, 11849.08, 34030.78, -28026.27, -4911.84, 9911.88, -29883.46, -12039.23, 41403.14, 13706.89, -53604.04, 0.00, 0.00, 0.00, 0.00, -0.14, 0.40, 0.91
73, 6069.01, 75238.56, 11831.31, 34016.92, -28036.87, -4923.06, 9901.31, -29893.00, -12039.23, 41403.14, 13706.89, -53604.04, 0.00, 0.00, 0.00, 0.00, 0.00, 0.00, 0.00
74, 6069.01, 75238.56, 11831.31, 34016.92, -28036.87, -4923.06, 9901.31, -29893.00, -12028.08, 41407.41, 13714.87, -53605.56, 0.00, 0.00, 0.00, 0.00, 0.00, 0.00, 0.00
75, 6076.57, 75250.41, 11841.78, 34031.51, -28025.71, -4912.04, 9914.12, -29880.28, -12028.08, 41407.41, 13714.87, -53605.56, 0.00, 0.00, 0.00, 0.00, 0.00, 0.00, 0.00
76, 6076.57, 75250.41, 11841.78, 34031.51, -28025.71, -4912.04, 9914.12, -29880.28, -12020.70, 41400.70, 13699.76, -53594.90, 0.00, 0.00, 0.00, 0.00, 0.00, 0.00, 0.00
77, 6052.76, 75223.92, 11815.87, 34005.56, -28047.01, -4934.28, 9889.37, -29901.98, -12020.70, 41400.70, 13699.76, -53594.90, 0.00, 0.00, 0.00, 0.00, 0.00, 0.00, 0.00
78, 6052.76, 75223.92, 11815.87, 34005.56, -28047.01, -4934.28, 9889.37, -29901.98, -12014.91, 41392.90, 13701.73, -53577.91, 0.00, 0.00, 0.00, 0.00, 0.00, 0.00, 0.00
79, 6069.35, 75238.56, 11835.00, 34028.83, -28027.52, -4917.43, 9907.10, -29887.41, -12014.91, 41392.90, 13701.73, -53577.91, 0.00, 0.00, 0.00, 0.00, 0.00, 0.00, 0.00
80, 6069.35, 75238.56, 11835.00, 34028.83, -28027.52, -4917.43, 9907.10, -29887.41, -11998.57, 41399.81, 13729.36, -53563.36, 0.00, 0.00, 0.00, 0.00, 0.00, 0.00, 0.00
81, 6089.22, 75259.48, 11864.35, 34059.18, -28011.72, -4905.31, 9912.19, -29885.53, -11998.57, 41399.81, 13729.36, -53563.36, 0.00, 0.00, 0.00, 0.00, 0.00, 0.00, 0.00
82, 6089.22, 75259.48, 11864.35, 34059.18, -28011.72, -4905.31, 9912.19, -29885.53, -11970.45, 41432.04, 13746.64, -53542.37, 0.00, 0.00, 0.00, 0.00, -0.14, 0.40, 0.90
83, 6064.63, 75247.55, 11833.28, 34011.73, -28023.14, -4922.41, 9911.48, -29876.46, -11970.45, 41432.04, 13746.64, -53542.37, 0.00, 0.00, 0.00, 0.00, 0.00, 0.00, 0.00
84, 6064.63, 75247.55, 11833.28, 34011.73, -28023.14, -4922.41, 9911.48, -29876.46, -11972.82, 41402.07, 13696.77, -53524.51, 0.00, 0.00, 0.00, 0.00, 0.00, 0.00, 0.00
85, 6047.60, 75223.23, 11812.79, 33988.08, -28038.83, -4933.77, 9892.23, -29891.57, -11972.82, 41402.07, 13696.77, -53524.51, 0.00, 0.00, 0.00, 0.00, 0.00, 0.00, 0.00
86, 6047.60, 75223.23, 11812.79, 33988.08, -28038.83, -4933.77, 9892.23, -29891.57, -11951.92, 41419.68, 13706.71, -53524.43, 0.00, 0.00, 0.00, 0.00, 0.00, 0.00, 0.00
87, 6051.29, 75238.52, 11825.68, 33999.39, -28020.59, -4922.73, 9914.54, -29866.58, -11951.92, 41419.68, 13706.71, -53524.43, 0.00, 0.00, 0.00, 0.00, 0.00, 0.00, 0.00
88, 6051.29, 75238.52, 11825.68, 33999.39, -28020.59, -4922.73, 9914.54, -29866.58, -11932.97, 41431.84, 13709.13, -53501.04, 0.00, 0.00, 0.00, 0.00, 0.00, 0.00, 0.00
89, 6038.57, 75213.39, 11800.80, 33985.07, -28048.87, -4937.30, 9884.99, -29894.70, -11932.97, 41431.84, 13709.13, -53501.04, 0.00, 0.00, 0.00, 0.00, 0.00, 0.00, 0.00
90, 6038.57, 75213.39, 11800.80, 33985.07, -28048.87, -4937.30, 9884.99, -29894.70, -11944.86, 41413.38, 13705.51, -53490.38, 0.00, 0.00, 0.00, 0.00, 0.00, 0.00, 0.00
91, 6069.24, 75247.15, 11838.27, 34021.37, -28016.32, -4914.79, 9913.76, -29872.23, -11944.86, 41413.38, 13705.51, -53490.38, 0.00, 0.00, 0.00, 0.00, 0.00, 0.00, 0.00
92, 6069.24, 75247.15, 11838.27, 34021.37, -28016.32, -4914.79, 9913.76, -29872.23, -11922.00, 41415.68, 13737.85, -53496.44, 0.00, 0.00, 0.00, 0.00, -0.13, 0.40, 0.90
93, 6068.99, 75238.72, 11832.77, 34011.84, -28021.46, -4925.94, 9902.54, -29880.79, -11922.00, 41415.68, 13737.85, -53496.44, 0.00, 0.00, 0.00, 0.00, 0.00, 0.00, 0.00
94, 6068.99, 75238.72, 11832.77, 34011.84, -28021.46, -4925.94, 9902.54, -29880.79, -11898.30, 41428.33, 13728.82, -53456.54, 0.00, 0.00, 0.00, 0.00, 0.00, 0.00, 0.00
95, 6073.71, 75247.91, 11841.84, 34028.38, -28007.18, -4907.08, 9923.21, -29858.49, -11898.30, 41428.33, 13728.82, -53456.54, 0.00, 0.00, 0.00, 0.00, 0.00, 0.00, 0.00
96, 6073.71, 75247.91, 11841.84, 34028.38, -28007.18, -4907.08, 9923.21, -29858.49, -11901.01, 41428.89, 13724.40, -53458.44, 0.00, 0.00, 0.00, 0.00, 0.00, 0.00, 0.00
97, 6058.73, 75223.84, 11817.72, 34006.79, -28030.07, -4926.48, 9895.63, -29883.07, -11901.01, 41428.89, 13724.40, -53458.44, 0.00, 0.00, 0.00, 0.00, 0.00, 0.00, 0.00
98, 6058.73, 75223.84, 11817.72, 34006.79, -28030.07, -4926.48, 9895.63, -29883.07, -11887.48, 41427.28, 13713.80, -53426.66, 0.00, 0.00, 0.00, 0.00, 0.00, 0.00, 0.00
99, 6058.19, 75234.65, 11829.24, 34018.32, -28013.15, -4918.66, 9913.27, -29864.05, -11887.48, 41427.28, 13713.80, -53426.66, 0.00, 0.00, 0.00, 0.00, 0.00, 0.00, 0.00
100, 6058.19, 75234.65, 11829.24, 34018.32, -28013.15, -4918.66, 9913.27, -29864.05, -11876.96, 41435.26, 13720.66, -53425.03, 0.00, 0.00, 0.00, 0.00, 0.00, 0.00, 0.00
101, 6045.72, 75215.31, 11812.54, 34002.68, -28027.14, -4931.89, 9893.08, -29882.58, -11876.96, 41435.26, 13720.66, -53425.03, 0.00, 0.00, 0.00, 0.00, 0.00, 0.00, 0.00
102, 6045.72, 75215.31, 11812.54, 34002.68, -28027.14, -4931.89, 9893.08, -29882.58, -11868.69, 41422.27, 13710.27, -53426.32, 0.00, 0.00, 0.00, 0.00, -0.14, 0.39, 0.91
103, 6060.88, 75236.66, 11832.16, 34021.23, -28007.94, -4915.53, 9915.23, -29860.34, -11868.69, 41422.27, 13710.27, -53426.32, 0.00, 0.00, 0.00, 0.00, 0.00, 0.00, 0.00
104, 6060.88, 75236.66, 11832.16, 34021.23, -28007.94, -4915.53, 9915.23, -29860.34, -11850.69, 41445.65, 13730.14, -53391.36, 0.00, 0.00, 0.00, 0.00, 0.00, 0.00, 0.00
105, 6057.08, 75230.38, 11825.88, 34016.38, -28012.88, -4920.78, 9903.05, -29870.67, -11850.69, 41445.65, 13730.14, -53391.36, 0.00, 0.00, 0.00, 0.00, 0.00, 0.00, 0.00
106, 6057.08, 75230.38, 11825.88, 34016.38, -28012.88, -4920.78, 9903.05, -29870.67, -11832.50, 41434.10, 13717.53, -53377.80, 0.00, 0.00, 0.00, 0.00, 0.00, 0.00, 0.00
107, 6055.67, 75235.77, 11831.00, 34020.09, -28005.97, -4917.00, 9910.67, -29858.71, -11832.50, 41434.10, 13717.53, -53377.80, 0.00, 0.00, 0.00, 0.00, 0.00, 0.00, 0.00
108, 6055.67, 75235.77, 11831.00, 34020.09, -28005.97, -4917.00, 9910.67, -29858.71, -11825.37, 41449.81, 13737.56, -53380.05, 0.00, 0.00, 0.00, 0.00, 0.00, 0.00, 0.00
109, 6053.90, 75230.85, 11827.65, 34017.97, -28005.33, -4919.73, 9906.61, -29864.59, -11825.37, 41449.81, 13737.56, -53380.05, 0.00, 0.00, 0.00, 0.00, 0.00, 0.00, 0.00
110, 6053.90, 75230.85, 11827.65, 34017.97, -28005.33, -4919.73, 9906.61, -29864.59, -11813.37, 41435.89, 13720.51, -53350.24, 0.00, 0.00, 0.00, 0.00, 0.00, 0.00, 0.00
111, 6046.46, 75229.82, 11825.53, 34015.04, -28002.29, -4918.50, 9911.21, -29852.70, -11813.37, 41435.89, 13720.51, -53350.24, 0.00, 0.00, 0.00, 0.00, -0.14, 0.40, 0.91
112, 6046.46, 75229.82, 11825.53, 34015.04, -28002.29, -4918.50, 9911.21, -29852.70, -11791.98, 41455.49, 13734.36, -53346.97, 0.00, 0.00, 0.00, 0.00, 0.00, 0.00, 0.00
113, 6055.91, 75233.87, 11827.67, 34018.95, -28002.20, -4917.38, 9910.34, -29855.63, -11791.98, 41455.49, 13734.36, -53346.97, 0.00, 0.00, 0.00, 0.00, 0.00, 0.00, 0.00
114, 6055.91, 75233.87, 11827.67, 34018.95, -28002.20, -4917.38, 9910.34, -29855.63, -11786.45, 41450.01, 13718.92, -53328.69, 0.00, 0.00, 0.00, 0.00, 0.00, 0.00, 0.00
115, 6050.08, 75226.76, 11822.78, 34008.36, -28010.02, -4924.80, 9903.90, -29856.92, -11786.45, 41450.01, 13718.92, -53328.69, 0.00, 0.00, 0.00, 0.00, 0.00, 0.00, 0.00
116, 6050.08, 75226.76, 11822.78, 34008.36, -28010.02, -4924.80, 9903.90, -29856.92, -11764.64, 41463.82, 13740.49, -53318.68, 0.00, 0.00, 0.00, 0.00, 0.00, 0.00, 0.00
117, 6069.88, 75248.17, 11842.98, 34026.26, -27990.82, -4913.67, 9916.22, -29844.14, -11764.64, 41463.82, 13740.49, -53318.68, 0.00, 0.00, 0.00, 0.00, 0.00, 0.00, 0.00
118, 6069.88, 75248.17, 11842.98, 34026.26, -27990.82, -4913.67, 9916.22, -29844.14, -11765.09, 41439.20, 13732.26, -53306.36, 0.00, 0.00, 0.00, 0.00, 0.00, 0.00, 0.00
119, 6053.32, 75227.45, 11823.33, 34010.70, -28011.63, -4926.19, 9898.98, -29861.26, -11765.09, 41439.20, 13732.26, -53306.36, 0.00, 0.00, 0.00, 0.00, 0.00, 0.00, 0.00
120, 6053.32, 75227.45, 11823.33, 34010.70, -28011.63, -4926.19, 9898.98, -29861.26, -11746.15, 41466.69, 13728.28, -53288.12, 0.00, 0.00, 0.00, 0.00, 0.00, 0.00, 0.00
121, 6052.85, 75227.95, 11827.13, 34019.67, -28002.44, -4915.19, 9911.41, -29842.84, -11746.15, 41466.69, 13728.28, -53288.12, 0.00, 0.00, 0.00, 0.00, -0.14, 0.40, 0.91
122, 6052.85, 75227.95, 11827.13, 34019.67, -28002.44, -4915.19, 9911.41, -29842.84, -11739.90, 41460.50, 13716.48, -53287.79, 0.00, 0.00, 0.00, 0.00, 0.00, 0.00, 0.00
123, 6041.45, 75211.38, 11809.77, 34003.66, -28019.56, -4931.44, 9894.80, -29861.82, -11739.90, 41460.50, 13716.48, -53287.79, 0.00, 0.00, 0.00, 0.00, 0.00, 0.00, 0.00
124, 6041.45, 75211.38, 11809.77, 34003.66, -28019.56, -4931.44, 9894.80, -29861.82, -11732.94, 41457.25, 13720.86, -53258.62, 0.00, 0.00, 0.00, 0.00, 0.00, 0.00, 0.00
125, 6055.47, 75230.29, 11828.19, 34019.55, -28003.31, -4918.14, 9910.83, -29849.41, -11732.94, 41457.25, 13720.86, -53258.62, 0.00, 0.00, 0.00, 0.00, 0.00, 0.00, 0.00
126, 6055.47, 75230.29, 11828.19, 34019.55, -28003.31, -4918.14, 9910.83, -29849.41, -11732.97, 41436.89, 13717.51, -53266.60, 0.00, 0.00, 0.00, 0.00, 0.00, 0.00, 0.00
127, 6038.50, 75210.33, 11809.66, 34000.38, -28019.65, -4932.65, 9885.59, -29870.31, -11732.97, 41436.89, 13717.51, -53266.60, 0.00, 0.00, 0.00, 0.00, 0.00, 0.00, 0.00
128, 6038.50, 75210.33, 11809.66, 34000.38, -28019.65, -4932.65, 9885.59, -29870.31, -11703.60, 41464.45, 13720.33, -53258.59, 0.00, 0.00, 0.00, 0.00, 0.00, 0.00, 0.00
129, 6053.54, 75231.07, 11829.97, 34020.47, -28000.05, -4912.38, 9912.08, -29842.91, -11703.60, 41464.45, 13720.33, -53258.59, 0.00, 0.00, 0.00, 0.00, 0.00, 0.00, 0.00
130, 6053.54, 75231.07, 11829.97, 34020.47, -28000.05, -4912.38, 9912.08, -29842.91, -11701.74, 41454.24, 13728.17, -53235.33, 0.00, 0.00, 0.00, 0.00, 0.00, 0.00, 0.00
131, 6044.65, 75221.26, 11817.59, 34002.70, -28014.47, -4929.41, 9889.77, -29858.26, -11701.74, 41454.24, 13728.17, -53235.33, 0.00, 0.00, 0.00, 0.00, -0.14, 0.40, 0.91
132, 6044.65, 75221.26, 11817.59, 34002.70, -28014.47, -4929.41, 9889.77, -29858.26, -11683.01, 41473.62, 13732.35, -53198.11, 0.00, 0.00, 0.00, 0.00, 0.00, 0.00, 0.00
133, 6065.53, 75246.36, 11841.84, 34024.23, -27988.54, -4912.44, 9915.46, -29832.85, -11683.01, 41473.62, 13732.35, -53198.11, 0.00, 0.00, 0.00, 0.00, 0.00, 0.00, 0.00
134, 6065.53, 75246.36, 11841.84, 34024.23, -27988.54, -4912.44, 9915.46, -29832.85, -11661.58, 41472.70, 13740.58, -53196.48, 0.00, 0.00, 0.00, 0.00, 0.00, 0.00, 0.00
135, 6058.46, 75234.90, 11830.08, 34013.68, -27999.38, -4922.21, 9904.53, -29845.21, -11661.58, 41472.70, 13740.58, -53196.48, 0.00, 0.00, 0.00, 0.00, 0.00, 0.00, 0.00
136, 6058.46, 75234.90, 11830.08, 34013.68, -27999.38, -4922.21, 9904.53, -29845.21, -11655.81, 41467.51, 13740.38, -53189.71, 0.00, 0.00, 0.00, 0.00, 0.00, 0.00, 0.00
137, 6068.68, 75253.54, 11847.03, 34023.60, -27983.18, -4912.11, 9919.39, -29826.17, -11655.81, 41467.51, 13740.38, -53189.71, 0.00, 0.00, 0.00, 0.00, 0.00, 0.00, 0.00
138, 6068.68, 75253.54, 11847.03, 34023.60, -27983.18, -4912.11, 9919.39, -29826.17, -11639.63, 41491.16, 13738.61, -53179.92, 0.00, 0.00, 0.00, 0.00, 0.00, 0.00, 0.00
139, 6051.11, 75221.30, 11822.28, 34004.98, -28005.57, -4929.19, 9892.81, -29841.75, -11639.63, 41491.16, 13738.61, -53179.92, 0.00, 0.00, 0.00, 0.00, 0.00, 0.00, 0.00
140, 6051.11, 75221.30, 11822.28, 34004.98, -28005.57, -4929.19, 9892.81, -29841.75, -11641.44, 41474.18, 13728.20, -53153.25, 0.00, 0.00, 0.00, 0.00, 0.00, 0.00, 0.00
141, 6072.32, 75246.92, 11847.12, 34029.82, -27985.41, -4911.44, 9914.92, -29833.59, -11641.44, 41474.18, 13728.20, -53153.25, 0.00, 0.00, 0.00, 0.00, -0.13, 0.40, 0.91
142, 6072.32, 75246.92, 11847.12, 34029.82, -27985.41, -4911.44, 9914.92, -29833.59, -11636.54, 41456.32, 13733.81, -53166.80, 0.00, 0.00, 0.00, 0.00, 0.00, 0.00, 0.00
143, 6057.19, 75225.76, 11825.79, 34007.24, -28002.78, -4930.37, 9891.92, -29847.27, -11636.54, 41456.32, 13733.81, -53166.80, 0.00, 0.00, 0.00, 0.00, 0.00, 0.00, 0.00
144, 6057.19, 75225.76, 11825.79, 34007.24, -28002.78, -4930.37, 9891.92, -29847.27, -11616.38, 41479.09, 13724.48, -53140.38, 0.00, 0.00, 0.00, 0.00, 0.00, 0.00, 0.00
145, 6066.38, 75239.48, 11839.61, 34025.46, -27991.51, -4915.93, 9909.29, -29830.71, -11616.38, 41479.09, 13724.48, -53140.38, 0.00, 0.00, 0.00, 0.00, 0.00, 0.00, 0.00
146, 6066.38, 75239.48, 11839.61, 34025.46, -27991.51, -4915.93, 9909.29, -29830.71, -11602.03, 41478.00, 13737.40, -53132.24, 0.00, 0.00, 0.00, 0.00, 0.00, 0.00, 0.00
147, 6055.71, 75228.84, 11827.89, 34009.25, -27997.50, -4926.23, 9895.92, -29838.44, -11602.03, 41478.00, 13737.40, -53132.24, 0.00, 0.00, 0.00, 0.00, 0.00, 0.00, 0.00
148, 6055.71, 75228.84, 11827.89, 34009.25, -27997.50, -4926.23, 9895.92, -29838.44, -11597.58, 41478.40, 13725.49, -53122.85, 0.00, 0.00, 0.00, 0.00, 0.00, 0.00, 0.00
149, 6056.45, 75229.29, 11830.20, 34017.77, -27997.03, -4919.28, 9902.40, -29833.01, -11597.58, 41478.40, 13725.49, -53122.85, 0.00, 0.00, 0.00, 0.00, 0.00, 0.00, 0.00
150, 6056.45, 75229.29, 11830.20, 34017.77, -27997.03, -4919.28, 9902.40, -29833.01, -11582.90, 41492.23, 13735.42, -53101.06, 0.00, 0.00, 0.00, 0.00, -0.14, 0.40, 0.91
151, 6048.99, 75224.70, 11825.86, 34009.36, -27997.86, -4924.40, 9897.62, -29836.38, -11582.90, 41492.23, 13735.42, -53101.06, 0.00, 0.00, 0.00, 0.00, 0.00, 0.00, 0.00
152, 6048.99, 75224.70, 11825.86, 34009.36, -27997.86, -4924.40, 9897.62, -29836.38, -11581.13, 41461.08, 13726.97, -53098.36, 0.00, 0.00, 0.00, 0.00, 0.00, 0.00, 0.00
153, 6053.34, 75227.32, 11828.30, 34011.33, -28000.14, -4926.30, 9896.70, -29836.87, -11581.13, 41461.08, 13726.97, -53098.36, 0.00, 0.00, 0.00, 0.00, 0.00, 0.00, 0.00
154, 6053.34, 75227.32, 11828.30, 34011.33, -28000.14, -4926.30, 9896.70, -29836.87, -11563.56, 41488.12, 13726.79, -53083.34, 0.00, 0.00, 0.00, 0.00, 0.00, 0.00, 0.00
155, 6051.02, 75221.46, 11822.20, 34007.51, -28001.97, -4926.59, 9893.37, -29836.02, -11563.56, 41488.12, 13726.79, -53083.34, 0.00, 0.00, 0.00, 0.00, 0.00, 0.00, 0.00
156, 6051.02, 75221.46, 11822.20, 34007.51, -28001.97, -4926.59, 9893.37, -29836.02, -11547.92, 41487.14, 13724.91, -53058.28, 0.00, 0.00, 0.00, 0.00, 0.00, 0.00, 0.00
157, 6052.47, 75224.81, 11827.13, 34013.03, -27999.11, -4922.35, 9899.88, -29825.18, -11547.92, 41487.14, 13724.91, -53058.28, 0.00, 0.00, 0.00, 0.00, 0.00, 0.00, 0.00
158, 6052.47, 75224.81, 11827.13, 34013.03, -27999.11, -4922.35, 9899.88, -29825.18, -11541.12, 41500.26, 13733.02, -53051.66, 0.00, 0.00, 0.00, 0.00, 0.00, 0.00, 0.00
159, 6056.85, 75226.11, 11830.44, 34015.24, -27996.45, -4923.35, 9896.35, -29833.01, -11541.12, 41500.26, 13733.02, -53051.66, 0.00, 0.00, 0.00, 0.00, 0.00, 0.00, 0.00
160, 6056.85, 75226.11, 11830.44, 34015.24, -27996.45, -4923.35, 9896.35, -29833.01, -11526.93, 41479.18, 13723.08, -53046.99, 0.00, 0.00, 0.00, 0.00, -0.14, 0.40, 0.91
161, 6056.12, 75225.93, 11828.83, 34015.18, -27999.96, -4921.97, 9898.31, -29826.95, -11526.93, 41479.18, 13723.08, -53046.99, 0.00, 0.00, 0.00, 0.00, 0.00, 0.00, 0.00
162, 6056.12, 75225.93, 11828.83, 34015.18, -27999.96, -4921.97, 9898.31, -29826.95, -11520.87, 41498.45, 13730.83, -53027.19, 0.00, 0.00, 0.00, 0.00, 0.00, 0.00, 0.00
163, 6054.33, 75221.58, 11823.83, 34011.78, -28008.54, -4929.14, 9887.67, -29830.79, -11520.87, 41498.45, 13730.83, -53027.19, 0.00, 0.00, 0.00, 0.00, 0.00, 0.00, 0.00
164, 6054.33, 75221.58, 11823.83, 34011.78, -28008.54, -4929.14, 9887.67, -29830.79, -11527.38, 41480.54, 13709.35, -53033.73, 0.00, 0.00, 0.00, 0.00, 0.00, 0.00, 0.00
165, 6037.14, 75209.28, 11808.16, 33989.34, -28028.01, -4952.39, 9862.64, -29859.85, -11527.38, 41480.54, 13709.35, -53033.73, 0.00, 0.00, 0.00, 0.00, 0.00, 0.00, 0.00
166, 6037.14, 75209.28, 11808.16, 33989.34, -28028.01, -4952.39, 9862.64, -29859.85, -11516.83, 41474.33, 13712.97, -53034.90, 0.00, 0.00, 0.00, 0.00, 0.00, 0.00, 0.00
167, 6037.79, 75210.82, 11810.82, 33992.80, -28016.93, -4939.85, 9875.49, -29832.22, -11516.83, 41474.33, 13712.97, -53034.90, 0.00, 0.00, 0.00, 0.00, 0.00, 0.00, 0.00
168, 6037.79, 75210.82, 11810.82, 33992.80, -28016.93, -4939.85, 9875.49, -29832.22, -11463.81, 41560.77, 13700.05, -52933.67, 0.00, 0.00, 0.00, 0.00, 0.00, 0.00, 0.00
169, 6008.84, 75183.11, 11792.42, 33986.36, -28016.88, -4931.35, 9887.29, -29815.91, -11463.81, 41560.77, 13700.05, -52933.67, 0.00, 0.00, 0.00, 0.00, 0.00, 0.00, 0.00
170, 6008.84, 75183.11, 11792.42, 33986.36, -28016.88, -4931.35, 9887.29, -29815.91, -11454.82, 41563.85, 13702.04, -52923.05, 0.00, 0.00, 0.00, 0.00, -0.14, 0.40, 0.91
171, 6038.30, 75212.81, 11823.02, 34016.20, -27984.76, -4904.44, 9918.05, -29790.63, -11454.82, 41563.85, 13702.04, -52923.05, 0.00, 0.00, 0.00, 0.00, 0.00, 0.00, 0.00
172, 6038.30, 75212.81, 11823.02, 34016.20, -27984.76, -4904.44, 9918.05, -29790.63, -11416.87, 41561.23, 13726.45, -52900.14, 0.00, 0.00, 0.00, 0.00, 0.00, 0.00, 0.00
173, 6031.91, 75203.70, 11813.77, 34007.13, -27992.05, -4911.01, 9907.03, -29783.92, -11416.87, 41561.23, 13726.45, -52900.14, 0.00, 0.00, 0.00, 0.00, 0.00, 0.00, 0.00
174, 6031.91, 75203.70, 11813.77, 34007.13, -27992.05, -4911.01, 9907.03, -29783.92, -11409.89, 41570.96, 13714.45, -52900.50, 0.00, 0.00, 0.00, 0.00, 0.00, 0.00, 0.00
175, 6044.34, 75214.58, 11822.31, 34014.32, -27991.16, -4907.68, 9911.05, -29793.85, -11409.89, 41570.96, 13714.45, -52900.50, 0.00, 0.00, 0.00, 0.00, 0.00, 0.00, 0.00
176, 6044.34, 75214.58, 11822.31, 34014.32, -27991.16, -4907.68, 9911.05, -29793.85, -11433.72, 41570.24, 13724.98, -52870.43, 0.00, 0.00, 0.00, 0.00, 0.00, 0.00, 0.00
177, 6041.48, 75211.25, 11820.85, 34009.25, -27985.95, -4908.04, 9913.09, -29784.23, -11433.72, 41570.24, 13724.98, -52870.43, 0.00, 0.00, 0.00, 0.00, 0.00, 0.00, 0.00
178, 6041.48, 75211.25, 11820.85, 34009.25, -27985.95, -4908.04, 9913.09, -29784.23, -11401.22, 41540.83, 13719.30, -52875.11, 0.00, 0.00, 0.00, 0.00, 0.00, 0.00, 0.00
179, 6042.08, 75215.67, 11825.66, 34022.19, -27990.62, -4908.35, 9910.20, -29803.59, -11401.22, 41540.83, 13719.30, -52875.11, 0.00, 0.00, 0.00, 0.00, 0.00, 0.00, 0.00
180, 6042.08, 75215.67, 11825.66, 34022.19, -27990.62, -4908.35, 9910.20, -29803.59, -11402.63, 41533.54, 13707.83, -52881.92, 0.00, 0.00, 0.00, 0.00, -0.13, 0.40, 0.91
181, 6028.76, 75197.05, 11805.05, 33991.88, -28004.68, -4923.84, 9897.89, -29790.83, -11402.63, 41533.54, 13707.83, -52881.92, 0.00, 0.00, 0.00, 0.00, 0.00, 0.00, 0.00
182, 6028.76, 75197.05, 11805.05, 33991.88, -28004.68, -4923.84, 9897.89, -29790.83, -11380.41, 41574.98, 13719.14, -52816.34, 0.00, 0.00, 0.00, 0.00, 0.00, 0.00, 0.00
183, 6042.91, 75224.32, 11824.43, 34002.52, -27998.98, -4922.30, 9896.75, -29796.48, -11380.41, 41574.98, 13719.14, -52816.34, 0.00, 0.00, 0.00, 0.00, 0.00, 0.00, 0.00
184, 6042.91, 75224.32, 11824.43, 34002.52, -27998.98, -4922.30, 9896.75, -29796.48, -11388.08, 41526.03, 13720.93, -52869.27, 0.00, 0.00, 0.00, 0.00, 0.00, 0.00, 0.00
185, 6025.74, 75195.36, 11796.69, 33980.35, -28034.05, -4949.32, 9860.02, -29833.36, -11388.08, 41526.03, 13720.93, -52869.27, 0.00, 0.00, 0.00, 0.00, 0.00, 0.00, 0.00
186, 6025.74, 75195.36, 11796.69, 33980.35, -28034.05, -4949.32, 9860.02, -29833.36, -11393.11, 41546.15, 13704.73, -52821.08, 0.00, 0.00, 0.00, 0.00, 0.00, 0.00, 0.00
187, 6045.74, 75220.30, 11824.63, 34005.63, -28002.89, -4921.21, 9894.00, -29800.62, -11393.11, 41546.15, 13704.73, -52821.08, 0.00, 0.00, 0.00, 0.00, 0.00, 0.00, 0.00
188, 6045.74, 75220.30, 11824.63, 34005.63, -28002.89, -4921.21, 9894.00, -29800.62, -11360.50, 41548.41, 13718.85, -52819.70, 0.00, 0.00, 0.00, 0.00, 0.00, 0.00, 0.00
189, 6028.09, 75200.45, 11802.21, 33978.99, -28025.31, -4952.32, 9859.51, -29829.94, -11360.50, 41548.41, 13718.85, -52819.70, 0.00, 0.00, 0.00, 0.00, -0.14, 0.40, 0.91
190, 6028.09, 75200.45, 11802.21, 33978.99, -28025.31, -4952.32, 9859.51, -29829.94, -11364.63, 41521.94, 13713.93, -52841.73, 0.00, 0.00, 0.00, 0.00, 0.00, 0.00, 0.00
191, 6024.24, 75203.47, 11808.36, 33988.66, -28020.01, -4948.09, 9863.60, -29825.72, -11364.63, 41521.94, 13713.93, -52841.73, 0.00, 0.00, 0.00, 0.00, 0.00, 0.00, 0.00
192, 6024.24, 75203.47, 11808.36, 33988.66, -28020.01, -4948.09, 9863.60, -29825.72, -11370.69, 41504.10, 13697.06, -52856.78, 0.00, 0.00, 0.00, 0.00, 0.00, 0.00, 0.00
193, 6015.26, 75190.08, 11788.29, 33958.04, -28041.85, -4972.73, 9834.72, -29855.27, -11370.69, 41504.10, 13697.06, -52856.78, 0.00, 0.00, 0.00, 0.00, 0.00, 0.00, 0.00
194, 6015.26, 75190.08, 11788.29, 33958.04, -28041.85, -4972.73, 9834.72, -29855.27, -11359.76, 41500.73, 13701.26, -52836.06, 0.00, 0.00, 0.00, 0.00, 0.00, 0.00, 0.00
195, 6043.13, 75216.19, 11817.41, 33994.48, -28018.98, -4943.54, 9859.64, -29843.45, -11359.76, 41500.73, 13701.26, -52836.06, 0.00, 0.00, 0.00, 0.00, 0.00, 0.00, 0.00
196, 6043.13, 75216.19, 11817.41, 33994.48, -28018.98, -4943.54, 9859.64, -29843.45, -11354.55, 41497.71, 13718.09, -52822.89, 0.00, 0.00, 0.00, 0.00, 0.00, 0.00, 0.00
197, 6028.42, 75200.12, 11802.73, 33981.16, -28024.64, -4949.35, 9849.12, -29847.29, -11354.55, 41497.71, 13718.09, -52822.89, 0.00, 0.00, 0.00, 0.00, 0.00, 0.00, 0.00
198, 6028.42, 75200.12, 11802.73, 33981.16, -28024.64, -4949.35, 9849.12, -29847.29, -11338.44, 41491.36, 13702.20, -52827.86, 0.00, 0.00, 0.00, 0.00, 0.00, 0.00, 0.00
199, 6044.47, 75216.21, 11815.98, 33984.66, -28016.79, -4959.63, 9851.55, -29833.14, -11338.44, 41491.36, 13702.20, -52827.86, 0.00, 0.00, 0.00, 0.00, -0.14, 0.40, 0.91
200, 6044.47, 75216.21, 11815.98, 33984.66, -28016.79, -4959.63, 9851.55, -29833.14, -11303.88, 41542.53, 13721.09, -52796.76, 0.00, 0.00, 0.00, 0.00, 0.00, 0.00, 0.00
201, 6037.54, 75205.95, 11811.47, 33990.32, -28014.42, -4943.80, 9855.96, -29839.73, -11303.88, 41542.53, 13721.09, -52796.76, 0.00, 0.00, 0.00, 0.00, 0.00, 0.00, 0.00
202, 6037.54, 75205.95, 11811.47, 33990.32, -28014.42, -4943.80, 9855.96, -29839.73, -11308.75, 41481.57, 13714.34, -52810.78, 0.00, 0.00, 0.00, 0.00, 0.00, 0.00, 0.00
203, 6056.79, 75227.43, 11830.02, 34000.00, -28004.41, -4940.56, 9861.61, -29836.40, -11308.75, 41481.57, 13714.34, -52810.78, 0.00, 0.00, 0.00, 0.00, 0.00, 0.00, 0.00
204, 6056.79, 75227.43, 11830.02, 34000.00, -28004.41, -4940.56, 9861.61, -29836.40, -11306.23, 41509.04, 13727.39, -52784.40, 0.00, 0.00, 0.00, 0.00, 0.00, 0.00, 0.00
205, 6039.02, 75211.43, 11812.74, 33980.55, -28021.64, -4964.37, 9838.32, -29857.08, -11306.23, 41509.04, 13727.39, -52784.40, 0.00, 0.00, 0.00, 0.00, 0.00, 0.00, 0.00
206, 6039.02, 75211.43, 11812.74, 33980.55, -28021.64, -4964.37, 9838.32, -29857.08, -11314.59, 41469.46, 13710.83, -52812.03, 0.00, 0.00, 0.00, 0.00, 0.00, 0.00, 0.00
207, 6052.65, 75221.28, 11822.02, 33989.11, -28016.19, -4954.49, 9843.69, -29854.78, -11314.59, 41469.46, 13710.83, -52812.03, 0.00, 0.00, 0.00, 0.00, 0.00, 0.00, 0.00
208, 6052.65, 75221.28, 11822.02, 33989.11, -28016.19, -4954.49, 9843.69, -29854.78, -11280.77, 41499.66, 13729.07, -52793.07, 0.00, 0.00, 0.00, 0.00, 0.00, 0.00, 0.00
209, 6054.75, 75227.48, 11826.49, 33985.78, -28008.08, -4954.29, 9846.55, -29847.78, -11280.77, 41499.66, 13729.07, -52793.07, 0.00, 0.00, 0.00, 0.00, -0.14, 0.40, 0.91
210, 6054.75, 75227.48, 11826.49, 33985.78, -28008.08, -4954.29, 9846.55, -29847.78, -11277.68, 41484.95, 13713.69, -52768.87, 0.00, 0.00, 0.00, 0.00, 0.00, 0.00, 0.00
211, 6043.42, 75213.48, 11815.33, 33987.48, -28019.70, -4955.92, 9837.43, -29860.43, -11277.68, 41484.95, 13713.69, -52768.87, 0.00, 0.00, 0.00, 0.00, 0.00, 0.00, 0.00
212, 6043.42, 75213.48, 11815.33, 33987.48, -28019.70, -4955.92, 9837.43, -29860.43, -11276.54, 41471.22, 13727.59, -52774.93, 0.00, 0.00, 0.00, 0.00, 0.00, 0.00, 0.00
213, 6051.62, 75222.70, 11823.54, 33991.70, -28011.85, -4953.33, 9840.53, -29863.18, -11276.54, 41471.22, 13727.59, -52774.93, 0.00, 0.00, 0.00, 0.00, 0.00, 0.00, 0.00
214, 6051.62, 75222.70, 11823.54, 33991.70, -28011.85, -4953.33, 9840.53, -29863.18, -11272.79, 41453.61, 13711.57, -52797.01, 0.00, 0.00, 0.00, 0.00, 0.00, 0.00, 0.00
215, 6026.21, 75201.93, 11803.87, 33974.89, -28025.80, -4969.78, 9823.26, -29871.21, -11272.79, 41453.61, 13711.57, -52797.01, 0.00, 0.00, 0.00, 0.00, 0.00, 0.00, 0.00
216, 6026.21, 75201.93, 11803.87, 33974.89, -28025.80, -4969.78, 9823.26, -29871.21, -11247.53, 41486.49, 13721.83, -52762.88, 0.00, 0.00, 0.00, 0.00, 0.00, 0.00, 0.00
217, 6046.17, 75219.98, 11821.48, 33990.09, -28011.14, -4951.72, 9839.80, -29859.13, -11247.53, 41486.49, 13721.83, -52762.88, 0.00, 0.00, 0.00, 0.00, 0.00, 0.00, 0.00
218, 6046.17, 75219.98, 11821.48, 33990.09, -28011.14, -4951.72, 9839.80, -29859.13, -11276.05, 41434.59, 13706.83, -52765.89, 0.00, 0.00, 0.00, 0.00, 0.00, 0.00, 0.00
219, 6034.28, 75206.64, 11805.39, 33965.31, -28040.38, -4989.78, 9797.60, -29904.42, -11276.05, 41434.59, 13706.83, -52765.89, 0.00, 0.00, 0.00, 0.00, -0.14, 0.40, 0.91
220, 6034.28, 75206.64, 11805.39, 33965.31, -28040.38, -4989.78, 9797.60, -29904.42, -11248.45, 41434.46, 13720.86, -52797.52, 0.00, 0.00, 0.00, 0.00, 0.00, 0.00, 0.00
221, 6048.94, 75225.13, 11825.77, 33989.96, -28012.88, -4959.72, 9830.86, -29870.38, -11248.45, 41434.46, 13720.86, -52797.52, 0.00, 0.00, 0.00, 0.00, 0.00, 0.00, 0.00
222, 6048.94, 75225.13, 11825.77, 33989.96, -28012.88, -4959.72, 9830.86, -29870.38, -11230.72, 41444.54, 13718.85, -52761.47, 0.00, 0.00, 0.00, 0.00, 0.00, 0.00, 0.00
223, 6035.17, 75209.04, 11810.84, 33977.91, -28024.19, -4974.34, 9814.20, -29881.82, -11230.72, 41444.54, 13718.85, -52761.47, 0.00, 0.00, 0.00, 0.00, 0.00, 0.00, 0.00
224, 6035.17, 75209.04, 11810.84, 33977.91, -28024.19, -4974.34, 9814.20, -29881.82, -11220.89, 41468.96, 13719.79, -52727.43, 0.00, 0.00, 0.00, 0.00, 0.00, 0.00, 0.00
225, 6056.00, 75227.01, 11828.19, 33994.68, -28015.63, -4959.67, 9826.45, -29876.55, -11220.89, 41468.96, 13719.79, -52727.43, 0.00, 0.00, 0.00, 0.00, 0.00, 0.00, 0.00
226, 6056.00, 75227.01, 11828.19, 33994.68, -28015.63, -4959.67, 9826.45, -29876.55, -11233.56, 41427.82, 13706.13, -52769.32, 0.00, 0.00, 0.00, 0.00, 0.00, 0.00, 0.00
227, 6027.80, 75199.11, 11798.70, 33961.39, -28043.23, -4992.80, 9790.00, -29905.83, -11233.56, 41427.82, 13706.13, -52769.32, 0.00, 0.00, 0.00, 0.00, 0.00, 0.00, 0.00
228, 6027.80, 75199.11, 11798.70, 33961.39, -28043.23, -4992.80, 9790.00, -29905.83, -11232.80, 41406.83, 13705.93, -52789.66, 0.00, 0.00, 0.00, 0.00, 0.00, 0.00, 0.00
229, 6052.45, 75227.72, 11826.22, 33985.54, -28022.20, -4973.44, 9812.95, -29886.88, -11232.80, 41406.83, 13705.93, -52789.66, 0.00, 0.00, 0.00, 0.00, -0.14, 0.40, 0.91
230, 6052.45, 75227.72, 11826.22, 33985.54, -28022.20, -4973.44, 9812.95, -29886.88, -11195.36, 41449.45, 13715.79, -52715.20, 0.00, 0.00, 0.00, 0.00, 0.00, 0.00, 0.00
231, 6039.02, 75207.18, 11811.87, 33975.66, -28019.90, -4973.46, 9811.03, -29879.07, -11195.36, 41449.45, 13715.79, -52715.20, 0.00, 0.00, 0.00, 0.00, 0.00, 0.00, 0.00
232, 6039.02, 75207.18, 11811.87, 33975.66, -28019.90, -4973.46, 9811.03, -29879.07, -11178.82, 41441.65, 13711.74, -52731.83, 0.00, 0.00, 0.00, 0.00, 0.00, 0.00, 0.00
233, 6056.32, 75230.43, 11830.69, 33991.14, -28013.42, -4968.19, 9816.13, -29882.96, -11178.82, 41441.65, 13711.74, -52731.83, 0.00, 0.00, 0.00, 0.00, 0.00, 0.00, 0.00
234, 6056.32, 75230.43, 11830.69, 33991.14, -28013.42, -4968.19, 9816.13, -29882.96, -11205.11, 41414.16, 13709.49, -52744.06, 0.00, 0.00, 0.00, 0.00, 0.00, 0.00, 0.00
235, 6032.22, 75198.55, 11800.47, 33962.91, -28041.29, -4996.53, 9783.74, -29918.61, -11205.11, 41414.16, 13709.49, -52744.06, 0.00, 0.00, 0.00, 0.00, 0.00, 0.00, 0.00
236, 6032.22, 75198.55, 11800.47, 33962.91, -28041.29, -4996.53, 9783.74, -29918.61, -11178.26, 41427.53, 13706.87, -52728.88, 0.00, 0.00, 0.00, 0.00, 0.00, 0.00, 0.00
237, 6057.19, 75228.82, 11834.76, 34002.63, -28000.61, -4951.38, 9836.31, -29853.66, -11178.26, 41427.53, 13706.87, -52728.88, 0.00, 0.00, 0.00, 0.00, 0.00, 0.00, 0.00
238, 6057.19, 75228.82, 11834.76, 34002.63, -28000.61, -4951.38, 9836.31, -29853.66, -11163.20, 41419.61, 13714.92, -52724.77, 0.00, 0.00, 0.00, 0.00, -0.15, 0.40, 0.90
239, 6037.32, 75204.07, 11806.59, 33968.97, -28034.07, -4992.60, 9782.62, -29915.75, -11163.20, 41419.61, 13714.92, -52724.77, 0.00, 0.00, 0.00, 0.00, 0.00, 0.00, 0.00
240, 6037.32, 75204.07, 11806.59, 33968.97, -28034.07, -4992.60, 9782.62, -29915.75, -11150.75, 41422.07, 13707.74, -52721.28, 0.00, 0.00, 0.00, 0.00, 0.00, 0.00, 0.00
241, 6063.31, 75234.41, 11837.51, 34001.00, -28003.61, -4965.24, 9818.96, -29881.11, -11150.75, 41422.07, 13707.74, -52721.28, 0.00, 0.00, 0.00, 0.00, 0.00, 0.00, 0.00
242, 6063.31, 75234.41, 11837.51, 34001.00, -28003.61, -4965.24, 9818.96, -29881.11, -11169.17, 41405.91, 13710.47, -52719.18, 0.00, 0.00, 0.00, 0.00, 0.00, 0.00, 0.00
243, 6041.18, 75209.66, 11809.57, 33967.01, -28033.40, -4997.25, 9782.82, -29912.22, -11169.17, 41405.91, 13710.47, -52719.18, 0.00, 0.00, 0.00, 0.00, 0.00, 0.00, 0.00
244, 6041.18, 75209.66, 11809.57, 33967.01, -28033.40, -4997.25, 9782.82, -29912.22, -11119.05, 41406.27, 13708.55, -52721.97, 0.00, 0.00, 0.00, 0.00, 0.00, 0.00, 0.00
245, 6059.96, 75229.35, 11830.55, 33993.02, -28011.59, -4973.51, 9806.65, -29887.86, -11119.05, 41406.27, 13708.55, -52721.97, 0.00, 0.00, 0.00, 0.00, 0.00, 0.00, 0.00
246, 6059.96, 75229.35, 11830.55, 33993.02, -28011.59, -4973.51, 9806.65, -29887.86, -11153.63, 41408.15, 13717.69, -52712.25, 0.00, 0.00, 0.00, 0.00, 0.00, 0.00, 0.00
247, 6049.45, 75215.36, 11816.18, 33973.53, -28025.02, -4991.57, 9785.79, -29909.99, -11153.63, 41408.15, 13717.69, -52712.25, 0.00, 0.00, 0.00, 0.00, 0.00, 0.00, 0.00
248, 6049.45, 75215.36, 11816.18, 33973.53, -28025.02, -4991.57, 9785.79, -29909.99, -11122.96, 41410.58, 13713.20, -52683.11, 0.00, 0.00, 0.00, 0.00, -0.15, 0.40, 0.91
249, 6077.28, 75245.00, 11846.89, 34006.34, -27993.70, -4957.42, 9823.23, -29873.64, -11122.96, 41410.58, 13713.20, -52683.11, 0.00, 0.00, 0.00, 0.00, 0.00, 0.00, 0.00
250, 6077.28, 75245.00, 11846.89, 34006.34, -27993.70, -4957.42, 9823.23, -29873.64, -11102.02, 41414.79, 13728.49, -52683.20, 0.00, 0.00, 0.00, 0.00, 0.00, 0.00, 0.00
251, 6059.89, 75227.61, 11827.49, 33980.21, -28013.98, -4985.67, 9797.57, -29890.94, -11102.02, 41414.79, 13728.49, -52683.20, 0.00, 0.00, 0.00, 0.00, 0.00, 0.00, 0.00
252, 6059.89, 75227.61, 11827.49, 33980.21, -28013.98, -4985.67, 9797.57, -29890.94, -11085.82, 41415.19, 13727.17, -52675.77, 0.00, 0.00, 0.00, 0.00, 0.00, 0.00, 0.00
253, 6071.40, 75244.44, 11842.71, 33994.36, -27999.69, -4974.29, 9809.53, -29886.49, -11085.82, 41415.19, 13727.17, -52675.77, 0.00, 0.00, 0.00, 0.00, 0.00, 0.00, 0.00
254, 6071.40, 75244.44, 11842.71, 33994.36, -27999.69, -4974.29, 9809.53, -29886.49, -11085.46, 41418.50, 13728.06, -52675.95, 0.00, 0.00, 0.00, 0.00, 0.00, 0.00, 0.00
255, 6063.94, 75235.03, 11834.98, 33989.07, -28008.30, -4975.63, 9800.52, -29885.42, -11085.46, 41418.50, 13728.06, -52675.95, 0.00, 0.00, 0.00, 0.00, 0.00, 0.00, 0.00
0, 6063.94, 75235.03, 11834.98, 33989.07, -28008.30, -4975.63, 9800.52, -29885.42, -11072.70, 41418.96, 13730.36, -52628.84, 0.00, 0.00, 0.00, 0.00, 0.00, 0.00, 0.00
1, 6074.24, 75243.08, 11845.51, 33998.48, -27992.29, -4965.80, 9818.29, -29871.70, -11072.70, 41418.96, 13730.36, -52628.84, 0.00, 0.00, 0.00, 0.00, 0.00, 0.00, 0.00
2, 6074.24, 75243.08, 11845.51, 33998.48, -27992.29, -4965.80, 9818.29, -29871.70, -11053.63, 41428.15, 13743.44, -52630.96, 0.00, 0.00, 0.00, 0.00, -0.15, 0.40, 0.91
3, 6073.28, 75241.83, 11843.92, 33994.21, -27996.47, -4968.26, 9810.05, -29875.43, -11053.63, 41428.15, 13743.44, -52630.96, 0.00, 0.00, 0.00, 0.00, 0.00, 0.00, 0.00
4, 6073.28, 75241.83, 11843.92, 33994.21, -27996.47, -4968.26, 9810.05, -29875.43, -11038.97, 41441.50, 13721.96, -52604.52, 0.00, 0.00, 0.00, 0.00, 0.00, 0.00, 0.00
5, 6064.85, 75234.80, 11843.61, 33999.77, -27980.36, -4955.43, 9833.25, -29844.50, -11038.97, 41441.50, 13721.96, -52604.52, 0.00, 0.00, 0.00, 0.00, 0.00, 0.00, 0.00
6, 6064.85, 75234.80, 11843.61, 33999.77, -27980.36, -4955.43, 9833.25, -29844.50, -11005.26, 41482.91, 13744.49, -52561.33, 0.00, 0.00, 0.00, 0.00, 0.00, 0.00, 0.00
7, 6080.57, 75248.77, 11857.22, 34014.46, -27967.24, -4939.31, 9847.44, -29827.84, -11005.26, 41482.91, 13744.49, -52561.33, 0.00, 0.00, 0.00, 0.00, 0.00, 0.00, 0.00
8, 6080.57, 75248.77, 11857.22, 34014.46, -27967.24, -4939.31, 9847.44, -29827.84, -11015.59, 41449.16, 13725.42, -52591.75, 0.00, 0.00, 0.00, 0.00, 0.00, 0.00, 0.00
9, 6064.27, 75230.65, 11838.62, 33994.63, -27992.36, -4960.66, 9820.19, -29850.33, -11015.59, 41449.16, 13725.42, -52591.75, 0.00, 0.00, 0.00, 0.00, 0.00, 0.00, 0.00
10, 6064.27, 75230.65, 11838.62, 33994.63, -27992.36, -4960.66, 9820.19, -29850.33, -10977.66, 41498.71, 13734.68, -52520.14, 0.00, 0.00, 0.00, 0.00, 0.00, 0.00, 0.00
11, 6072.68, 75241.69, 11851.32, 34011.15, -27968.63, -4939.96, 9844.04, -29829.34, -10977.66, 41498.71, 13734.68, -52520.14, 0.00, 0.00, 0.00, 0.00, 0.00, 0.00, 0.00
12, 6072.68, 75241.69, 11851.32, 34011.15, -27968.63, -4939.96, 9844.04, -29829.34, -10990.42, 41458.91, 13736.31, -52528.86, 0.00, 0.00, 0.00, 0.00, -0.14, 0.40, 0.91
13, 6070.98, 75237.55, 11850.47, 34011.60, -27966.72, -4933.54, 9844.69, -29828.36, -10990.42, 41458.91, 13736.31, -52528.86, 0.00, 0.00, 0.00, 0.00, 0.00, 0.00, 0.00
14, 6070.98, 75237.55, 11850.47, 34011.60, -27966.72, -4933.54, 9844.69, -29828.36, -10960.63, 41510.65, 13746.08, -52497.74, 0.00, 0.00, 0.00, 0.00, 0.00, 0.00, 0.00
15, 6076.84, 75246.27, 11856.35, 34011.66, -27962.68, -4936.99, 9847.80, -29815.53, -10960.63, 41510.65, 13746.08, -52497.74, 0.00, 0.00, 0.00, 0.00, 0.00, 0.00, 0.00
16, 6076.84, 75246.27, 11856.35, 34011.66, -27962.68, -4936.99, 9847.80, -29815.53, -10948.89, 41495.27, 13742.50, -52499.39, 0.00, 0.00, 0.00, 0.00, 0.00, 0.00, 0.00
17, 6072.57, 75239.79, 11851.54, 34005.99, -27962.30, -4935.38, 9848.58, -29810.39, -10948.89, 41495.27, 13742.50, -52499.39, 0.00, 0.00, 0.00, 0.00, 0.00, 0.00, 0.00
18, 6072.57, 75239.79, 11851.54, 34005.99, -27962.30, -4935.38, 9848.58, -29810.39, -10915.67, 41523.73, 13749.59, -52455.96, 0.00, 0.00, 0.00, 0.00, 0.00, 0.00, 0.00
19, 6083.14, 75256.42, 11864.15, 34018.95, -27950.81, -4926.73, 9864.65, -29794.70, -10915.67, 41523.73, 13749.59, -52455.96, 0.00, 0.00, 0.00, 0.00, 0.00, 0.00, 0.00
20, 6083.14, 75256.42, 11864.15, 34018.95, -27950.81, -4926.73, 9864.65, -29794.70, -10939.73, 41494.96, 13736.53, -52471.68, 0.00, 0.00, 0.00, 0.00, 0.00, 0.00, 0.00
21, 6064.25, 75229.84, 11840.41, 33997.56, -27971.53, -4945.50, 9834.95, -29826.17, -10939.73, 41494.96, 13736.53, -52471.68, 0.00, 0.00, 0.00, 0.00, -0.14, 0.40, 0.91
22, 6064.25, 75229.84, 11840.41, 33997.56, -27971.53, -4945.50, 9834.95, -29826.17, -10913.98, 41515.55, 13741.20, -52427.76, 0.00, 0.00, 0.00, 0.00, 0.00, 0.00, 0.00
23, 6084.55, 75258.39, 11866.43, 34022.66, -27945.47, -4917.34, 9868.12, -29785.35, -10913.98, 41515.55, 13741.20, -52427.76, 0.00, 0.00, 0.00, 0.00, 0.00, 0.00, 0.00
24, 6084.55, 75258.39, 11866.43, 34022.66, -27945.47, -4917.34, 9868.12, -29785.35, -10894.78, 41518.68, 13743.86, -52430.69, 0.00, 0.00, 0.00, 0.00, 0.00, 0.00, 0.00
25, 6074.91, 75238.67, 11849.44, 34009.14, -27956.91, -4926.84, 9850.93, -29795.84, -10894.78, 41518.68, 13743.86, -52430.69, 0.00, 0.00, 0.00, 0.00, 0.00, 0.00, 0.00
26, 6074.91, 75238.67, 11849.44, 34009.14, -27956.91, -4926.84, 9850.93, -29795.84, -10874.46, 41544.70, 13748.27, -52401.59, 0.00, 0.00, 0.00, 0.00, 0.00, 0.00, 0.00
27, 6086.71, 75254.92, 11867.66, 34028.38, -27931.03, -4906.45, 9886.80, -29761.68, -10874.46, 41544.70, 13748.27, -52401.59, 0.00, 0.00, 0.00, 0.00, 0.00, 0.00, 0.00
28, 6086.71, 75254.92, 11867.66, 34028.38, -27931.03, -4906.45, 9886.80, -29761.68, -10873.01, 41546.77, 13741.79, -52390.01, 0.00, 0.00, 0.00, 0.00, 0.00, 0.00, 0.00
29, 6067.63, 75234.47, 11845.73, 34006.73, -27955.71, -4926.68, 9853.03, -29797.67, -10873.01, 41546.77, 13741.79, -52390.01, 0.00, 0.00, 0.00, 0.00, 0.00, 0.00, 0.00
30, 6067.63, 75234.47, 11845.73, 34006.73, -27955.71, -4926.68, 9853.03, -29797.67, -10862.17, 41534.82, 13739.37, -52371.95, 0.00, 0.00, 0.00, 0.00, 0.00, 0.00, 0.00
31, 6083.90, 75251.57, 11864.08, 34020.45, -27936.95, -4914.50, 9873.48, -29770.94, -10862.17, 41534.82, 13739.37, -52371.95, 0.00, 0.00, 0.00, 0.00, -0.14, 0.40, 0.90
32, 6083.90, 75251.57, 11864.08, 34020.45, -27936.95, -4914.50, 9873.48, -29770.94, -10837.33, 41556.36, 13746.14, -52354.04, 0.00, 0.00, 0.00, 0.00, 0.00, 0.00, 0.00
33, 6073.10, 75237.20, 11848.64, 34006.79, -27949.94, -4921.94, 9860.49, -29777.91, -10837.33, 41556.36, 13746.14, -52354.04, 0.00, 0.00, 0.00, 0.00, 0.00, 0.00, 0.00
34, 6073.10, 75237.20, 11848.64, 34006.79, -27949.94, -4921.94, 9860.49, -29777.91, -10835.68, 41545.34, 13740.78, -52359.32, 0.00, 0.00, 0.00, 0.00, 0.00, 0.00, 0.00
35, 6080.21, 75256.33, 11865.87, 34023.78, -27931.59, -4906.34, 9877.39, -29767.94, -10835.68, 41545.34, 13740.78, -52359.32, 0.00, 0.00, 0.00, 0.00, 0.00, 0.00, 0.00
36, 6080.21, 75256.33, 11865.87, 34023.78, -27931.59, -4906.34, 9877.39, -29767.94, -10823.43, 41561.66, 13753.43, -52317.56, 0.00, 0.00, 0.00, 0.00, 0.00, 0.00, 0.00
37, 6074.65, 75243.30, 11852.50, 34011.38, -27941.83, -4917.07, 9866.22, -29773.84, -10823.43, 41561.66, 13753.43, -52317.56, 0.00, 0.00, 0.00, 0.00, 0.00, 0.00, 0.00
38, 6074.65, 75243.30, 11852.50, 34011.38, -27941.83, -4917.07, 9866.22, -29773.84, -10805.12, 41544.92, 13734.50, -52330.80, 0.00, 0.00, 0.00, 0.00, 0.00, 0.00, 0.00
39, 6078.69, 75252.11, 11861.56, 34019.20, -27935.46, -4913.70, 9874.75, -29766.04, -10805.12, 41544.92, 13734.50, -52330.80, 0.00, 0.00, 0.00, 0.00, 0.00, 0.00, 0.00
40, 6078.69, 75252.11, 11861.56, 34019.20, -27935.46, -4913.70, 9874.75, -29766.04, -10791.67, 41572.66, 13754.64, -52314.64, 0.00, 0.00, 0.00, 0.00, 0.00, 0.00, 0.00
41, 6076.39, 75245.40, 11858.23, 34015.98, -27933.80, -4910.81, 9873.26, -29762.42, -10791.67, 41572.66, 13754.64, -52314.64, 0.00, 0.00, 0.00, 0.00, -0.14, 0.40, 0.90
42, 6076.39, 75245.40, 11858.23, 34015.98, -27933.80, -4910.81, 9873.26, -29762.42, -10792.07, 41560.50, 13743.77, -52277.29, 0.00, 0.00, 0.00, 0.00, 0.00, 0.00, 0.00
43, 6078.44, 75247.73, 11864.69, 34021.45, -27926.87, -4905.69, 9886.56, -29751.04, -10792.07, 41560.50, 13743.77, -52277.29, 0.00, 0.00, 0.00, 0.00, 0.00, 0.00, 0.00
44, 6078.44, 75247.73, 11864.69, 34021.45, -27926.87, -4905.69, 9886.56, -29751.04, -10741.80, 41598.81, 13762.15, -52259.94, 0.00, 0.00, 0.00, 0.00, 0.00, 0.00, 0.00
45, 6079.94, 75247.57, 11862.50, 34019.42, -27924.46, -4905.20, 9879.11, -29751.74, -10741.80, 41598.81, 13762.15, -52259.94, 0.00, 0.00, 0.00, 0.00, 0.00, 0.00, 0.00
46, 6079.94, 75247.57, 11862.50, 34019.42, -27924.46, -4905.20, 9879.11, -29751.74, -10768.40, 41559.89, 13735.44, -52276.82, 0.00, 0.00, 0.00, 0.00, 0.00, 0.00, 0.00
47, 6074.29, 75245.31, 11859.39, 34024.07, -27929.80, -4905.22, 9881.57, -29748.36, -10768.40, 41559.89, 13735.44, -52276.82, 0.00, 0.00, 0.00, 0.00, 0.00, 0.00, 0.00
48, 6074.29, 75245.31, 11859.39, 34024.07, -27929.80, -4905.22, 9881.57, -29748.36, -10737.75, 41592.10, 13767.78, -52251.22, 0.00, 0.00, 0.00, 0.00, 0.00, 0.00, 0.00
49, 6098.83, 75269.50, 11890.39, 34081.76, -27905.44, -4885.60, 9893.80, -29742.77, -10737.75, 41592.10, 13767.78, -52251.22, 0.00, 0.00, 0.00, 0.00, 0.00, 0.00, 0.00
50, 6098.83, 75269.50, 11890.39, 34081.76, -27905.44, -4885.60, 9893.80, -29742.77, -10734.67, 41575.34, 13745.81, -52228.83, 0.00, 0.00, 0.00, 0.00, 0.00, 0.00, 0.00
51, 6063.36, 75227.34, 11843.34, 34032.47, -27937.49, -4903.95, 9876.03, -29753.79, -10734.67, 41575.34, 13745.81, -52228.83, 0.00, 0.00, 0.00, 0.00, -0.13, 0.39, 0.90
52, 6063.36, 75227.34, 11843.34, 34032.47, -27937.49, -4903.95, 9876.03, -29753.79, -10739.14, 41589.42, 13685.62, -52236.09, 0.00, 0.00, 0.00, 0.00, 0.00, 0.00, 0.00
53, 6055.65, 75221.80, 11836.03, 34037.75, -27920.57, -4893.62, 9885.21, -29748.12, -10739.14, 41589.42, 13685.62, -52236.09, 0.00, 0.00, 0.00, 0.00, 0.00, 0.00, 0.00
54, 6055.65, 75221.80, 11836.03, 34037.75, -27920.57, -4893.62, 9885.21, -29748.12, -10724.70, 41580.50, 13669.28, -52210.95, 0.00, 0.00, 0.00, 0.00, 0.00, 0.00, 0.00
55, 6039.78, 75199.20, 11812.65, 34040.86, -27936.46, -4900.87, 9873.53, -29755.56, -10724.70, 41580.50, 13669.28, -52210.95, 0.00, 0.00, 0.00, 0.00, 0.00, 0.00, 0.00
56, 6039.78, 75199.20, 11812.65, 34040.86, -27936.46, -4900.87, 9873.53, -29755.56, -10726.38, 41585.89, 13663.15, -52204.84, 0.00, 0.00, 0.00, 0.00, 0.00, 0.00, 0.00
57, 6057.28, 75216.08, 11831.76, 34063.77, -27913.84, -4882.43, 9892.43, -29741.07, -10726.38, 41585.89, 13663.15, -52204.84, 0.00, 0.00, 0.00, 0.00, 0.00, 0.00, 0.00
58, 6057.28, 75216.08, 11831.76, 34063.77, -27913.84, -4882.43, 9892.43, -29741.07, -10705.68, 41576.68, 13648.20, -52192.08, 0.00, 0.00, 0.00, 0.00, 0.00, 0.00, 0.00
59, 6044.07, 75203.29, 11811.33, 34045.55, -27939.26, -4900.46, 9871.51, -29753.52, -10705.68, 41576.68, 13648.20, -52192.08, 0.00, 0.00, 0.00, 0.00, 0.00, 0.00, 0.00
60, 6044.07, 75203.29, 11811.33, 34045.55, -27939.26, -4900.46, 9871.51, -29753.52, -10676.15, 41602.65, 13689.62, -52189.11, 0.00, 0.00, 0.00, 0.00, -0.13, 0.40, 0.91
61, 6077.62, 75241.16, 11849.91, 34067.68, -27915.32, -4882.96, 9891.05, -29740.43, -10676.15, 41602.65, 13689.62, -52189.11, 0.00, 0.00, 0.00, 0.00, 0.00, 0.00, 0.00
62, 6077.62, 75241.16, 11849.91, 34067.68, -27915.32, -4882.96, 9891.05, -29740.43, -10724.52, 41563.76, 13694.29, -52181.31, 0.00, 0.00, 0.00, 0.00, 0.00, 0.00, 0.00
63, 6067.58, 75225.87, 11834.40, 34050.45, -27932.48, -4899.21, 9871.58, -29758.53, -10724.52, 41563.76, 13694.29, -52181.31, 0.00, 0.00, 0.00, 0.00, 0.00, 0.00, 0.00
64, 6067.58, 75225.87, 11834.40, 34050.45, -27932.48, -4899.21, 9871.58, -29758.53, -10689.99, 41587.68, 13704.48, -52174.85, 0.00, 0.00, 0.00, 0.00, 0.00, 0.00, 0.00
65, 6086.18, 75247.59, 11857.91, 34073.94, -27912.61, -4880.68, 9890.87, -29741.79, -10689.99, 41587.68, 13704.48, -52174.85, 0.00, 0.00, 0.00, 0.00, 0.00, 0.00, 0.00
66, 6086.18, 75247.59, 11857.91, 34073.94, -27912.61, -4880.68, 9890.87, -29741.79, -10674.14, 41586.76, 13724.57, -52139.44, 0.00, 0.00, 0.00, 0.00, 0.00, 0.00, 0.00
67, 6078.00, 75235.59, 11847.68, 34063.63, -27915.58, -4887.57, 9885.89, -29740.22, -10674.14, 41586.76, 13724.57, -52139.44, 0.00, 0.00, 0.00, 0.00, 0.00, 0.00, 0.00
68, 6078.00, 75235.59, 11847.68, 34063.63, -27915.58, -4887.57, 9885.89, -29740.22, -10653.53, 41600.08, 13714.94, -52137.57, 0.00, 0.00, 0.00, 0.00, 0.00, 0.00, 0.00
69, 6087.63, 75251.19, 11863.52, 34076.64, -27899.85, -4878.58, 9900.06, -29730.08, -10653.53, 41600.08, 13714.94, -52137.57, 0.00, 0.00, 0.00, 0.00, 0.00, 0.00, 0.00
70, 6087.63, 75251.19, 11863.52, 34076.64, -27899.85, -4878.58, 9900.06, -29730.08, -10653.49, 41588.39, 13721.62, -52142.80, 0.00, 0.00, 0.00, 0.00, -0.13, 0.40, 0.91
71, 6074.04, 75231.52, 11844.52, 34058.18, -27917.82, -4892.28, 9881.86, -29745.86, -10653.49, 41588.39, 13721.62, -52142.80, 0.00, 0.00, 0.00, 0.00, 0.00, 0.00, 0.00
72, 6074.04, 75231.52, 11844.52, 34058.18, -27917.82, -4892.28, 9881.86, -29745.86, -10620.01, 41588.79, 13723.19, -52150.69, 0.00, 0.00, 0.00, 0.00, 0.00, 0.00, 0.00
73, 6088.30, 75254.92, 11867.19, 34078.32, -27900.23, -4879.59, 9898.65, -29728.51, -10620.01, 41588.79, 13723.19, -52150.69, 0.00, 0.00, 0.00, 0.00, 0.00, 0.00, 0.00
74, 6088.30, 75254.92, 11867.19, 34078.32, -27900.23, -4879.59, 9898.65, -29728.51, -10601.97, 41584.79, 13725.67, -52129.59, 0.00, 0.00, 0.00, 0.00, 0.00, 0.00, 0.00
75, 6076.66, 75236.62, 11849.91, 34059.50, -27913.64, -4896.17, 9876.63, -29753.23, -10601.97, 41584.79, 13725.67, -52129.59, 0.00, 0.00, 0.00, 0.00, 0.00, 0.00, 0.00
76, 6076.66, 75236.62, 11849.91, 34059.50, -27913.64, -4896.17, 9876.63, -29753.23, -10629.62, 41572.14, 13735.73, -52124.02, 0.00, 0.00, 0.00, 0.00, 0.00, 0.00, 0.00
77, 6097.80, 75267.66, 11876.04, 34080.08, -27885.74, -4880.55, 9901.17, -29730.84, -10629.62, 41572.14, 13735.73, -52124.02, 0.00, 0.00, 0.00, 0.00, 0.00, 0.00, 0.00
78, 6097.80, 75267.66, 11876.04, 34080.08, -27885.74, -4880.55, 9901.17, -29730.84, -10629.28, 41570.02, 13743.68, -52126.23, 0.00, 0.00, 0.00, 0.00, 0.00, 0.00, 0.00
79, 6085.42, 75242.77, 11854.25, 34062.80, -27911.61, -4897.47, 9872.97, -29760.47, -10629.28, 41570.02, 13743.68, -52126.23, 0.00, 0.00, 0.00, 0.00, 0.00, 0.00, 0.00
80, 6085.42, 75242.77, 11854.25, 34062.80, -27911.61, -4897.47, 9872.97, -29760.47, -10619.94, 41556.12, 13726.07, -52142.15, 0.00, 0.00, 0.00, 0.00, -0.13, 0.40, 0.91
81, 6094.90, 75258.50, 11869.89, 34077.74, -27897.52, -4884.44, 9890.92, -29742.84, -10619.94, 41556.12, 13726.07, -52142.15, 0.00, 0.00, 0.00, 0.00, 0.00, 0.00, 0.00
82, 6094.90, 75258.50, 11869.89, 34077.74, -27897.52, -4884.44, 9890.92, -29742.84, -10597.27, 41569.46, 13735.82, -52103.34, 0.00, 0.00, 0.00, 0.00, 0.00, 0.00, 0.00
83, 6080.95, 75240.53, 11852.53, 34060.93, -27908.83, -4896.51, 9876.34, -29752.88, -10597.27, 41569.46, 13735.82, -52103.34, 0.00, 0.00, 0.00, 0.00, 0.00, 0.00, 0.00
84, 6080.95, 75240.53, 11852.53, 34060.93, -27908.83, -4896.51, 9876.34, -29752.88, -10572.26, 41563.69, 13715.79, -52110.30, 0.00, 0.00, 0.00, 0.00, 0.00, 0.00, 0.00
85, 6085.91, 75248.95, 11863.12, 34071.97, -27898.73, -4891.95, 9885.86, -29745.92, -10572.26, 41563.69, 13715.79, -52110.30, 0.00, 0.00, 0.00, 0.00, 0.00, 0.00, 0.00
86, 6085.91, 75248.95, 11863.12, 34071.97, -27898.73, -4891.95, 9885.86, -29745.92, -10603.73, 41555.07, 13728.42, -52109.29, 0.00, 0.00, 0.00, 0.00, 0.00, 0.00, 0.00
87, 6073.28, 75230.18, 11845.55, 34060.41, -27913.17, -4898.18, 9871.07, -29761.88, -10603.73, 41555.07, 13728.42, -52109.29, 0.00, 0.00, 0.00, 0.00, 0.00, 0.00, 0.00
88, 6073.28, 75230.18, 11845.55, 34060.41, -27913.17, -4898.18, 9871.07, -29761.88, -10590.64, 41546.08, 13712.19, -52111.53, 0.00, 0.00, 0.00, 0.00, 0.00, 0.00, 0.00
89, 6082.47, 75248.77, 11862.94, 34071.84, -27897.99, -4889.67, 9885.82, -29748.03, -10590.64, 41546.08, 13712.19, -52111.53, 0.00, 0.00, 0.00, 0.00, 0.00, 0.00, 0.00
90, 6082.47, 75248.77, 11862.94, 34071.84, -27897.99, -4889.67, 9885.82, -29748.03, -10565.96, 41564.27, 13738.92, -52086.16, 0.00, 0.00, 0.00, 0.00, -0.14, 0.40, 0.91
91, 6076.75, 75235.52, 11852.37, 34062.74, -27908.72, -4896.78, 9871.18, -29764.03, -10565.96, 41564.27, 13738.92, -52086.16, 0.00, 0.00, 0.00, 0.00, 0.00, 0.00, 0.00
92, 6076.75, 75235.52, 11852.37, 34062.74, -27908.72, -4896.78, 9871.18, -29764.03, -10581.32, 41525.41, 13706.56, -52096.55, 0.00, 0.00, 0.00, 0.00, 0.00, 0.00, 0.00
93, 6080.86, 75243.86, 11860.19, 34068.30, -27903.02, -4896.15, 9876.97, -29761.08, -10581.32, 41525.41, 13706.56, -52096.55, 0.00, 0.00, 0.00, 0.00, 0.00, 0.00, 0.00
94, 6080.86, 75243.86, 11860.19, 34068.30, -27903.02, -4896.15, 9876.97, -29761.08, -10556.93, 41551.69, 13735.93, -52079.25, 0.00, 0.00, 0.00, 0.00, 0.00, 0.00, 0.00
95, 6083.43, 75247.16, 11861.47, 34068.28, -27900.47, -4894.58, 9875.74, -29756.83, -10556.93, 41551.69, 13735.93, -52079.25, 0.00, 0.00, 0.00, 0.00, 0.00, 0.00, 0.00
96, 6083.43, 75247.16, 11861.47, 34068.28, -27900.47, -4894.58, 9875.74, -29756.83, -10528.12, 41548.74, 13718.41, -52081.17, 0.00, 0.00, 0.00, 0.00, 0.00, 0.00, 0.00
97, 6085.02, 75247.81, 11866.36, 34073.09, -27890.60, -4889.15, 9887.07, -29742.24, -10528.12, 41548.74, 13718.41, -52081.17, 0.00, 0.00, 0.00, 0.00, 0.00, 0.00, 0.00
98, 6085.02, 75247.81, 11866.36, 34073.09, -27890.60, -4889.15, 9887.07, -29742.24, -10530.84, 41566.98, 13745.79, -52049.19, 0.00, 0.00, 0.00, 0.00, 0.00, 0.00, 0.00
99, 6094.23, 75259.70, 11872.80, 34080.22, -27886.15, -4882.16, 9891.07, -29741.52, -10530.84, 41566.98, 13745.79, -52049.19, 0.00, 0.00, 0.00, 0.00, -0.14, 0.40, 0.91
100, 6094.23, 75259.70, 11872.80, 34080.22, -27886.15, -4882.16, 9891.07, -29741.52, -10527.51, 41550.26, 13721.69, -52045.03, 0.00, 0.00, 0.00, 0.00, 0.00, 0.00, 0.00
101, 6084.84, 75254.39, 11863.75, 34070.65, -27897.97, -4890.29, 9880.52, -29750.35, -10527.51, 41550.26, 13721.69, -52045.03, 0.00, 0.00, 0.00, 0.00, 0.00, 0.00, 0.00
102, 6084.84, 75254.39, 11863.75, 34070.65, -27897.97, -4890.29, 9880.52, -29750.35, -10507.89, 41572.12, 13735.12, -52031.77, 0.00, 0.00, 0.00, 0.00, 0.00, 0.00, 0.00
103, 6091.88, 75258.48, 11870.72, 34081.67, -27887.80, -4878.27, 9893.75, -29735.57, -10507.89, 41572.12, 13735.12, -52031.77, 0.00, 0.00, 0.00, 0.00, 0.00, 0.00, 0.00
104, 6091.88, 75258.48, 11870.72, 34081.67, -27887.80, -4878.27, 9893.75, -29735.57, -10495.80, 41556.79, 13724.35, -52012.22, 0.00, 0.00, 0.00, 0.00, 0.00, 0.00, 0.00
105, 6081.04, 75244.75, 11859.23, 34066.23, -27897.90, -4892.73, 9879.67, -29747.69, -10495.80, 41556.79, 13724.35, -52012.22, 0.00, 0.00, 0.00, 0.00, 0.00, 0.00, 0.00
106, 6081.04, 75244.75, 11859.23, 34066.23, -27897.90, -4892.73, 9879.67, -29747.69, -10499.51, 41564.63, 13736.51, -52010.38, 0.00, 0.00, 0.00, 0.00, 0.00, 0.00, 0.00
107, 6091.97, 75257.23, 11872.60, 34081.92, -27887.24, -4880.17, 9890.40, -29738.93, -10499.51, 41564.63, 13736.51, -52010.38, 0.00, 0.00, 0.00, 0.00, 0.00, 0.00, 0.00
108, 6091.97, 75257.23, 11872.60, 34081.92, -27887.24, -4880.17, 9890.40, -29738.93, -10467.61, 41558.29, 13724.95, -52022.30, 0.00, 0.00, 0.00, 0.00, 0.00, 0.00, 0.00
109, 6076.75, 75241.45, 11855.79, 34066.29, -27900.12, -4895.03, 9874.35, -29753.46, -10467.61, 41558.29, 13724.95, -52022.30, 0.00, 0.00, 0.00, 0.00, -0.13, 0.40, 0.91
110, 6076.75, 75241.45, 11855.79, 34066.29, -27900.12, -4895.03, 9874.35, -29753.46, -10495.10, 41560.86, 13732.51, -51994.20, 0.00, 0.00, 0.00, 0.00, 0.00, 0.00, 0.00
111, 6092.10, 75259.82, 11873.22, 34082.68, -27883.78, -4879.65, 9892.23, -29731.93, -10495.10, 41560.86, 13732.51, -51994.20, 0.00, 0.00, 0.00, 0.00, 0.00, 0.00, 0.00
112, 6092.10, 75259.82, 11873.22, 34082.68, -27883.78, -4879.65, 9892.23, -29731.93, -10470.41, 41554.48, 13726.50, -51982.64, 0.00, 0.00, 0.00, 0.00, 0.00, 0.00, 0.00
113, 6078.94, 75241.52, 11856.15, 34065.29, -27901.41, -4893.85, 9874.58, -29753.14, -10470.41, 41554.48, 13726.50, -51982.64, 0.00, 0.00, 0.00, 0.00, 0.00, 0.00, 0.00
114, 6078.94, 75241.52, 11856.15, 34065.29, -27901.41, -4893.85, 9874.58, -29753.14, -10463.37, 41560.27, 13727.23, -51977.41, 0.00, 0.00, 0.00, 0.00, 0.00, 0.00, 0.00
115, 6093.62, 75259.28, 11876.51, 34083.55, -27882.64, -4878.54, 9895.03, -29732.74, -10463.37, 41560.27, 13727.23, -51977.41, 0.00, 0.00, 0.00, 0.00, 0.00, 0.00, 0.00
116, 6093.62, 75259.28, 11876.51, 34083.55, -27882.64, -4878.54, 9895.03, -29732.74, -10454.49, 41554.13, 13726.14, -51968.36, 0.00, 0.00, 0.00, 0.00, 0.00, 0.00, 0.00
117, 6077.06, 75237.02, 11855.61, 34065.24, -27903.45, -4894.63, 9872.61, -29750.13, -10454.49, 41554.13, 13726.14, -51968.36, 0.00, 0.00, 0.00, 0.00, 0.00, 0.00, 0.00
118, 6077.06, 75237.02, 11855.61, 34065.24, -27903.45, -4894.63, 9872.61, -29750.13, -10448.05, 41566.09, 13725.07, -51952.25, 0.00, 0.00, 0.00, 0.00, 0.00, 0.00, 0.00
119, 6091.61, 75258.97, 11876.49, 34083.91, -27878.99, -4878.09, 9895.43, -29730.70, -10448.05, 41566.09, 13725.07, -51952.25, 0.00, 0.00, 0.00, 0.00, -0.14, 0.40, 0.91
120, 6091.61, 75258.97, 11876.49, 34083.91, -27878.99, -4878.09, 9895.43, -29730.70, -10445.26, 41558.86, 13720.82, -51958.10, 0.00, 0.00, 0.00, 0.00, 0.00, 0.00, 0.00
121, 6075.45, 75234.13, 11854.27, 34067.86, -27904.03, -4892.46, 9870.80, -29756.45, -10445.26, 41558.86, 13720.82, -51958.10, 0.00, 0.00, 0.00, 0.00, 0.00, 0.00, 0.00
122, 6075.45, 75234.13, 11854.27, 34067.86, -27904.03, -4892.46, 9870.80, -29756.45, -10430.29, 41559.20, 13719.61, -51947.46, 0.00, 0.00, 0.00, 0.00, 0.00, 0.00, 0.00
123, 6092.91, 75257.34, 11874.41, 34079.66, -27886.30, -4881.91, 9889.33, -29736.09, -10430.29, 41559.20, 13719.61, -51947.46, 0.00, 0.00, 0.00, 0.00, 0.00, 0.00, 0.00
124, 6092.91, 75257.34, 11874.41, 34079.66, -27886.30, -4881.91, 9889.33, -29736.09, -10429.28, 41553.12, 13724.22, -51940.36, 0.00, 0.00, 0.00, 0.00, 0.00, 0.00, 0.00
125, 6076.12, 75237.45, 11855.12, 34062.40, -27900.45, -4895.48, 9870.40, -29749.12, -10429.28, 41553.12, 13724.22, -51940.36, 0.00, 0.00, 0.00, 0.00, 0.00, 0.00, 0.00
126, 6076.12, 75237.45, 11855.12, 34062.40, -27900.45, -4895.48, 9870.40, -29749.12, -10387.88, 41572.72, 13721.62, -51905.64, 0.00, 0.00, 0.00, 0.00, 0.00, 0.00, 0.00
127, 6090.67, 75257.98, 11875.79, 34080.66, -27878.84, -4878.18, 9897.73, -29718.41, -10387.88, 41572.72, 13721.62, -51905.64, 0.00, 0.00, 0.00, 0.00, 0.00, 0.00, 0.00
128, 6090.67, 75257.98, 11875.79, 34080.66, -27878.84, -4878.18, 9897.73, -29718.41, -10403.66, 41576.75, 13731.26, -51912.15, 0.00, 0.00, 0.00, 0.00, 0.00, 0.00, 0.00
129, 6076.52, 75237.42, 11854.14, 34063.81, -27898.17, -4891.86, 9873.53, -29742.17, -10403.66, 41576.75, 13731.26, -51912.15, 0.00, 0.00, 0.00, 0.00, -0.14, 0.40, 0.91
130, 6076.52, 75237.42, 11854.14, 34063.81, -27898.17, -4891.86, 9873.53, -29742.17, -10386.10, 41564.23, 13725.76, -51908.66, 0.00, 0.00, 0.00, 0.00, 0.00, 0.00, 0.00
131, 6090.81, 75260.91, 11876.89, 34085.83, -27880.71, -4877.20, 9893.84, -29726.08, -10386.10, 41564.23, 13725.76, -51908.66, 0.00, 0.00, 0.00, 0.00, 0.00, 0.00, 0.00
132, 6090.81, 75260.91, 11876.89, 34085.83, -27880.71, -4877.20, 9893.84, -29726.08, -10361.80, 41578.16, 13751.96, -51870.30, 0.00, 0.00, 0.00, 0.00, 0.00, 0.00, 0.00
133, 6084.26, 75246.25, 11866.07, 34080.93, -27892.18, -4885.17, 9879.76, -29733.61, -10361.80, 41578.16, 13751.96, -51870.30, 0.00, 0.00, 0.00, 0.00, 0.00, 0.00, 0.00
134, 6084.26, 75246.25, 11866.07, 34080.93, -27892.18, -4885.17, 9879.76, -29733.61, -10377.49, 41563.36, 13701.84, -51883.80, 0.00, 0.00, 0.00, 0.00, 0.00, 0.00, 0.00
135, 6082.13, 75243.37, 11857.73, 34071.57, -27895.74, -4884.35, 9883.85, -29728.87, -10377.49, 41563.36, 13701.84, -51883.80, 0.00, 0.00, 0.00, 0.00, 0.00, 0.00, 0.00
136, 6082.13, 75243.37, 11857.73, 34071.57, -27895.74, -4884.35, 9883.85, -29728.87, -10356.17, 41584.10, 13715.39, -51876.39, 0.00, 0.00, 0.00, 0.00, 0.00, 0.00, 0.00
137, 6076.23, 75230.80, 11848.19, 34060.86, -27903.92, -4893.53, 9869.43, -29742.21, -10356.17, 41584.10, 13715.39, -51876.39, 0.00, 0.00, 0.00, 0.00, 0.00, 0.00, 0.00
138, 6076.23, 75230.80, 11848.19, 34060.86, -27903.92, -4893.53, 9869.43, -29742.21, -10342.24, 41571.23, 13697.30, -51867.20, 0.00, 0.00, 0.00, 0.00, -0.14, 0.40, 0.91
139, 6086.09, 75245.06, 11862.03, 34071.72, -27896.03, -4883.92, 9882.80, -29729.81, -10342.24, 41571.23, 13697.30, -51867.20, 0.00, 0.00, 0.00, 0.00, 0.00, 0.00, 0.00
140, 6086.09, 75245.06, 11862.03, 34071.72, -27896.03, -4883.92, 9882.80, -29729.81, -10353.17, 41572.28, 13720.68, -51844.54, 0.00, 0.00, 0.00, 0.00, 0.00, 0.00, 0.00
141, 6082.38, 75244.82, 11860.21, 34066.11, -27897.77, -4889.29, 9874.93, -29739.55, -10353.17, 41572.28, 13720.68, -51844.54, 0.00, 0.00, 0.00, 0.00, 0.00, 0.00, 0.00
142, 6082.38, 75244.82, 11860.21, 34066.11, -27897.77, -4889.29, 9874.93, -29739.55, -10313.70, 41577.91, 13713.33, -51842.34, 0.00, 0.00, 0.00, 0.00, 0.00, 0.00, 0.00
143, 6083.52, 75246.70, 11863.95, 34067.43, -27893.66, -4885.76, 9883.38, -29721.36, -10313.70, 41577.91, 13713.33, -51842.34, 0.00, 0.00, 0.00, 0.00, 0.00, 0.00, 0.00
144, 6083.52, 75246.70, 11863.95, 34067.43, -27893.66, -4885.76, 9883.38, -29721.36, -10328.96, 41581.73, 13733.49, -51835.23, 0.00, 0.00, 0.00, 0.00, 0.00, 0.00, 0.00
145, 6086.36, 75248.62, 11864.22, 34065.11, -27893.41, -4888.33, 9878.22, -29737.79, -10328.96, 41581.73, 13733.49, -51835.23, 0.00, 0.00, 0.00, 0.00, 0.00, 0.00, 0.00
146, 6086.36, 75248.62, 11864.22, 34065.11, -27893.41, -4888.33, 9878.22, -29737.79, -10318.17, 41562.89, 13718.47, -51831.64, 0.00, 0.00, 0.00, 0.00, 0.00, 0.00, 0.00
147, 6084.39, 75249.83, 11866.38, 34069.60, -27892.83, -4887.23, 9880.25, -29728.31, -10318.17, 41562.89, 13718.47, -51831.64, 0.00, 0.00, 0.00, 0.00, 0.00, 0.00, 0.00
148, 6084.39, 75249.83, 11866.38, 34069.60, -27892.83, -4887.23, 9880.25, -29728.31, -10295.41, 41590.87, 13728.02, -51809.31, 0.00, 0.00, 0.00, 0.00, -0.14, 0.39, 0.91
149, 6083.21, 75244.80, 11862.29, 34070.14, -27892.96, -4882.69, 9883.92, -29725.92, -10295.41, 41590.87, 13728.02, -51809.31, 0.00, 0.00, 0.00, 0.00, 0.00, 0.00, 0.00
150, 6083.21, 75244.80, 11862.29, 34070.14, -27892.96, -4882.69, 9883.92, -29725.92, -10307.69, 41567.09, 13714.27, -51802.89, 0.00, 0.00, 0.00, 0.00, 0.00, 0.00, 0.00
151, 6075.45, 75238.34, 11856.26, 34062.43, -27900.32, -4891.68, 9873.70, -29739.13, -10307.69, 41567.09, 13714.27, -51802.89, 0.00, 0.00, 0.00, 0.00, 0.00, 0.00, 0.00
152, 6075.45, 75238.34, 11856.26, 34062.43, -27900.32, -4891.68, 9873.70, -29739.13, -10269.17, 41594.52, 13727.95, -51797.64, 0.00, 0.00, 0.00, 0.00, 0.00, 0.00, 0.00
153, 6087.94, 75255.17, 11869.69, 34071.46, -27886.04, -4881.53, 9884.34, -29720.11, -10269.17, 41594.52, 13727.95, -51797.64, 0.00, 0.00, 0.00, 0.00, 0.00, 0.00, 0.00
154, 6087.94, 75255.17, 11869.69, 34071.46, -27886.04, -4881.53, 9884.34, -29720.11, -10277.71, 41566.40, 13718.63, -51791.79, 0.00, 0.00, 0.00, 0.00, 0.00, 0.00, 0.00
155, 6074.18, 75239.30, 11853.17, 34056.46, -27904.07, -4895.30, 9869.46, -29732.96, -10277.71, 41566.40, 13718.63, -51791.79, 0.00, 0.00, 0.00, 0.00, 0.00, 0.00, 0.00
156, 6074.18, 75239.30, 11853.17, 34056.46, -27904.07, -4895.30, 9869.46, -29732.96, -10261.31, 41589.13, 13731.93, -51785.88, 0.00, 0.00, 0.00, 0.00, 0.00, 0.00, 0.00
157, 6089.58, 75259.88, 11873.20, 34072.68, -27884.67, -4882.87, 9883.94, -29728.24, -10261.31, 41589.13, 13731.93, -51785.88, 0.00, 0.00, 0.00, 0.00, 0.00, 0.00, 0.00
158, 6089.58, 75259.88, 11873.20, 34072.68, -27884.67, -4882.87, 9883.94, -29728.24, -10272.57, 41564.18, 13718.70, -51779.27, 0.00, 0.00, 0.00, 0.00, -0.14, 0.39, 0.91
159, 6071.96, 75240.28, 11853.84, 34055.56, -27903.67, -4896.89, 9868.94, -29735.22, -10272.57, 41564.18, 13718.70, -51779.27, 0.00, 0.00, 0.00, 0.00, 0.00, 0.00, 0.00
160, 6071.96, 75240.28, 11853.84, 34055.56, -27903.67, -4896.89, 9868.94, -29735.22, -10257.06, 41587.30, 13720.04, -51767.69, 0.00, 0.00, 0.00, 0.00, 0.00, 0.00, 0.00
161, 6086.07, 75252.02, 11867.23, 34071.99, -27888.65, -4882.09, 9885.86, -29718.03, -10257.06, 41587.30, 13720.04, -51767.69, 0.00, 0.00, 0.00, 0.00, 0.00, 0.00, 0.00
162, 6086.07, 75252.02, 11867.23, 34071.99, -27888.65, -4882.09, 9885.86, -29718.03, -10227.55, 41578.76, 13709.78, -51746.07, 0.00, 0.00, 0.00, 0.00, 0.00, 0.00, 0.00
163, 6068.01, 75230.41, 11847.90, 34053.15, -27906.13, -4898.23, 9863.94, -29741.45, -10227.55, 41578.76, 13709.78, -51746.07, 0.00, 0.00, 0.00, 0.00, 0.00, 0.00, 0.00
164, 6068.01, 75230.41, 11847.90, 34053.15, -27906.13, -4898.23, 9863.94, -29741.45, -10230.57, 41577.55, 13715.90, -51762.21, 0.00, 0.00, 0.00, 0.00, 0.00, 0.00, 0.00
165, 6086.54, 75252.63, 11868.06, 34075.70, -27886.33, -4881.69, 9885.01, -29723.24, -10230.57, 41577.55, 13715.90, -51762.21, 0.00, 0.00, 0.00, 0.00, 0.00, 0.00, 0.00
166, 6086.54, 75252.63, 11868.06, 34075.70, -27886.33, -4881.69, 9885.01, -29723.24, -10239.56, 41561.12, 13708.55, -51752.91, 0.00, 0.00, 0.00, 0.00, 0.00, 0.00, 0.00
167, 6076.08, 75237.20, 11850.27, 34056.26, -27908.14, -4898.88, 9859.26, -29746.53, -10239.56, 41561.12, 13708.55, -51752.91, 0.00, 0.00, 0.00, 0.00, 0.00, 0.00, 0.00
168, 6076.08, 75237.20, 11850.27, 34056.26, -27908.14, -4898.88, 9859.26, -29746.53, -10239.02, 41569.80, 13709.13, -51731.77, 0.00, 0.00, 0.00, 0.00, -0.13, 0.40, 0.91
169, 6089.31, 75256.06, 11868.75, 34074.00, -27887.96, -4883.14, 9884.34, -29717.47, -10239.02, 41569.80, 13709.13, -51731.77, 0.00, 0.00, 0.00, 0.00, 0.00, 0.00, 0.00
170, 6089.31, 75256.06, 11868.75, 34074.00, -27887.96, -4883.14, 9884.34, -29717.47, -10208.87, 41576.68, 13713.82, -51724.89, 0.00, 0.00, 0.00, 0.00, 0.00, 0.00, 0.00
171, 6075.14, 75233.96, 11847.52, 34053.39, -27908.30, -4899.84, 9858.95, -29744.96, -10208.87, 41576.68, 13713.82, -51724.89, 0.00, 0.00, 0.00, 0.00, 0.00, 0.00, 0.00
172, 6075.14, 75233.96, 11847.52, 34053.39, -27908.30, -4899.84, 9858.95, -29744.96, -10208.06, 41561.30, 13702.98, -51729.63, 0.00, 0.00, 0.00, 0.00, 0.00, 0.00, 0.00
173, 6085.98, 75249.65, 11864.24, 34074.29, -27893.30, -4883.68, 9879.36, -29726.59, -10208.06, 41561.30, 13702.98, -51729.63, 0.00, 0.00, 0.00, 0.00, 0.00, 0.00, 0.00
174, 6085.98, 75249.65, 11864.24, 34074.29, -27893.30, -4883.68, 9879.36, -29726.59, -10201.38, 41576.37, 13708.08, -51718.76, 0.00, 0.00, 0.00, 0.00, 0.00, 0.00, 0.00
175, 6073.19, 75235.92, 11849.26, 34054.60, -27904.86, -4896.91, 9863.11, -29736.34, -10201.38, 41576.37, 13708.08, -51718.76, 0.00, 0.00, 0.00, 0.00, 0.00, 0.00, 0.00
176, 6073.19, 75235.92, 11849.26, 34054.60, -27904.86, -4896.91, 9863.11, -29736.34, -10190.85, 41573.19, 13708.19, -51678.95, 0.00, 0.00, 0.00, 0.00, 0.00, 0.00, 0.00
177, 6084.99, 75253.65, 11867.50, 34071.59, -27888.47, -4885.06, 9881.30, -29718.68, -10190.85, 41573.19, 13708.19, -51678.95, 0.00, 0.00, 0.00, 0.00, -0.13, 0.40, 0.91
178, 6084.99, 75253.65, 11867.50, 34071.59, -27888.47, -4885.06, 9881.30, -29718.68, -10175.56, 41588.14, 13721.78, -51699.11, 0.00, 0.00, 0.00, 0.00, 0.00, 0.00, 0.00
179, 6075.56, 75237.91, 11853.76, 34056.14, -27900.61, -4895.79, 9864.61, -29733.32, -10175.56, 41588.14, 13721.78, -51699.11, 0.00, 0.00, 0.00, 0.00, 0.00, 0.00, 0.00
180, 6075.56, 75237.91, 11853.76, 34056.14, -27900.61, -4895.79, 9864.61, -29733.32, -10179.92, 41566.29, 13708.39, -51687.65, 0.00, 0.00, 0.00, 0.00, 0.00, 0.00, 0.00
181, 6092.08, 75257.78, 11870.99, 34072.71, -27886.93, -4884.41, 9880.75, -29722.05, -10179.92, 41566.29, 13708.39, -51687.65, 0.00, 0.00, 0.00, 0.00, 0.00, 0.00, 0.00
182, 6092.08, 75257.78, 11870.99, 34072.71, -27886.93, -4884.41, 9880.75, -29722.05, -10162.85, 41582.56, 13723.19, -51678.86, 0.00, 0.00, 0.00, 0.00, 0.00, 0.00, 0.00
183, 6082.22, 75246.74, 11858.38, 34059.50, -27900.79, -4895.46, 9864.03, -29737.61, -10162.85, 41582.56, 13723.19, -51678.86, 0.00, 0.00, 0.00, 0.00, 0.00, 0.00, 0.00
184, 6082.22, 75246.74, 11858.38, 34059.50, -27900.79, -4895.46, 9864.03, -29737.61, -10153.48, 41570.55, 13708.50, -51659.26, 0.00, 0.00, 0.00, 0.00, 0.00, 0.00, 0.00
185, 6087.32, 75254.88, 11866.58, 34068.89, -27893.75, -4887.32, 9877.50, -29721.09, -10153.48, 41570.55, 13708.50, -51659.26, 0.00, 0.00, 0.00, 0.00, 0.00, 0.00, 0.00
186, 6087.32, 75254.88, 11866.58, 34068.89, -27893.75, -4887.32, 9877.50, -29721.09, -10151.16, 41578.58, 13720.04, -51667.75, 0.00, 0.00, 0.00, 0.00, 0.00, 0.00, 0.00
187, 6077.64, 75245.40, 11856.15, 34058.83, -27899.54, -4897.47, 9863.11, -29739.49, -10151.16, 41578.58, 13720.04, -51667.75, 0.00, 0.00, 0.00, 0.00, -0.14, 0.40, 0.92
188, 6077.64, 75245.40, 11856.15, 34058.83, -27899.54, -4897.47, 9863.11, -29739.49, -10151.58, 41560.72, 13705.51, -51662.43, 0.00, 0.00, 0.00, 0.00, 0.00, 0.00, 0.00
189, 6084.37, 75249.96, 11861.65, 34063.01, -27896.61, -4893.80, 9871.33, -29728.18, -10151.58, 41560.72, 13705.51, -51662.43, 0.00, 0.00, 0.00, 0.00, 0.00, 0.00, 0.00
190, 6084.37, 75249.96, 11861.65, 34063.01, -27896.61, -4893.80, 9871.33, -29728.18, -10125.18, 41582.56, 13714.69, -51638.27, 0.00, 0.00, 0.00, 0.00, 0.00, 0.00, 0.00
191, 6082.60, 75244.62, 11854.31, 34059.03, -27906.93, -4897.33, 9865.34, -29731.87, -10125.18, 41582.56, 13714.69, -51638.27, 0.00, 0.00, 0.00, 0.00, 0.00, 0.00, 0.00
192, 6082.60, 75244.62, 11854.31, 34059.03, -27906.93, -4897.33, 9865.34, -29731.87, -10139.67, 41561.28, 13695.00, -51637.56, 0.00, 0.00, 0.00, 0.00, 0.00, 0.00, 0.00
193, 6085.04, 75250.09, 11857.73, 34060.30, -27905.53, -4896.73, 9864.65, -29734.19, -10139.67, 41561.28, 13695.00, -51637.56, 0.00, 0.00, 0.00, 0.00, 0.00, 0.00, 0.00
194, 6085.04, 75250.09, 11857.73, 34060.30, -27905.53, -4896.73, 9864.65, -29734.19, -10109.47, 41592.75, 13712.15, -51630.85, 0.00, 0.00, 0.00, 0.00, 0.00, 0.00, 0.00
195, 6082.74, 75249.85, 11858.70, 34059.79, -27899.60, -4893.82, 9867.11, -29727.44, -10109.47, 41592.75, 13712.15, -51630.85, 0.00, 0.00, 0.00, 0.00, 0.00, 0.00, 0.00
196, 6082.74, 75249.85, 11858.70, 34059.79, -27899.60, -4893.82, 9867.11, -29727.44, -10120.11, 41560.43, 13698.18, -51615.32, 0.00, 0.00, 0.00, 0.00, 0.00, 0.00, 0.00
197, 6081.89, 75248.58, 11854.54, 34055.63, -27907.54, -4900.89, 9862.53, -29732.87, -10120.11, 41560.43, 13698.18, -51615.32, 0.00, 0.00, 0.00, 0.00, -0.13, 0.40, 0.91
198, 6081.89, 75248.58, 11854.54, 34055.63, -27907.54, -4900.89, 9862.53, -29732.87, -10094.85, 41581.17, 13709.62, -51614.58, 0.00, 0.00, 0.00, 0.00, 0.00, 0.00, 0.00
199, 6086.96, 75255.95, 11860.68, 34061.51, -27901.46, -4894.36, 9867.71, -29730.39, -10094.85, 41581.17, 13709.62, -51614.58, 0.00, 0.00, 0.00, 0.00, 0.00, 0.00, 0.00
200, 6086.96, 75255.95, 11860.68, 34061.51, -27901.46, -4894.36, 9867.71, -29730.39, -10088.37, 41567.74, 13699.05, -51596.88, 0.00, 0.00, 0.00, 0.00, 0.00, 0.00, 0.00
201, 6076.86, 75241.94, 11851.05, 34051.81, -27911.23, -4903.79, 9856.69, -29739.91, -10088.37, 41567.74, 13699.05, -51596.88, 0.00, 0.00, 0.00, 0.00, 0.00, 0.00, 0.00
