%OpenBCI Raw EEG Data
%
%Sample Rate = 250.0 Hz
%First Column = SampleIndex
%Other Columns = EEG data in microvolts followed by Accel Data (in G) interleaved with Aux Data
0, 0.00, 0.00, 0.00, 0.00, 0.00, 0.00, 0.00, 0.00, -30526.36, 28841.39, 1940.27, 13440.17, 0.00, 0.00, 0.00, 0.00, -0.09, 0.42, 0.91
1, 13620.93, 42091.91, 1446.69, 21812.20, 523.77, 1402.15, 12314.69, -47981.66, -30526.36, 28841.39, 1940.27, 13440.17, 0.00, 0.00, 0.00, 0.00, 0.00, 0.00, 0.00
2, 13620.93, 42091.91, 1446.69, 21812.20, 523.77, 1402.15, 12314.69, -47981.66, -29544.51, 29484.39, 2266.98, 13910.96, 0.00, 0.00, 0.00, 0.00, 0.00, 0.00, 0.00
3, 13613.53, 42099.11, 1440.77, 21810.54, 512.91, 1401.59, 12313.78, -47988.19, -29544.51, 29484.39, 2266.98, 13910.96, 0.00, 0.00, 0.00, 0.00, 0.00, 0.00, 0.00
4, 13613.53, 42099.11, 1440.77, 21810.54, 512.91, 1401.59, 12313.78, -47988.19, -29543.91, 29472.34, 2250.60, 13909.76, 0.00, 0.00, 0.00, 0.00, 0.00, 0.00, 0.00
5, 13619.21, 42103.84, 1441.51, 21804.44, 511.52, 1399.22, 12310.98, -47981.91, -29543.91, 29472.34, 2250.60, 13909.76, 0.00, 0.00, 0.00, 0.00, 0.00, 0.00, 0.00
6, 13619.21, 42103.84, 1441.51, 21804.44, 511.52, 1399.22, 12310.98, -47981.91, -29537.67, 29496.72, 2261.82, 13898.67, 0.00, 0.00, 0.00, 0.00, -0.10, 0.40, 0.91
7, 13622.54, 42122.33, 1452.62, 21819.97, 523.95, 1410.86, 12323.77, -47968.59, -29537.67, 29496.72, 2261.82, 13898.67, 0.00, 0.00, 0.00, 0.00, 0.00, 0.00, 0.00
8, 13622.54, 42122.33, 1452.62, 21819.97, 523.95, 1410.86, 12323.77, -47968.59, -29537.96, 29481.10, 2252.61, 13941.68, 0.00, 0.00, 0.00, 0.00, 0.00, 0.00, 0.00
9, 13629.36, 42112.41, 1443.23, 21805.22, 513.87, 1402.84, 12311.34, -47978.62, -29537.96, 29481.10, 2252.61, 13941.68, 0.00, 0.00, 0.00, 0.00, 0.00, 0.00, 0.00
10, 13629.36, 42112.41, 1443.23, 21805.22, 513.87, 1402.84, 12311.34, -47978.62, -29539.33, 29492.61, 2268.86, 13896.50, 0.00, 0.00, 0.00, 0.00, 0.00, 0.00, 0.00
11, 13634.76, 42129.93, 1457.78, 21818.14, 526.65, 1408.54, 12324.62, -47970.24, -29539.33, 29492.61, 2268.86, 13896.50, 0.00, 0.00, 0.00, 0.00, 0.00, 0.00, 0.00
12, 13634.76, 42129.93, 1457.78, 21818.14, 526.65, 1408.54, 12324.62, -47970.24, -29543.26, 29477.01, 2264.43, 13912.11, 0.00, 0.00, 0.00, 0.00, 0.00, 0.00, 0.00
13, 13619.52, 42117.97, 1447.77, 21800.19, 505.33, 1393.81, 12301.75, -47990.78, -29543.26, 29477.01, 2264.43, 13912.11, 0.00, 0.00, 0.00, 0.00, 0.00, 0.00, 0.00
14, 13619.52, 42117.97, 1447.77, 21800.19, 505.33, 1393.81, 12301.75, -47990.78, -29546.68, 29477.12, 2264.28, 13910.43, 0.00, 0.00, 0.00, 0.00, 0.00, 0.00, 0.00
15, 13637.11, 42143.92, 1461.16, 21820.96, 527.12, 1412.38, 12324.01, -47962.57, -29546.68, 29477.12, 2264.28, 13910.43, 0.00, 0.00, 0.00, 0.00, 0.00, 0.00, 0.00
16, 13637.11, 42143.92, 1461.16, 21820.96, 527.12, 1412.38, 12324.01, -47962.57, -29537.20, 29491.49, 2272.19, 13876.23, 0.00, 0.00, 0.00, 0.00, -0.11, 0.40, 0.92
17, 13638.23, 42125.66, 1454.63, 21805.89, 518.38, 1400.87, 12307.76, -47979.11, -29537.20, 29491.49, 2272.19, 13876.23, 0.00, 0.00, 0.00, 0.00, 0.00, 0.00, 0.00
18, 13638.23, 42125.66, 1454.63, 21805.89, 518.38, 1400.87, 12307.76, -47979.11, -29535.68, 29484.21, 2272.57, 13945.07, 0.00, 0.00, 0.00, 0.00, 0.00, 0.00, 0.00
19, 13640.96, 42130.82, 1468.22, 21826.10, 532.78, 1415.09, 12327.63, -47963.33, -29535.68, 29484.21, 2272.57, 13945.07, 0.00, 0.00, 0.00, 0.00, 0.00, 0.00, 0.00
20, 13640.96, 42130.82, 1468.22, 21826.10, 532.78, 1415.09, 12327.63, -47963.33, -29536.51, 29491.18, 2274.65, 13906.58, 0.00, 0.00, 0.00, 0.00, 0.00, 0.00, 0.00
21, 13619.43, 42113.95, 1456.75, 21810.43, 516.71, 1402.59, 12311.14, -47975.49, -29536.51, 29491.18, 2274.65, 13906.58, 0.00, 0.00, 0.00, 0.00, 0.00, 0.00, 0.00
22, 13619.43, 42113.95, 1456.75, 21810.43, 516.71, 1402.59, 12311.14, -47975.49, -29542.61, 29477.70, 2258.17, 13914.32, 0.00, 0.00, 0.00, 0.00, 0.00, 0.00, 0.00
23, 13623.75, 42117.08, 1450.43, 21817.09, 523.72, 1408.56, 12321.69, -47967.51, -29542.61, 29477.70, 2258.17, 13914.32, 0.00, 0.00, 0.00, 0.00, 0.00, 0.00, 0.00
24, 13623.75, 42117.08, 1450.43, 21817.09, 523.72, 1408.56, 12321.69, -47967.51, -29539.97, 29489.35, 2265.42, 13885.28, 0.00, 0.00, 0.00, 0.00, 0.00, 0.00, 0.00
25, 13620.24, 42107.04, 1445.02, 21806.16, 524.46, 1401.92, 12311.90, -47973.19, -29539.97, 29489.35, 2265.42, 13885.28, 0.00, 0.00, 0.00, 0.00, 0.00, 0.00, 0.00
26, 13620.24, 42107.04, 1445.02, 21806.16, 524.46, 1401.92, 12311.90, -47973.19, -29528.40, 29489.64, 2259.92, 13915.26, 0.00, 0.00, 0.00, 0.00, -0.11, 0.40, 0.92
27, 13611.61, 42105.61, 1447.81, 21813.51, 532.11, 1410.17, 12326.29, -47958.01, -29528.40, 29489.64, 2259.92, 13915.26, 0.00, 0.00, 0.00, 0.00, 0.00, 0.00, 0.00
28, 13611.61, 42105.61, 1447.81, 21813.51, 532.11, 1410.17, 12326.29, -47958.01, -29534.88, 29500.99, 2268.79, 13925.34, 0.00, 0.00, 0.00, 0.00, 0.00, 0.00, 0.00
29, 13599.76, 42092.89, 1440.10, 21803.05, 513.89, 1399.80, 12308.97, -47973.70, -29534.88, 29500.99, 2268.79, 13925.34, 0.00, 0.00, 0.00, 0.00, 0.00, 0.00, 0.00
30, 13599.76, 42092.89, 1440.10, 21803.05, 513.89, 1399.80, 12308.97, -47973.70, -29537.11, 29476.50, 2257.68, 13922.99, 0.00, 0.00, 0.00, 0.00, 0.00, 0.00, 0.00
31, 13610.56, 42112.68, 1446.22, 21816.29, 526.54, 1409.21, 12320.17, -47962.50, -29537.11, 29476.50, 2257.68, 13922.99, 0.00, 0.00, 0.00, 0.00, 0.00, 0.00, 0.00
32, 13610.56, 42112.68, 1446.22, 21816.29, 526.54, 1409.21, 12320.17, -47962.50, -29531.21, 29500.37, 2276.12, 13922.88, 0.00, 0.00, 0.00, 0.00, 0.00, 0.00, 0.00
33, 13623.88, 42121.50, 1444.93, 21801.53, 525.31, 1398.75, 12308.81, -47969.61, -29531.21, 29500.37, 2276.12, 13922.88, 0.00, 0.00, 0.00, 0.00, 0.00, 0.00, 0.00
34, 13623.88, 42121.50, 1444.93, 21801.53, 525.31, 1398.75, 12308.81, -47969.61, -29532.13, 29479.49, 2258.93, 13878.76, 0.00, 0.00, 0.00, 0.00, 0.00, 0.00, 0.00
35, 13617.67, 42122.46, 1453.44, 21815.12, 525.36, 1406.77, 12318.98, -47964.03, -29532.13, 29479.49, 2258.93, 13878.76, 0.00, 0.00, 0.00, 0.00, 0.00, 0.00, 0.00
36, 13617.67, 42122.46, 1453.44, 21815.12, 525.36, 1406.77, 12318.98, -47964.03, -29530.83, 29499.92, 2279.14, 13952.58, 0.00, 0.00, 0.00, 0.00, -0.10, 0.41, 0.92
37, 13627.68, 42116.09, 1456.77, 21808.02, 519.59, 1402.75, 12313.51, -47967.36, -29530.83, 29499.92, 2279.14, 13952.58, 0.00, 0.00, 0.00, 0.00, 0.00, 0.00, 0.00
38, 13627.68, 42116.09, 1456.77, 21808.02, 519.59, 1402.75, 12313.51, -47967.36, -29524.46, 29477.79, 2271.92, 13917.02, 0.00, 0.00, 0.00, 0.00, 0.00, 0.00, 0.00
39, 13635.37, 42121.86, 1465.20, 21821.20, 532.62, 1411.91, 12324.30, -47956.36, -29524.46, 29477.79, 2271.92, 13917.02, 0.00, 0.00, 0.00, 0.00, 0.00, 0.00, 0.00
40, 13635.37, 42121.86, 1465.20, 21821.20, 532.62, 1411.91, 12324.30, -47956.36, -29526.65, 29504.86, 2295.66, 13915.06, 0.00, 0.00, 0.00, 0.00, 0.00, 0.00, 0.00
41, 13640.58, 42137.37, 1474.75, 21824.55, 533.11, 1411.67, 12326.16, -47954.21, -29526.65, 29504.86, 2295.66, 13915.06, 0.00, 0.00, 0.00, 0.00, 0.00, 0.00, 0.00
42, 13640.58, 42137.37, 1474.75, 21824.55, 533.11, 1411.67, 12326.16, -47954.21, -29523.64, 29489.01, 2283.23, 13931.17, 0.00, 0.00, 0.00, 0.00, 0.00, 0.00, 0.00
43, 13648.29, 42145.06, 1466.43, 21821.85, 536.24, 1411.67, 12323.92, -47952.63, -29523.64, 29489.01, 2283.23, 13931.17, 0.00, 0.00, 0.00, 0.00, 0.00, 0.00, 0.00
44, 13648.29, 42145.06, 1466.43, 21821.85, 536.24, 1411.67, 12323.92, -47952.63, -29524.73, 29506.25, 2295.01, 13909.89, 0.00, 0.00, 0.00, 0.00, 0.00, 0.00, 0.00
45, 13651.30, 42154.58, 1483.37, 21829.21, 537.13, 1415.71, 12327.30, -47950.30, -29524.73, 29506.25, 2295.01, 13909.89, 0.00, 0.00, 0.00, 0.00, -0.11, 0.40, 0.92
46, 13651.30, 42154.58, 1483.37, 21829.21, 537.13, 1415.71, 12327.30, -47950.30, -29524.89, 29487.29, 2284.82, 13932.71, 0.00, 0.00, 0.00, 0.00, 0.00, 0.00, 0.00
47, 13648.42, 42137.57, 1480.13, 21822.63, 530.50, 1411.11, 12322.20, -47953.92, -29524.89, 29487.29, 2284.82, 13932.71, 0.00, 0.00, 0.00, 0.00, 0.00, 0.00, 0.00
48, 13648.42, 42137.57, 1480.13, 21822.63, 530.50, 1411.11, 12322.20, -47953.92, -29523.57, 29504.88, 2299.57, 13891.94, 0.00, 0.00, 0.00, 0.00, 0.00, 0.00, 0.00
49, 13648.40, 42140.52, 1474.34, 21828.56, 541.34, 1418.35, 12331.37, -47945.18, -29523.57, 29504.88, 2299.57, 13891.94, 0.00, 0.00, 0.00, 0.00, 0.00, 0.00, 0.00
50, 13648.40, 42140.52, 1474.34, 21828.56, 541.34, 1418.35, 12331.37, -47945.18, -29517.71, 29490.27, 2285.40, 13931.39, 0.00, 0.00, 0.00, 0.00, 0.00, 0.00, 0.00
51, 13639.91, 42135.03, 1464.71, 21819.19, 535.06, 1410.15, 12319.45, -47952.61, -29517.71, 29490.27, 2285.40, 13931.39, 0.00, 0.00, 0.00, 0.00, 0.00, 0.00, 0.00
52, 13639.91, 42135.03, 1464.71, 21819.19, 535.06, 1410.15, 12319.45, -47952.61, -29532.44, 29497.62, 2276.61, 13934.39, 0.00, 0.00, 0.00, 0.00, 0.00, 0.00, 0.00
53, 13628.44, 42130.40, 1464.55, 21822.39, 530.00, 1411.09, 12320.79, -47952.13, -29532.44, 29497.62, 2276.61, 13934.39, 0.00, 0.00, 0.00, 0.00, 0.00, 0.00, 0.00
54, 13628.44, 42130.40, 1464.55, 21822.39, 530.00, 1411.09, 12320.79, -47952.13, -29530.07, 29490.13, 2265.95, 13907.97, 0.00, 0.00, 0.00, 0.00, 0.00, 0.00, 0.00
55, 13623.68, 42122.26, 1456.24, 21814.52, 516.46, 1406.44, 12312.73, -47958.30, -29530.07, 29490.13, 2265.95, 13907.97, 0.00, 0.00, 0.00, 0.00, -0.12, 0.40, 0.92
56, 13623.68, 42122.26, 1456.24, 21814.52, 516.46, 1406.44, 12312.73, -47958.30, -29532.78, 29502.09, 2270.85, 13884.70, 0.00, 0.00, 0.00, 0.00, 0.00, 0.00, 0.00
57, 13620.75, 42113.68, 1461.76, 21821.74, 525.74, 1414.55, 12322.70, -47950.95, -29532.78, 29502.09, 2270.85, 13884.70, 0.00, 0.00, 0.00, 0.00, 0.00, 0.00, 0.00
58, 13620.75, 42113.68, 1461.76, 21821.74, 525.74, 1414.55, 12322.70, -47950.95, -29525.69, 29486.73, 2271.65, 13925.70, 0.00, 0.00, 0.00, 0.00, 0.00, 0.00, 0.00
59, 13621.53, 42105.93, 1458.21, 21814.47, 528.06, 1407.62, 12312.28, -47958.73, -29525.69, 29486.73, 2271.65, 13925.70, 0.00, 0.00, 0.00, 0.00, 0.00, 0.00, 0.00
60, 13621.53, 42105.93, 1458.21, 21814.47, 528.06, 1407.62, 12312.28, -47958.73, -29523.70, 29503.18, 2272.41, 13911.32, 0.00, 0.00, 0.00, 0.00, 0.00, 0.00, 0.00
61, 13632.60, 42122.73, 1463.77, 21826.12, 533.45, 1416.70, 12326.90, -47942.46, -29523.70, 29503.18, 2272.41, 13911.32, 0.00, 0.00, 0.00, 0.00, 0.00, 0.00, 0.00
62, 13632.60, 42122.73, 1463.77, 21826.12, 533.45, 1416.70, 12326.90, -47942.46, -29525.29, 29498.89, 2275.68, 13946.06, 0.00, 0.00, 0.00, 0.00, 0.00, 0.00, 0.00
63, 13629.29, 42126.78, 1461.65, 21812.49, 518.25, 1404.02, 12309.11, -47957.63, -29525.29, 29498.89, 2275.68, 13946.06, 0.00, 0.00, 0.00, 0.00, 0.00, 0.00, 0.00
64, 13629.29, 42126.78, 1461.65, 21812.49, 518.25, 1404.02, 12309.11, -47957.63, -29525.45, 29493.55, 2277.58, 13904.66, 0.00, 0.00, 0.00, 0.00, 0.00, 0.00, 0.00
65, 13651.48, 42149.31, 1477.87, 21835.73, 538.21, 1420.32, 12330.90, -47940.07, -29525.45, 29493.55, 2277.58, 13904.66, 0.00, 0.00, 0.00, 0.00, -0.11, 0.40, 0.91
66, 13651.48, 42149.31, 1477.87, 21835.73, 538.21, 1420.32, 12330.90, -47940.07, -29516.21, 29503.56, 2300.49, 13926.43, 0.00, 0.00, 0.00, 0.00, 0.00, 0.00, 0.00
67, 13637.65, 42116.74, 1467.17, 21818.97, 516.62, 1409.43, 12310.85, -47953.45, -29516.21, 29503.56, 2300.49, 13926.43, 0.00, 0.00, 0.00, 0.00, 0.00, 0.00, 0.00
68, 13637.65, 42116.74, 1467.17, 21818.97, 516.62, 1409.43, 12310.85, -47953.45, -29532.06, 29486.82, 2269.39, 13915.01, 0.00, 0.00, 0.00, 0.00, 0.00, 0.00, 0.00
69, 13654.05, 42154.18, 1475.10, 21833.29, 540.31, 1417.68, 12321.80, -47942.84, -29532.06, 29486.82, 2269.39, 13915.01, 0.00, 0.00, 0.00, 0.00, 0.00, 0.00, 0.00
70, 13654.05, 42154.18, 1475.10, 21833.29, 540.31, 1417.68, 12321.80, -47942.84, -29528.40, 29501.57, 2288.37, 13904.66, 0.00, 0.00, 0.00, 0.00, 0.00, 0.00, 0.00
71, 13652.42, 42137.69, 1477.49, 21823.59, 527.17, 1408.20, 12311.30, -47950.55, -29528.40, 29501.57, 2288.37, 13904.66, 0.00, 0.00, 0.00, 0.00, 0.00, 0.00, 0.00
72, 13652.42, 42137.69, 1477.49, 21823.59, 527.17, 1408.20, 12311.30, -47950.55, -29527.79, 29491.38, 2285.85, 13924.76, 0.00, 0.00, 0.00, 0.00, 0.00, 0.00, 0.00
73, 13661.56, 42142.87, 1489.83, 21842.44, 540.20, 1421.26, 12329.11, -47939.80, -29527.79, 29491.38, 2285.85, 13924.76, 0.00, 0.00, 0.00, 0.00, 0.00, 0.00, 0.00
74, 13661.56, 42142.87, 1489.83, 21842.44, 540.20, 1421.26, 12329.11, -47939.80, -29527.12, 29495.27, 2298.52, 13917.04, 0.00, 0.00, 0.00, 0.00, 0.00, 0.00, 0.00
75, 13659.35, 42142.60, 1486.93, 21830.95, 530.70, 1410.64, 12314.42, -47950.77, -29527.12, 29495.27, 2298.52, 13917.04, 0.00, 0.00, 0.00, 0.00, -0.11, 0.40, 0.92
76, 13659.35, 42142.60, 1486.93, 21830.95, 530.70, 1410.64, 12314.42, -47950.77, -29526.25, 29479.22, 2285.44, 13927.08, 0.00, 0.00, 0.00, 0.00, 0.00, 0.00, 0.00
77, 13665.66, 42146.76, 1494.64, 21842.59, 538.50, 1421.33, 12327.34, -47941.07, -29526.25, 29479.22, 2285.44, 13927.08, 0.00, 0.00, 0.00, 0.00, 0.00, 0.00, 0.00
78, 13665.66, 42146.76, 1494.64, 21842.59, 538.50, 1421.33, 12327.34, -47941.07, -29525.98, 29498.15, 2301.83, 13904.37, 0.00, 0.00, 0.00, 0.00, 0.00, 0.00, 0.00
79, 13654.39, 42135.88, 1491.04, 21840.60, 527.39, 1418.78, 12322.02, -47943.66, -29525.98, 29498.15, 2301.83, 13904.37, 0.00, 0.00, 0.00, 0.00, 0.00, 0.00, 0.00
80, 13654.39, 42135.88, 1491.04, 21840.60, 527.39, 1418.78, 12322.02, -47943.66, -29520.80, 29498.22, 2285.60, 13891.94, 0.00, 0.00, 0.00, 0.00, 0.00, 0.00, 0.00
81, 13650.19, 42140.91, 1486.39, 21841.16, 543.46, 1422.60, 12328.86, -47934.79, -29520.80, 29498.22, 2285.60, 13891.94, 0.00, 0.00, 0.00, 0.00, 0.00, 0.00, 0.00
82, 13650.19, 42140.91, 1486.39, 21841.16, 543.46, 1422.60, 12328.86, -47934.79, -29528.64, 29500.50, 2296.44, 13944.07, 0.00, 0.00, 0.00, 0.00, 0.00, 0.00, 0.00
83, 13637.11, 42125.57, 1473.94, 21826.23, 530.32, 1410.02, 12314.49, -47948.38, -29528.64, 29500.50, 2296.44, 13944.07, 0.00, 0.00, 0.00, 0.00, 0.00, 0.00, 0.00
84, 13637.11, 42125.57, 1473.94, 21826.23, 530.32, 1410.02, 12314.49, -47948.38, -29529.56, 29475.91, 2278.20, 13901.49, 0.00, 0.00, 0.00, 0.00, 0.00, 0.00, 0.00
85, 13644.31, 42137.33, 1474.84, 21828.20, 529.98, 1411.27, 12316.01, -47944.73, -29529.56, 29475.91, 2278.20, 13901.49, 0.00, 0.00, 0.00, 0.00, -0.12, 0.40, 0.92
86, 13644.31, 42137.33, 1474.84, 21828.20, 529.98, 1411.27, 12316.01, -47944.73, -29533.27, 29499.18, 2290.25, 13914.99, 0.00, 0.00, 0.00, 0.00, 0.00, 0.00, 0.00
87, 13641.34, 42136.79, 1474.28, 21820.98, 523.28, 1405.95, 12309.89, -47947.80, -29533.27, 29499.18, 2290.25, 13914.99, 0.00, 0.00, 0.00, 0.00, 0.00, 0.00, 0.00
88, 13641.34, 42136.79, 1474.28, 21820.98, 523.28, 1405.95, 12309.89, -47947.80, -29522.23, 29484.23, 2283.32, 13892.26, 0.00, 0.00, 0.00, 0.00, 0.00, 0.00, 0.00
89, 13643.79, 42128.43, 1479.22, 21826.68, 524.48, 1411.09, 12318.43, -47938.46, -29522.23, 29484.23, 2283.32, 13892.26, 0.00, 0.00, 0.00, 0.00, 0.00, 0.00, 0.00
90, 13643.79, 42128.43, 1479.22, 21826.68, 524.48, 1411.09, 12318.43, -47938.46, -29522.81, 29511.77, 2303.77, 13928.49, 0.00, 0.00, 0.00, 0.00, 0.00, 0.00, 0.00
91, 13651.75, 42134.64, 1486.50, 21827.80, 537.25, 1410.75, 12318.36, -47939.50, -29522.81, 29511.77, 2303.77, 13928.49, 0.00, 0.00, 0.00, 0.00, 0.00, 0.00, 0.00
92, 13651.75, 42134.64, 1486.50, 21827.80, 537.25, 1410.75, 12318.36, -47939.50, -29522.41, 29479.13, 2293.62, 13905.11, 0.00, 0.00, 0.00, 0.00, 0.00, 0.00, 0.00
93, 13647.42, 42138.96, 1481.05, 21824.80, 519.97, 1408.56, 12314.09, -47945.70, -29522.41, 29479.13, 2293.62, 13905.11, 0.00, 0.00, 0.00, 0.00, 0.00, 0.00, 0.00
94, 13647.42, 42138.96, 1481.05, 21824.80, 519.97, 1408.56, 12314.09, -47945.70, -29519.61, 29515.16, 2317.03, 13925.32, 0.00, 0.00, 0.00, 0.00, -0.11, 0.40, 0.92
95, 13667.64, 42146.36, 1496.90, 21835.57, 539.44, 1417.50, 12328.84, -47930.16, -29519.61, 29515.16, 2317.03, 13925.32, 0.00, 0.00, 0.00, 0.00, 0.00, 0.00, 0.00
96, 13667.64, 42146.36, 1496.90, 21835.57, 539.44, 1417.50, 12328.84, -47930.16, -29523.86, 29483.89, 2303.06, 13931.13, 0.00, 0.00, 0.00, 0.00, 0.00, 0.00, 0.00
97, 13649.74, 42136.84, 1482.05, 21821.20, 525.71, 1404.47, 12308.03, -47948.45, -29523.86, 29483.89, 2303.06, 13931.13, 0.00, 0.00, 0.00, 0.00, 0.00, 0.00, 0.00
98, 13649.74, 42136.84, 1482.05, 21821.20, 525.71, 1404.47, 12308.03, -47948.45, -29530.72, 29499.00, 2307.44, 13895.01, 0.00, 0.00, 0.00, 0.00, 0.00, 0.00, 0.00
99, 13672.45, 42162.99, 1499.82, 21840.00, 537.54, 1420.54, 12327.41, -47929.98, -29530.72, 29499.00, 2307.44, 13895.01, 0.00, 0.00, 0.00, 0.00, 0.00, 0.00, 0.00
100, 13672.45, 42162.99, 1499.82, 21840.00, 537.54, 1420.54, 12327.41, -47929.98, -29511.88, 29500.52, 2314.66, 13931.37, 0.00, 0.00, 0.00, 0.00, 0.00, 0.00, 0.00
101, 13653.27, 42131.32, 1484.51, 21831.24, 513.42, 1412.00, 12311.76, -47945.25, -29511.88, 29500.52, 2314.66, 13931.37, 0.00, 0.00, 0.00, 0.00, 0.00, 0.00, 0.00
102, 13653.27, 42131.32, 1484.51, 21831.24, 513.42, 1412.00, 12311.76, -47945.25, -29532.22, 29497.55, 2307.73, 13954.80, 0.00, 0.00, 0.00, 0.00, 0.00, 0.00, 0.00
103, 13693.15, 42178.66, 1537.62, 21911.73, 567.51, 1449.85, 12349.76, -47917.55, -29532.22, 29497.55, 2307.73, 13954.80, 0.00, 0.00, 0.00, 0.00, 0.00, 0.00, 0.00
104, 13693.15, 42178.66, 1537.62, 21911.73, 567.51, 1449.85, 12349.76, -47917.55, -29504.84, 29505.87, 2358.49, 13921.40, 0.00, 0.00, 0.00, 0.00, -0.12, 0.40, 0.92
105, 13626.45, 42123.18, 1482.10, 21796.79, 541.81, 1405.34, 12318.87, -47930.30, -29504.84, 29505.87, 2358.49, 13921.40, 0.00, 0.00, 0.00, 0.00, 0.00, 0.00, 0.00
106, 13626.45, 42123.18, 1482.10, 21796.79, 541.81, 1405.34, 12318.87, -47930.30, -29511.54, 29504.26, 2278.27, 13891.61, 0.00, 0.00, 0.00, 0.00, 0.00, 0.00, 0.00
107, 13609.80, 42117.86, 1466.16, 21806.00, 535.64, 1415.98, 12335.64, -47918.05, -29511.54, 29504.26, 2278.27, 13891.61, 0.00, 0.00, 0.00, 0.00, 0.00, 0.00, 0.00
108, 13609.80, 42117.86, 1466.16, 21806.00, 535.64, 1415.98, 12335.64, -47918.05, -29489.91, 29511.79, 2274.02, 13946.39, 0.00, 0.00, 0.00, 0.00, 0.00, 0.00, 0.00
109, 13573.83, 42088.58, 1436.30, 21758.44, 528.22, 1404.70, 12328.57, -47918.43, -29489.91, 29511.79, 2274.02, 13946.39, 0.00, 0.00, 0.00, 0.00, 0.00, 0.00, 0.00
110, 13573.83, 42088.58, 1436.30, 21758.44, 528.22, 1404.70, 12328.57, -47918.43, -29486.49, 29525.56, 2260.07, 13934.28, 0.00, 0.00, 0.00, 0.00, 0.00, 0.00, 0.00
111, 13544.46, 42083.24, 1415.94, 21746.37, 532.89, 1406.13, 12338.48, -47906.65, -29486.49, 29525.56, 2260.07, 13934.28, 0.00, 0.00, 0.00, 0.00, 0.00, 0.00, 0.00
112, 13544.46, 42083.24, 1415.94, 21746.37, 532.89, 1406.13, 12338.48, -47906.65, -29481.99, 29521.07, 2219.10, 13921.14, 0.00, 0.00, 0.00, 0.00, 0.00, 0.00, 0.00
113, 13508.43, 42056.44, 1389.21, 21723.12, 527.37, 1399.71, 12332.22, -47906.65, -29481.99, 29521.07, 2219.10, 13921.14, 0.00, 0.00, 0.00, 0.00, 0.00, 0.00, 0.00
114, 13508.43, 42056.44, 1389.21, 21723.12, 527.37, 1399.71, 12332.22, -47906.65, -29456.94, 29535.88, 2217.90, 13991.99, 0.00, 0.00, 0.00, 0.00, -0.12, 0.41, 0.92
115, 13499.38, 42060.66, 1386.34, 21728.89, 548.56, 1413.79, 12357.27, -47885.41, -29456.94, 29535.88, 2217.90, 13991.99, 0.00, 0.00, 0.00, 0.00, 0.00, 0.00, 0.00
116, 13499.38, 42060.66, 1386.34, 21728.89, 548.56, 1413.79, 12357.27, -47885.41, -29444.82, 29547.40, 2216.64, 13957.61, 0.00, 0.00, 0.00, 0.00, 0.00, 0.00, 0.00
117, 13488.83, 42040.19, 1370.88, 21702.83, 538.25, 1405.99, 12351.01, -47883.67, -29444.82, 29547.40, 2216.64, 13957.61, 0.00, 0.00, 0.00, 0.00, 0.00, 0.00, 0.00
118, 13488.83, 42040.19, 1370.88, 21702.83, 538.25, 1405.99, 12351.01, -47883.67, -29431.59, 29553.99, 2224.40, 13947.35, 0.00, 0.00, 0.00, 0.00, 0.00, 0.00, 0.00
119, 13474.93, 42043.41, 1367.79, 21680.57, 536.84, 1405.95, 12358.68, -47874.04, -29431.59, 29553.99, 2224.40, 13947.35, 0.00, 0.00, 0.00, 0.00, 0.00, 0.00, 0.00
120, 13474.93, 42043.41, 1367.79, 21680.57, 536.84, 1405.95, 12358.68, -47874.04, -29435.08, 29556.36, 2258.15, 13928.22, 0.00, 0.00, 0.00, 0.00, 0.00, 0.00, 0.00
121, 13487.98, 42049.44, 1385.88, 21681.68, 533.11, 1405.28, 12355.71, -47880.36, -29435.08, 29556.36, 2258.15, 13928.22, 0.00, 0.00, 0.00, 0.00, 0.00, 0.00, 0.00
122, 13487.98, 42049.44, 1385.88, 21681.68, 533.11, 1405.28, 12355.71, -47880.36, -29424.62, 29551.60, 2263.72, 13966.78, 0.00, 0.00, 0.00, 0.00, 0.00, 0.00, 0.00
123, 13488.58, 42065.54, 1389.25, 21653.52, 539.06, 1404.11, 12370.35, -47858.44, -29424.62, 29551.60, 2263.72, 13966.78, 0.00, 0.00, 0.00, 0.00, 0.00, 0.00, 0.00
124, 13488.58, 42065.54, 1389.25, 21653.52, 539.06, 1404.11, 12370.35, -47858.44, -29399.76, 29585.28, 2330.01, 13995.03, 0.00, 0.00, 0.00, 0.00, -0.12, 0.41, 0.92
125, 13498.75, 42081.70, 1409.28, 21650.41, 544.29, 1405.66, 12370.82, -47857.16, -29399.76, 29585.28, 2330.01, 13995.03, 0.00, 0.00, 0.00, 0.00, 0.00, 0.00, 0.00
126, 13498.75, 42081.70, 1409.28, 21650.41, 544.29, 1405.66, 12370.82, -47857.16, -29398.78, 29565.37, 2324.25, 13971.78, 0.00, 0.00, 0.00, 0.00, 0.00, 0.00, 0.00
127, 13516.46, 42088.24, 1420.05, 21657.10, 553.21, 1413.37, 12378.02, -47854.17, -29398.78, 29565.37, 2324.25, 13971.78, 0.00, 0.00, 0.00, 0.00, 0.00, 0.00, 0.00
128, 13516.46, 42088.24, 1420.05, 21657.10, 553.21, 1413.37, 12378.02, -47854.17, -29411.38, 29582.11, 2364.21, 13937.25, 0.00, 0.00, 0.00, 0.00, 0.00, 0.00, 0.00
129, 13531.66, 42093.72, 1428.30, 21658.62, 546.50, 1412.61, 12372.45, -47859.75, -29411.38, 29582.11, 2364.21, 13937.25, 0.00, 0.00, 0.00, 0.00, 0.00, 0.00, 0.00
130, 13531.66, 42093.72, 1428.30, 21658.62, 546.50, 1412.61, 12372.45, -47859.75, -29409.46, 29560.14, 2354.71, 14001.29, 0.00, 0.00, 0.00, 0.00, 0.00, 0.00, 0.00
131, 13541.45, 42106.80, 1441.08, 21666.01, 548.78, 1417.37, 12381.10, -47853.52, -29409.46, 29560.14, 2354.71, 14001.29, 0.00, 0.00, 0.00, 0.00, 0.00, 0.00, 0.00
132, 13541.45, 42106.80, 1441.08, 21666.01, 548.78, 1417.37, 12381.10, -47853.52, -29415.25, 29576.97, 2381.02, 13976.14, 0.00, 0.00, 0.00, 0.00, 0.00, 0.00, 0.00
133, 13532.53, 42099.02, 1441.13, 21658.28, 545.07, 1410.55, 12372.76, -47858.44, -29415.25, 29576.97, 2381.02, 13976.14, 0.00, 0.00, 0.00, 0.00, -0.12, 0.41, 0.92
134, 13532.53, 42099.02, 1441.13, 21658.28, 545.07, 1410.55, 12372.76, -47858.44, -29408.44, 29556.20, 2359.03, 13963.69, 0.00, 0.00, 0.00, 0.00, 0.00, 0.00, 0.00
135, 13529.04, 42092.42, 1444.86, 21669.63, 550.32, 1416.54, 12377.50, -47853.54, -29408.44, 29556.20, 2359.03, 13963.69, 0.00, 0.00, 0.00, 0.00, 0.00, 0.00, 0.00
136, 13529.04, 42092.42, 1444.86, 21669.63, 550.32, 1416.54, 12377.50, -47853.54, -29414.85, 29578.67, 2378.74, 13944.78, 0.00, 0.00, 0.00, 0.00, 0.00, 0.00, 0.00
137, 13541.36, 42099.53, 1446.43, 21668.54, 554.12, 1417.70, 12380.27, -47852.58, -29414.85, 29578.67, 2378.74, 13944.78, 0.00, 0.00, 0.00, 0.00, 0.00, 0.00, 0.00
138, 13541.36, 42099.53, 1446.43, 21668.54, 554.12, 1417.70, 12380.27, -47852.58, -29395.43, 29572.63, 2373.13, 13991.63, 0.00, 0.00, 0.00, 0.00, 0.00, 0.00, 0.00
139, 13531.32, 42095.35, 1436.23, 21664.23, 553.14, 1414.24, 12380.07, -47851.89, -29395.43, 29572.63, 2373.13, 13991.63, 0.00, 0.00, 0.00, 0.00, 0.00, 0.00, 0.00
140, 13531.32, 42095.35, 1436.23, 21664.23, 553.14, 1414.24, 12380.07, -47851.89, -29406.18, 29583.56, 2381.47, 13982.78, 0.00, 0.00, 0.00, 0.00, 0.00, 0.00, 0.00
141, 13540.19, 42124.72, 1450.29, 21674.13, 559.75, 1420.45, 12385.03, -47846.66, -29406.18, 29583.56, 2381.47, 13982.78, 0.00, 0.00, 0.00, 0.00, 0.00, 0.00, 0.00
142, 13540.19, 42124.72, 1450.29, 21674.13, 559.75, 1420.45, 12385.03, -47846.66, -29396.50, 29563.40, 2375.77, 13960.76, 0.00, 0.00, 0.00, 0.00, 0.00, 0.00, 0.00
143, 13521.35, 42088.69, 1448.39, 21666.42, 542.81, 1413.14, 12375.11, -47855.46, -29396.50, 29563.40, 2375.77, 13960.76, 0.00, 0.00, 0.00, 0.00, -0.12, 0.41, 0.92
144, 13521.35, 42088.69, 1448.39, 21666.42, 542.81, 1413.14, 12375.11, -47855.46, -29405.28, 29582.51, 2385.36, 13950.86, 0.00, 0.00, 0.00, 0.00, 0.00, 0.00, 0.00
145, 13534.76, 42100.27, 1451.39, 21679.09, 560.43, 1420.10, 12385.59, -47843.75, -29405.28, 29582.51, 2385.36, 13950.86, 0.00, 0.00, 0.00, 0.00, 0.00, 0.00, 0.00
146, 13534.76, 42100.27, 1451.39, 21679.09, 560.43, 1420.10, 12385.59, -47843.75, -29394.64, 29568.92, 2378.11, 13998.88, 0.00, 0.00, 0.00, 0.00, 0.00, 0.00, 0.00
147, 13545.27, 42113.03, 1456.75, 21674.49, 559.60, 1419.92, 12385.08, -47842.48, -29394.64, 29568.92, 2378.11, 13998.88, 0.00, 0.00, 0.00, 0.00, 0.00, 0.00, 0.00
148, 13545.27, 42113.03, 1456.75, 21674.49, 559.60, 1419.92, 12385.08, -47842.48, -29393.91, 29593.08, 2388.57, 13988.15, 0.00, 0.00, 0.00, 0.00, 0.00, 0.00, 0.00
149, 13539.23, 42120.65, 1455.93, 21682.53, 562.68, 1424.74, 12390.96, -47837.87, -29393.91, 29593.08, 2388.57, 13988.15, 0.00, 0.00, 0.00, 0.00, 0.00, 0.00, 0.00
150, 13539.23, 42120.65, 1455.93, 21682.53, 562.68, 1424.74, 12390.96, -47837.87, -29396.74, 29571.94, 2370.85, 13974.42, 0.00, 0.00, 0.00, 0.00, 0.00, 0.00, 0.00
151, 13530.99, 42109.23, 1448.06, 21669.08, 560.00, 1415.00, 12376.14, -47849.74, -29396.74, 29571.94, 2370.85, 13974.42, 0.00, 0.00, 0.00, 0.00, 0.00, 0.00, 0.00
152, 13530.99, 42109.23, 1448.06, 21669.08, 560.00, 1415.00, 12376.14, -47849.74, -29394.29, 29586.62, 2386.67, 13977.33, 0.00, 0.00, 0.00, 0.00, 0.00, 0.00, 0.00
153, 13528.39, 42103.76, 1460.62, 21684.28, 566.77, 1427.16, 12394.00, -47834.95, -29394.29, 29586.62, 2386.67, 13977.33, 0.00, 0.00, 0.00, 0.00, -0.12, 0.40, 0.92
154, 13528.39, 42103.76, 1460.62, 21684.28, 566.77, 1427.16, 12394.00, -47834.95, -29389.28, 29576.65, 2384.91, 13996.89, 0.00, 0.00, 0.00, 0.00, 0.00, 0.00, 0.00
155, 13522.56, 42085.38, 1452.57, 21666.98, 555.51, 1415.69, 12382.37, -47845.43, -29389.28, 29576.65, 2384.91, 13996.89, 0.00, 0.00, 0.00, 0.00, 0.00, 0.00, 0.00
156, 13522.56, 42085.38, 1452.57, 21666.98, 555.51, 1415.69, 12382.37, -47845.43, -29392.03, 29586.24, 2378.92, 13980.19, 0.00, 0.00, 0.00, 0.00, 0.00, 0.00, 0.00
157, 13533.89, 42122.51, 1458.07, 21682.20, 562.75, 1426.60, 12396.68, -47828.89, -29392.03, 29586.24, 2378.92, 13980.19, 0.00, 0.00, 0.00, 0.00, 0.00, 0.00, 0.00
158, 13533.89, 42122.51, 1458.07, 21682.20, 562.75, 1426.60, 12396.68, -47828.89, -29385.75, 29592.84, 2380.82, 13996.64, 0.00, 0.00, 0.00, 0.00, 0.00, 0.00, 0.00
159, 13528.44, 42099.11, 1454.29, 21662.04, 559.29, 1415.22, 12381.73, -47837.80, -29385.75, 29592.84, 2380.82, 13996.64, 0.00, 0.00, 0.00, 0.00, 0.00, 0.00, 0.00
160, 13528.44, 42099.11, 1454.29, 21662.04, 559.29, 1415.22, 12381.73, -47837.80, -29390.42, 29580.45, 2380.42, 14017.25, 0.00, 0.00, 0.00, 0.00, 0.00, 0.00, 0.00
161, 13531.19, 42110.26, 1457.65, 21676.43, 560.09, 1422.06, 12391.11, -47833.34, -29390.42, 29580.45, 2380.42, 14017.25, 0.00, 0.00, 0.00, 0.00, 0.00, 0.00, 0.00
162, 13531.19, 42110.26, 1457.65, 21676.43, 560.09, 1422.06, 12391.11, -47833.34, -29396.63, 29577.24, 2380.75, 13953.84, 0.00, 0.00, 0.00, 0.00, 0.00, 0.00, 0.00
163, 13527.21, 42116.27, 1452.24, 21657.37, 548.00, 1408.88, 12373.41, -47847.46, -29396.63, 29577.24, 2380.75, 13953.84, 0.00, 0.00, 0.00, 0.00, -0.12, 0.41, 0.91
164, 13527.21, 42116.27, 1452.24, 21657.37, 548.00, 1408.88, 12373.41, -47847.46, -29390.84, 29578.44, 2380.55, 13976.79, 0.00, 0.00, 0.00, 0.00, 0.00, 0.00, 0.00
165, 13550.81, 42133.39, 1466.21, 21677.53, 570.60, 1423.54, 12394.24, -47827.03, -29390.84, 29578.44, 2380.55, 13976.79, 0.00, 0.00, 0.00, 0.00, 0.00, 0.00, 0.00
166, 13550.81, 42133.39, 1466.21, 21677.53, 570.60, 1423.54, 12394.24, -47827.03, -29389.95, 29590.20, 2393.51, 14000.17, 0.00, 0.00, 0.00, 0.00, 0.00, 0.00, 0.00
167, 13541.58, 42107.24, 1468.35, 21666.57, 558.53, 1415.54, 12380.88, -47840.93, -29389.95, 29590.20, 2393.51, 14000.17, 0.00, 0.00, 0.00, 0.00, 0.00, 0.00, 0.00
168, 13541.58, 42107.24, 1468.35, 21666.57, 558.53, 1415.54, 12380.88, -47840.93, -29396.28, 29564.83, 2381.80, 13983.56, 0.00, 0.00, 0.00, 0.00, 0.00, 0.00, 0.00
169, 13547.35, 42135.68, 1473.09, 21678.20, 565.79, 1422.22, 12391.09, -47833.09, -29396.28, 29564.83, 2381.80, 13983.56, 0.00, 0.00, 0.00, 0.00, 0.00, 0.00, 0.00
170, 13547.35, 42135.68, 1473.09, 21678.20, 565.79, 1422.22, 12391.09, -47833.09, -29391.11, 29585.46, 2402.03, 13992.77, 0.00, 0.00, 0.00, 0.00, 0.00, 0.00, 0.00
171, 13553.20, 42129.26, 1475.86, 21670.87, 556.58, 1417.44, 12382.73, -47840.40, -29391.11, 29585.46, 2402.03, 13992.77, 0.00, 0.00, 0.00, 0.00, 0.00, 0.00, 0.00
172, 13553.20, 42129.26, 1475.86, 21670.87, 556.58, 1417.44, 12382.73, -47840.40, -29386.73, 29574.98, 2392.98, 13959.98, 0.00, 0.00, 0.00, 0.00, -0.12, 0.40, 0.91
173, 13572.07, 42145.89, 1485.47, 21684.52, 571.44, 1427.70, 12397.66, -47824.48, -29386.73, 29574.98, 2392.98, 13959.98, 0.00, 0.00, 0.00, 0.00, 0.00, 0.00, 0.00
174, 13572.07, 42145.89, 1485.47, 21684.52, 571.44, 1427.70, 12397.66, -47824.48, -29395.67, 29588.54, 2405.11, 13998.70, 0.00, 0.00, 0.00, 0.00, 0.00, 0.00, 0.00
175, 13549.56, 42127.85, 1480.49, 21673.08, 566.82, 1419.02, 12385.82, -47831.84, -29395.67, 29588.54, 2405.11, 13998.70, 0.00, 0.00, 0.00, 0.00, 0.00, 0.00, 0.00
176, 13549.56, 42127.85, 1480.49, 21673.08, 566.82, 1419.02, 12385.82, -47831.84, -29385.23, 29574.35, 2397.58, 13986.18, 0.00, 0.00, 0.00, 0.00, 0.00, 0.00, 0.00
177, 13561.50, 42140.26, 1481.00, 21678.33, 564.67, 1424.95, 12397.57, -47825.69, -29385.23, 29574.35, 2397.58, 13986.18, 0.00, 0.00, 0.00, 0.00, 0.00, 0.00, 0.00
178, 13561.50, 42140.26, 1481.00, 21678.33, 564.67, 1424.95, 12397.57, -47825.69, -29391.96, 29592.32, 2407.80, 13971.34, 0.00, 0.00, 0.00, 0.00, 0.00, 0.00, 0.00
179, 13552.42, 42135.72, 1483.93, 21672.36, 558.68, 1418.13, 12383.58, -47836.42, -29391.96, 29592.32, 2407.80, 13971.34, 0.00, 0.00, 0.00, 0.00, 0.00, 0.00, 0.00
180, 13552.42, 42135.72, 1483.93, 21672.36, 558.68, 1418.13, 12383.58, -47836.42, -29388.21, 29572.32, 2390.54, 13977.53, 0.00, 0.00, 0.00, 0.00, 0.00, 0.00, 0.00
181, 13565.23, 42151.70, 1484.09, 21674.33, 566.10, 1423.22, 12390.42, -47827.14, -29388.21, 29572.32, 2390.54, 13977.53, 0.00, 0.00, 0.00, 0.00, 0.00, 0.00, 0.00
182, 13565.23, 42151.70, 1484.09, 21674.33, 566.10, 1423.22, 12390.42, -47827.14, -29386.33, 29595.94, 2413.34, 13997.94, 0.00, 0.00, 0.00, 0.00, -0.13, 0.41, 0.91
183, 13552.67, 42134.69, 1483.19, 21674.17, 562.24, 1422.15, 12389.46, -47827.23, -29386.33, 29595.94, 2413.34, 13997.94, 0.00, 0.00, 0.00, 0.00, 0.00, 0.00, 0.00
184, 13552.67, 42134.69, 1483.19, 21674.17, 562.24, 1422.15, 12389.46, -47827.23, -29382.48, 29569.37, 2396.84, 13987.61, 0.00, 0.00, 0.00, 0.00, 0.00, 0.00, 0.00
185, 13560.31, 42142.60, 1488.96, 21675.85, 571.18, 1424.10, 12393.59, -47826.34, -29382.48, 29569.37, 2396.84, 13987.61, 0.00, 0.00, 0.00, 0.00, 0.00, 0.00, 0.00
186, 13560.31, 42142.60, 1488.96, 21675.85, 571.18, 1424.10, 12393.59, -47826.34, -29383.54, 29599.61, 2409.70, 13990.76, 0.00, 0.00, 0.00, 0.00, 0.00, 0.00, 0.00
187, 13564.96, 42148.93, 1489.27, 21677.03, 565.30, 1426.80, 12393.82, -47825.60, -29383.54, 29599.61, 2409.70, 13990.76, 0.00, 0.00, 0.00, 0.00, 0.00, 0.00, 0.00
188, 13564.96, 42148.93, 1489.27, 21677.03, 565.30, 1426.80, 12393.82, -47825.60, -29380.96, 29572.29, 2399.55, 13982.00, 0.00, 0.00, 0.00, 0.00, 0.00, 0.00, 0.00
189, 13559.69, 42127.54, 1486.35, 21672.83, 565.92, 1421.50, 12389.10, -47828.71, -29380.96, 29572.29, 2399.55, 13982.00, 0.00, 0.00, 0.00, 0.00, 0.00, 0.00, 0.00
190, 13559.69, 42127.54, 1486.35, 21672.83, 565.92, 1421.50, 12389.10, -47828.71, -29385.88, 29593.55, 2411.22, 13996.42, 0.00, 0.00, 0.00, 0.00, 0.00, 0.00, 0.00
191, 13554.86, 42138.36, 1491.73, 21675.42, 569.57, 1424.45, 12394.78, -47823.59, -29385.88, 29593.55, 2411.22, 13996.42, 0.00, 0.00, 0.00, 0.00, 0.00, 0.00, 0.00
192, 13554.86, 42138.36, 1491.73, 21675.42, 569.57, 1424.45, 12394.78, -47823.59, -29372.34, 29579.11, 2403.73, 13998.58, 0.00, 0.00, 0.00, 0.00, -0.12, 0.41, 0.91
193, 13549.69, 42152.39, 1486.06, 21670.98, 565.48, 1420.95, 12390.91, -47821.69, -29372.34, 29579.11, 2403.73, 13998.58, 0.00, 0.00, 0.00, 0.00, 0.00, 0.00, 0.00
194, 13549.69, 42152.39, 1486.06, 21670.98, 565.48, 1420.95, 12390.91, -47821.69, -29380.99, 29600.77, 2405.00, 14011.30, 0.00, 0.00, 0.00, 0.00, 0.00, 0.00, 0.00
195, 13543.41, 42143.39, 1489.18, 21677.21, 569.68, 1424.95, 12395.54, -47821.82, -29380.99, 29600.77, 2405.00, 14011.30, 0.00, 0.00, 0.00, 0.00, 0.00, 0.00, 0.00
196, 13543.41, 42143.39, 1489.18, 21677.21, 569.68, 1424.95, 12395.54, -47821.82, -29378.89, 29577.88, 2405.34, 13977.95, 0.00, 0.00, 0.00, 0.00, 0.00, 0.00, 0.00
197, 13548.69, 42136.03, 1486.50, 21665.93, 562.08, 1418.40, 12385.71, -47828.55, -29378.89, 29577.88, 2405.34, 13977.95, 0.00, 0.00, 0.00, 0.00, 0.00, 0.00, 0.00
198, 13548.69, 42136.03, 1486.50, 21665.93, 562.08, 1418.40, 12385.71, -47828.55, -29382.89, 29592.55, 2405.67, 13990.83, 0.00, 0.00, 0.00, 0.00, 0.00, 0.00, 0.00
199, 13560.04, 42137.89, 1491.84, 21680.97, 569.03, 1429.19, 12401.66, -47814.27, -29382.89, 29592.55, 2405.67, 13990.83, 0.00, 0.00, 0.00, 0.00, 0.00, 0.00, 0.00
200, 13560.04, 42137.89, 1491.84, 21680.97, 569.03, 1429.19, 12401.66, -47814.27, -29368.83, 29587.43, 2403.62, 14021.47, 0.00, 0.00, 0.00, 0.00, 0.00, 0.00, 0.00
201, 13543.19, 42123.07, 1475.86, 21662.57, 561.07, 1418.89, 12386.29, -47827.88, -29368.83, 29587.43, 2403.62, 14021.47, 0.00, 0.00, 0.00, 0.00, 0.00, 0.00, 0.00
202, 13543.19, 42123.07, 1475.86, 21662.57, 561.07, 1418.89, 12386.29, -47827.88, -29376.88, 29593.51, 2398.99, 13984.46, 0.00, 0.00, 0.00, 0.00, -0.12, 0.41, 0.91
203, 13557.07, 42149.96, 1496.85, 21682.09, 572.27, 1429.93, 12403.68, -47810.18, -29376.88, 29593.51, 2398.99, 13984.46, 0.00, 0.00, 0.00, 0.00, 0.00, 0.00, 0.00
204, 13557.07, 42149.96, 1496.85, 21682.09, 572.27, 1429.93, 12403.68, -47810.18, -29370.53, 29594.83, 2406.77, 13968.72, 0.00, 0.00, 0.00, 0.00, 0.00, 0.00, 0.00
205, 13552.20, 42138.94, 1482.52, 21663.31, 565.79, 1415.27, 12388.05, -47819.52, -29370.53, 29594.83, 2406.77, 13968.72, 0.00, 0.00, 0.00, 0.00, 0.00, 0.00, 0.00
206, 13552.20, 42138.94, 1482.52, 21663.31, 565.79, 1415.27, 12388.05, -47819.52, -29374.26, 29596.39, 2408.78, 13976.10, 0.00, 0.00, 0.00, 0.00, 0.00, 0.00, 0.00
207, 13544.29, 42134.38, 1486.26, 21676.61, 566.86, 1427.45, 12397.35, -47812.70, -29374.26, 29596.39, 2408.78, 13976.10, 0.00, 0.00, 0.00, 0.00, 0.00, 0.00, 0.00
208, 13544.29, 42134.38, 1486.26, 21676.61, 566.86, 1427.45, 12397.35, -47812.70, -29378.39, 29579.45, 2401.76, 14017.36, 0.00, 0.00, 0.00, 0.00, 0.00, 0.00, 0.00
209, 13538.99, 42133.80, 1487.06, 21666.21, 557.21, 1417.21, 12383.13, -47827.86, -29378.39, 29579.45, 2401.76, 14017.36, 0.00, 0.00, 0.00, 0.00, 0.00, 0.00, 0.00
210, 13538.99, 42133.80, 1487.06, 21666.21, 557.21, 1417.21, 12383.13, -47827.86, -29375.51, 29588.12, 2397.58, 13999.03, 0.00, 0.00, 0.00, 0.00, 0.00, 0.00, 0.00
211, 13554.39, 42148.73, 1495.11, 21683.40, 573.05, 1428.59, 12401.84, -47813.17, -29375.51, 29588.12, 2397.58, 13999.03, 0.00, 0.00, 0.00, 0.00, -0.12, 0.41, 0.91
212, 13554.39, 42148.73, 1495.11, 21683.40, 573.05, 1428.59, 12401.84, -47813.17, -29380.25, 29592.68, 2396.82, 13969.46, 0.00, 0.00, 0.00, 0.00, 0.00, 0.00, 0.00
213, 13543.44, 42126.13, 1473.45, 21660.63, 557.36, 1413.68, 12382.29, -47826.81, -29380.25, 29592.68, 2396.82, 13969.46, 0.00, 0.00, 0.00, 0.00, 0.00, 0.00, 0.00
214, 13543.44, 42126.13, 1473.45, 21660.63, 557.36, 1413.68, 12382.29, -47826.81, -29367.87, 29594.96, 2393.65, 13977.42, 0.00, 0.00, 0.00, 0.00, 0.00, 0.00, 0.00
215, 13548.55, 42134.29, 1491.60, 21685.82, 572.12, 1430.18, 12405.64, -47802.11, -29367.87, 29594.96, 2393.65, 13977.42, 0.00, 0.00, 0.00, 0.00, 0.00, 0.00, 0.00
216, 13548.55, 42134.29, 1491.60, 21685.82, 572.12, 1430.18, 12405.64, -47802.11, -29377.68, 29595.34, 2401.65, 13993.58, 0.00, 0.00, 0.00, 0.00, 0.00, 0.00, 0.00
217, 13541.54, 42133.04, 1488.78, 21670.87, 562.41, 1421.19, 12387.40, -47820.08, -29377.68, 29595.34, 2401.65, 13993.58, 0.00, 0.00, 0.00, 0.00, 0.00, 0.00, 0.00
218, 13541.54, 42133.04, 1488.78, 21670.87, 562.41, 1421.19, 12387.40, -47820.08, -29372.92, 29580.41, 2388.71, 14001.45, 0.00, 0.00, 0.00, 0.00, 0.00, 0.00, 0.00
219, 13537.11, 42138.60, 1486.23, 21677.79, 562.91, 1426.09, 12395.83, -47812.35, -29372.92, 29580.41, 2388.71, 14001.45, 0.00, 0.00, 0.00, 0.00, 0.00, 0.00, 0.00
220, 13537.11, 42138.60, 1486.23, 21677.79, 562.91, 1426.09, 12395.83, -47812.35, -29379.76, 29599.88, 2394.59, 13987.48, 0.00, 0.00, 0.00, 0.00, 0.00, 0.00, 0.00
221, 13543.55, 42136.12, 1479.55, 21669.08, 559.20, 1417.68, 12381.46, -47825.96, -29379.76, 29599.88, 2394.59, 13987.48, 0.00, 0.00, 0.00, 0.00, -0.12, 0.41, 0.91
222, 13543.55, 42136.12, 1479.55, 21669.08, 559.20, 1417.68, 12381.46, -47825.96, -29373.79, 29582.71, 2383.55, 13976.39, 0.00, 0.00, 0.00, 0.00, 0.00, 0.00, 0.00
223, 13547.55, 42133.46, 1487.15, 21681.15, 569.77, 1424.81, 12398.09, -47808.05, -29373.79, 29582.71, 2383.55, 13976.39, 0.00, 0.00, 0.00, 0.00, 0.00, 0.00, 0.00
224, 13547.55, 42133.46, 1487.15, 21681.15, 569.77, 1424.81, 12398.09, -47808.05, -29376.72, 29602.74, 2396.82, 13979.96, 0.00, 0.00, 0.00, 0.00, 0.00, 0.00, 0.00
225, 13532.77, 42114.62, 1474.05, 21669.43, 556.29, 1419.81, 12382.55, -47824.64, -29376.72, 29602.74, 2396.82, 13979.96, 0.00, 0.00, 0.00, 0.00, 0.00, 0.00, 0.00
226, 13532.77, 42114.62, 1474.05, 21669.43, 556.29, 1419.81, 12382.55, -47824.64, -29375.91, 29576.36, 2373.62, 14005.36, 0.00, 0.00, 0.00, 0.00, 0.00, 0.00, 0.00
227, 13529.78, 42130.60, 1477.49, 21675.76, 557.21, 1419.69, 12388.95, -47813.73, -29375.91, 29576.36, 2373.62, 14005.36, 0.00, 0.00, 0.00, 0.00, 0.00, 0.00, 0.00
228, 13529.78, 42130.60, 1477.49, 21675.76, 557.21, 1419.69, 12388.95, -47813.73, -29373.72, 29604.95, 2388.10, 13993.98, 0.00, 0.00, 0.00, 0.00, 0.00, 0.00, 0.00
229, 13533.87, 42128.99, 1477.96, 21673.21, 562.08, 1418.64, 12386.98, -47817.40, -29373.72, 29604.95, 2388.10, 13993.98, 0.00, 0.00, 0.00, 0.00, 0.00, 0.00, 0.00
230, 13533.87, 42128.99, 1477.96, 21673.21, 562.08, 1418.64, 12386.98, -47817.40, -29365.65, 29582.00, 2373.62, 14008.02, 0.00, 0.00, 0.00, 0.00, 0.00, 0.00, 0.00
231, 13541.98, 42123.34, 1478.84, 21676.34, 563.35, 1422.62, 12393.51, -47811.59, -29365.65, 29582.00, 2373.62, 14008.02, 0.00, 0.00, 0.00, 0.00, -0.12, 0.40, 0.91
232, 13541.98, 42123.34, 1478.84, 21676.34, 563.35, 1422.62, 12393.51, -47811.59, -29374.10, 29603.43, 2389.87, 13957.99, 0.00, 0.00, 0.00, 0.00, 0.00, 0.00, 0.00
233, 13538.07, 42120.16, 1484.96, 21676.52, 562.84, 1422.02, 12391.14, -47814.16, -29374.10, 29603.43, 2389.87, 13957.99, 0.00, 0.00, 0.00, 0.00, 0.00, 0.00, 0.00
234, 13538.07, 42120.16, 1484.96, 21676.52, 562.84, 1422.02, 12391.14, -47814.16, -29368.31, 29581.21, 2378.40, 13975.16, 0.00, 0.00, 0.00, 0.00, 0.00, 0.00, 0.00
235, 13532.35, 42123.11, 1480.00, 21677.46, 565.99, 1419.96, 12388.05, -47815.25, -29368.31, 29581.21, 2378.40, 13975.16, 0.00, 0.00, 0.00, 0.00, 0.00, 0.00, 0.00
236, 13532.35, 42123.11, 1480.00, 21677.46, 565.99, 1419.96, 12388.05, -47815.25, -29374.62, 29600.93, 2389.36, 14021.52, 0.00, 0.00, 0.00, 0.00, 0.00, 0.00, 0.00
237, 13526.78, 42131.34, 1478.75, 21672.70, 564.58, 1426.15, 12389.62, -47812.79, -29374.62, 29600.93, 2389.36, 14021.52, 0.00, 0.00, 0.00, 0.00, 0.00, 0.00, 0.00
238, 13526.78, 42131.34, 1478.75, 21672.70, 564.58, 1426.15, 12389.62, -47812.79, -29366.14, 29581.84, 2372.32, 13978.98, 0.00, 0.00, 0.00, 0.00, 0.00, 0.00, 0.00
239, 13524.71, 42129.21, 1475.26, 21669.90, 558.28, 1413.86, 12382.80, -47821.46, -29366.14, 29581.84, 2372.32, 13978.98, 0.00, 0.00, 0.00, 0.00, 0.00, 0.00, 0.00
240, 13524.71, 42129.21, 1475.26, 21669.90, 558.28, 1413.86, 12382.80, -47821.46, -29376.20, 29601.02, 2386.16, 13968.03, 0.00, 0.00, 0.00, 0.00, 0.00, 0.00, 0.00
241, 13539.93, 42146.52, 1482.84, 21677.86, 563.11, 1420.57, 12392.88, -47809.17, -29376.20, 29601.02, 2386.16, 13968.03, 0.00, 0.00, 0.00, 0.00, -0.13, 0.41, 0.91
242, 13539.93, 42146.52, 1482.84, 21677.86, 563.11, 1420.57, 12392.88, -47809.17, -29370.15, 29577.01, 2374.36, 13975.27, 0.00, 0.00, 0.00, 0.00, 0.00, 0.00, 0.00
243, 13545.47, 42143.05, 1472.87, 21674.98, 553.03, 1430.87, 12382.60, -47817.20, -29370.15, 29577.01, 2374.36, 13975.27, 0.00, 0.00, 0.00, 0.00, 0.00, 0.00, 0.00
244, 13545.47, 42143.05, 1472.87, 21674.98, 553.03, 1430.87, 12382.60, -47817.20, -29364.85, 29601.22, 2382.65, 14000.48, 0.00, 0.00, 0.00, 0.00, 0.00, 0.00, 0.00
245, 13535.17, 42126.60, 1481.70, 21678.62, 565.70, 1416.39, 12396.50, -47808.34, -29364.85, 29601.22, 2382.65, 14000.48, 0.00, 0.00, 0.00, 0.00, 0.00, 0.00, 0.00
246, 13535.17, 42126.60, 1481.70, 21678.62, 565.70, 1416.39, 12396.50, -47808.34, -29369.63, 29582.91, 2368.55, 13965.91, 0.00, 0.00, 0.00, 0.00, 0.00, 0.00, 0.00
247, 13520.70, 42109.37, 1477.23, 21666.95, 561.36, 1410.82, 12380.27, -47816.79, -29369.63, 29582.91, 2368.55, 13965.91, 0.00, 0.00, 0.00, 0.00, 0.00, 0.00, 0.00
248, 13520.70, 42109.37, 1477.23, 21666.95, 561.36, 1410.82, 12380.27, -47816.79, -29361.81, 29602.78, 2378.83, 13967.58, 0.00, 0.00, 0.00, 0.00, 0.00, 0.00, 0.00
249, 13540.11, 42128.45, 1480.47, 21681.88, 570.22, 1423.67, 12396.37, -47802.69, -29361.81, 29602.78, 2378.83, 13967.58, 0.00, 0.00, 0.00, 0.00, 0.00, 0.00, 0.00
250, 13540.11, 42128.45, 1480.47, 21681.88, 570.22, 1423.67, 12396.37, -47802.69, -29362.59, 29587.70, 2373.71, 14037.21, 0.00, 0.00, 0.00, 0.00, -0.13, 0.41, 0.91
251, 13530.83, 42131.09, 1479.98, 21668.09, 554.08, 1414.51, 12378.08, -47817.24, -29362.59, 29587.70, 2373.71, 14037.21, 0.00, 0.00, 0.00, 0.00, 0.00, 0.00, 0.00
252, 13530.83, 42131.09, 1479.98, 21668.09, 554.08, 1414.51, 12378.08, -47817.24, -29371.85, 29590.85, 2376.01, 13967.18, 0.00, 0.00, 0.00, 0.00, 0.00, 0.00, 0.00
253, 13548.20, 42153.13, 1492.98, 21687.67, 568.56, 1428.08, 12396.61, -47804.19, -29371.85, 29590.85, 2376.01, 13967.18, 0.00, 0.00, 0.00, 0.00, 0.00, 0.00, 0.00
254, 13548.20, 42153.13, 1492.98, 21687.67, 568.56, 1428.08, 12396.61, -47804.19, -29364.22, 29584.12, 2383.97, 13968.61, 0.00, 0.00, 0.00, 0.00, 0.00, 0.00, 0.00
255, 13551.53, 42147.54, 1487.22, 21673.19, 560.74, 1416.72, 12385.66, -47812.37, -29364.22, 29584.12, 2383.97, 13968.61, 0.00, 0.00, 0.00, 0.00, 0.00, 0.00, 0.00
0, 13551.53, 42147.54, 1487.22, 21673.19, 560.74, 1416.72, 12385.66, -47812.37, -29356.06, 29600.39, 2385.22, 14003.97, 0.00, 0.00, 0.00, 0.00, 0.00, 0.00, 0.00
1, 13546.34, 42150.76, 1490.84, 21687.99, 572.61, 1431.00, 12401.82, -47792.34, -29356.06, 29600.39, 2385.22, 14003.97, 0.00, 0.00, 0.00, 0.00, 0.00, 0.00, 0.00
2, 13546.34, 42150.76, 1490.84, 21687.99, 572.61, 1431.00, 12401.82, -47792.34, -29357.36, 29599.47, 2384.69, 13978.04, 0.00, 0.00, 0.00, 0.00, 0.00, 0.00, 0.00
3, 13529.85, 42126.93, 1482.81, 21666.66, 554.88, 1414.44, 12378.95, -47819.50, -29357.36, 29599.47, 2384.69, 13978.04, 0.00, 0.00, 0.00, 0.00, 0.00, 0.00, 0.00
4, 13529.85, 42126.93, 1482.81, 21666.66, 554.88, 1414.44, 12378.95, -47819.50, -29363.31, 29586.42, 2373.98, 13970.49, 0.00, 0.00, 0.00, 0.00, -0.12, 0.40, 0.91
5, 13546.12, 42140.97, 1493.52, 21686.85, 567.67, 1433.86, 12396.88, -47798.96, -29363.31, 29586.42, 2373.98, 13970.49, 0.00, 0.00, 0.00, 0.00, 0.00, 0.00, 0.00
6, 13546.12, 42140.97, 1493.52, 21686.85, 567.67, 1433.86, 12396.88, -47798.96, -29359.48, 29602.72, 2388.37, 13972.68, 0.00, 0.00, 0.00, 0.00, 0.00, 0.00, 0.00
7, 13531.43, 42143.59, 1489.12, 21671.36, 560.02, 1419.38, 12380.05, -47815.81, -29359.48, 29602.72, 2388.37, 13972.68, 0.00, 0.00, 0.00, 0.00, 0.00, 0.00, 0.00
8, 13531.43, 42143.59, 1489.12, 21671.36, 560.02, 1419.38, 12380.05, -47815.81, -29360.94, 29589.22, 2375.92, 14028.85, 0.00, 0.00, 0.00, 0.00, 0.00, 0.00, 0.00
9, 13553.52, 42150.76, 1490.06, 21680.97, 568.29, 1424.63, 12399.25, -47799.16, -29360.94, 29589.22, 2375.92, 14028.85, 0.00, 0.00, 0.00, 0.00, 0.00, 0.00, 0.00
10, 13553.52, 42150.76, 1490.06, 21680.97, 568.29, 1424.63, 12399.25, -47799.16, -29357.16, 29601.44, 2387.03, 13987.16, 0.00, 0.00, 0.00, 0.00, 0.00, 0.00, 0.00
11, 13529.44, 42120.03, 1485.92, 21668.76, 556.85, 1416.72, 12386.35, -47810.02, -29357.16, 29601.44, 2387.03, 13987.16, 0.00, 0.00, 0.00, 0.00, 0.00, 0.00, 0.00
12, 13529.44, 42120.03, 1485.92, 21668.76, 556.85, 1416.72, 12386.35, -47810.02, -29353.58, 29593.87, 2369.84, 13995.77, 0.00, 0.00, 0.00, 0.00, 0.00, 0.00, 0.00
13, 13531.83, 42124.59, 1484.02, 21673.28, 564.29, 1421.39, 12390.80, -47806.38, -29353.58, 29593.87, 2369.84, 13995.77, 0.00, 0.00, 0.00, 0.00, 0.00, 0.00, 0.00
14, 13531.83, 42124.59, 1484.02, 21673.28, 564.29, 1421.39, 12390.80, -47806.38, -29364.92, 29600.35, 2385.27, 13942.44, 0.00, 0.00, 0.00, 0.00, -0.12, 0.41, 0.91
15, 13528.73, 42133.28, 1483.98, 21668.03, 559.62, 1417.64, 12382.80, -47810.02, -29364.92, 29600.35, 2385.27, 13942.44, 0.00, 0.00, 0.00, 0.00, 0.00, 0.00, 0.00
16, 13528.73, 42133.28, 1483.98, 21668.03, 559.62, 1417.64, 12382.80, -47810.02, -29354.41, 29583.67, 2372.62, 14021.41, 0.00, 0.00, 0.00, 0.00, 0.00, 0.00, 0.00
17, 13531.05, 42127.67, 1484.18, 21669.48, 563.40, 1420.52, 12392.01, -47805.42, -29354.41, 29583.67, 2372.62, 14021.41, 0.00, 0.00, 0.00, 0.00, 0.00, 0.00, 0.00
18, 13531.05, 42127.67, 1484.18, 21669.48, 563.40, 1420.52, 12392.01, -47805.42, -29363.71, 29603.90, 2384.06, 13997.44, 0.00, 0.00, 0.00, 0.00, 0.00, 0.00, 0.00
19, 13527.95, 42129.93, 1481.34, 21666.13, 559.04, 1416.03, 12381.82, -47810.67, -29363.71, 29603.90, 2384.06, 13997.44, 0.00, 0.00, 0.00, 0.00, 0.00, 0.00, 0.00
20, 13527.95, 42129.93, 1481.34, 21666.13, 559.04, 1416.03, 12381.82, -47810.67, -29351.44, 29581.68, 2372.10, 13943.98, 0.00, 0.00, 0.00, 0.00, 0.00, 0.00, 0.00
21, 13537.83, 42147.23, 1484.78, 21670.04, 559.24, 1425.33, 12389.39, -47806.89, -29351.44, 29581.68, 2372.10, 13943.98, 0.00, 0.00, 0.00, 0.00, 0.00, 0.00, 0.00
22, 13537.83, 42147.23, 1484.78, 21670.04, 559.24, 1425.33, 12389.39, -47806.89, -29364.29, 29604.39, 2382.92, 13966.98, 0.00, 0.00, 0.00, 0.00, 0.00, 0.00, 0.00
23, 13525.80, 42119.31, 1478.61, 21662.51, 551.06, 1414.55, 12381.84, -47812.50, -29364.29, 29604.39, 2382.92, 13966.98, 0.00, 0.00, 0.00, 0.00, 0.00, 0.00, 0.00
24, 13525.80, 42119.31, 1478.61, 21662.51, 551.06, 1414.55, 12381.84, -47812.50, -29353.99, 29581.50, 2371.86, 13967.65, 0.00, 0.00, 0.00, 0.00, -0.12, 0.41, 0.91
25, 13525.73, 42128.21, 1478.08, 21661.25, 560.81, 1415.31, 12383.58, -47810.74, -29353.99, 29581.50, 2371.86, 13967.65, 0.00, 0.00, 0.00, 0.00, 0.00, 0.00, 0.00
26, 13525.73, 42128.21, 1478.08, 21661.25, 560.81, 1415.31, 12383.58, -47810.74, -29356.13, 29601.78, 2383.95, 14006.97, 0.00, 0.00, 0.00, 0.00, 0.00, 0.00, 0.00
27, 13532.82, 42143.68, 1492.83, 21668.43, 565.23, 1423.54, 12389.97, -47806.04, -29356.13, 29601.78, 2383.95, 14006.97, 0.00, 0.00, 0.00, 0.00, 0.00, 0.00, 0.00
28, 13532.82, 42143.68, 1492.83, 21668.43, 565.23, 1423.54, 12389.97, -47806.04, -29345.52, 29594.56, 2379.19, 13986.69, 0.00, 0.00, 0.00, 0.00, 0.00, 0.00, 0.00
29, 13546.18, 42146.27, 1487.91, 21667.00, 567.35, 1421.88, 12391.09, -47798.09, -29345.52, 29594.56, 2379.19, 13986.69, 0.00, 0.00, 0.00, 0.00, 0.00, 0.00, 0.00
30, 13546.18, 42146.27, 1487.91, 21667.00, 567.35, 1421.88, 12391.09, -47798.09, -29351.24, 29612.60, 2394.16, 13975.23, 0.00, 0.00, 0.00, 0.00, 0.00, 0.00, 0.00
31, 13538.47, 42148.48, 1497.19, 21670.73, 563.91, 1424.68, 12394.80, -47800.48, -29351.24, 29612.60, 2394.16, 13975.23, 0.00, 0.00, 0.00, 0.00, 0.00, 0.00, 0.00
32, 13538.47, 42148.48, 1497.19, 21670.73, 563.91, 1424.68, 12394.80, -47800.48, -29347.46, 29597.55, 2386.61, 13972.59, 0.00, 0.00, 0.00, 0.00, 0.00, 0.00, 0.00
33, 13548.31, 42147.27, 1488.45, 21661.01, 558.77, 1414.80, 12383.31, -47807.14, -29347.46, 29597.55, 2386.61, 13972.59, 0.00, 0.00, 0.00, 0.00, -0.12, 0.41, 0.92
34, 13548.31, 42147.27, 1488.45, 21661.01, 558.77, 1414.80, 12383.31, -47807.14, -29357.12, 29599.81, 2391.79, 14007.99, 0.00, 0.00, 0.00, 0.00, 0.00, 0.00, 0.00
35, 13561.52, 42174.45, 1501.37, 21672.68, 563.20, 1428.30, 12394.78, -47800.12, -29357.12, 29599.81, 2391.79, 14007.99, 0.00, 0.00, 0.00, 0.00, 0.00, 0.00, 0.00
36, 13561.52, 42174.45, 1501.37, 21672.68, 563.20, 1428.30, 12394.78, -47800.12, -29343.64, 29594.24, 2393.04, 13991.66, 0.00, 0.00, 0.00, 0.00, 0.00, 0.00, 0.00
37, 13530.85, 42126.40, 1492.43, 21658.84, 565.57, 1414.28, 12384.27, -47808.88, -29343.64, 29594.24, 2393.04, 13991.66, 0.00, 0.00, 0.00, 0.00, 0.00, 0.00, 0.00
38, 13530.85, 42126.40, 1492.43, 21658.84, 565.57, 1414.28, 12384.27, -47808.88, -29351.97, 29602.61, 2391.68, 13999.25, 0.00, 0.00, 0.00, 0.00, 0.00, 0.00, 0.00
39, 13534.25, 42147.36, 1493.97, 21669.01, 567.94, 1420.99, 12392.01, -47803.36, -29351.97, 29602.61, 2391.68, 13999.25, 0.00, 0.00, 0.00, 0.00, 0.00, 0.00, 0.00
40, 13534.25, 42147.36, 1493.97, 21669.01, 567.94, 1420.99, 12392.01, -47803.36, -29349.70, 29594.24, 2387.21, 14015.95, 0.00, 0.00, 0.00, 0.00, 0.00, 0.00, 0.00
41, 13532.33, 42139.43, 1496.00, 21662.97, 555.57, 1419.45, 12383.87, -47807.54, -29349.70, 29594.24, 2387.21, 14015.95, 0.00, 0.00, 0.00, 0.00, 0.00, 0.00, 0.00
42, 13532.33, 42139.43, 1496.00, 21662.97, 555.57, 1419.45, 12383.87, -47807.54, -29347.64, 29603.86, 2394.81, 13972.70, 0.00, 0.00, 0.00, 0.00, 0.00, 0.00, 0.00
43, 13546.25, 42144.05, 1490.41, 21667.47, 564.11, 1423.69, 12390.26, -47801.26, -29347.64, 29603.86, 2394.81, 13972.70, 0.00, 0.00, 0.00, 0.00, -0.12, 0.41, 0.91
44, 13546.25, 42144.05, 1490.41, 21667.47, 564.11, 1423.69, 12390.26, -47801.26, -29348.44, 29593.96, 2387.81, 13978.33, 0.00, 0.00, 0.00, 0.00, 0.00, 0.00, 0.00
45, 13534.79, 42147.01, 1485.47, 21653.32, 552.07, 1409.79, 12377.01, -47810.11, -29348.44, 29593.96, 2387.81, 13978.33, 0.00, 0.00, 0.00, 0.00, 0.00, 0.00, 0.00
46, 13534.79, 42147.01, 1485.47, 21653.32, 552.07, 1409.79, 12377.01, -47810.11, -29351.91, 29592.70, 2384.24, 14008.98, 0.00, 0.00, 0.00, 0.00, 0.00, 0.00, 0.00
47, 13548.29, 42154.25, 1494.55, 21672.81, 565.43, 1424.74, 12392.34, -47797.19, -29351.91, 29592.70, 2384.24, 14008.98, 0.00, 0.00, 0.00, 0.00, 0.00, 0.00, 0.00
48, 13548.29, 42154.25, 1494.55, 21672.81, 565.43, 1424.74, 12392.34, -47797.19, -29346.83, 29603.48, 2391.39, 13980.39, 0.00, 0.00, 0.00, 0.00, 0.00, 0.00, 0.00
49, 13542.30, 42145.40, 1495.13, 21657.45, 559.40, 1415.20, 12379.22, -47807.16, -29346.83, 29603.48, 2391.39, 13980.39, 0.00, 0.00, 0.00, 0.00, 0.00, 0.00, 0.00
50, 13542.30, 42145.40, 1495.13, 21657.45, 559.40, 1415.20, 12379.22, -47807.16, -29348.35, 29592.79, 2386.32, 13995.57, 0.00, 0.00, 0.00, 0.00, 0.00, 0.00, 0.00
51, 13546.70, 42158.32, 1498.57, 21669.01, 561.70, 1423.63, 12392.88, -47797.04, -29348.35, 29592.79, 2386.32, 13995.57, 0.00, 0.00, 0.00, 0.00, 0.00, 0.00, 0.00
52, 13546.70, 42158.32, 1498.57, 21669.01, 561.70, 1423.63, 12392.88, -47797.04, -29345.96, 29605.60, 2394.52, 13975.52, 0.00, 0.00, 0.00, 0.00, 0.00, 0.00, 0.00
53, 13541.94, 42140.46, 1491.35, 21657.32, 550.70, 1416.50, 12376.90, -47809.29, -29345.96, 29605.60, 2394.52, 13975.52, 0.00, 0.00, 0.00, 0.00, -0.12, 0.41, 0.91
54, 13541.94, 42140.46, 1491.35, 21657.32, 550.70, 1416.50, 12376.90, -47809.29, -29340.31, 29595.92, 2388.17, 13988.84, 0.00, 0.00, 0.00, 0.00, 0.00, 0.00, 0.00
55, 13547.03, 42160.82, 1505.52, 21674.82, 570.91, 1425.48, 12394.71, -47793.14, -29340.31, 29595.92, 2388.17, 13988.84, 0.00, 0.00, 0.00, 0.00, 0.00, 0.00, 0.00
56, 13547.03, 42160.82, 1505.52, 21674.82, 570.91, 1425.48, 12394.71, -47793.14, -29341.25, 29600.30, 2402.86, 13968.83, 0.00, 0.00, 0.00, 0.00, 0.00, 0.00, 0.00
57, 13547.30, 42143.77, 1496.40, 21662.66, 558.03, 1419.56, 12385.17, -47801.37, -29341.25, 29600.30, 2402.86, 13968.83, 0.00, 0.00, 0.00, 0.00, 0.00, 0.00, 0.00
58, 13547.30, 42143.77, 1496.40, 21662.66, 558.03, 1419.56, 12385.17, -47801.37, -29331.99, 29595.63, 2394.77, 14014.86, 0.00, 0.00, 0.00, 0.00, 0.00, 0.00, 0.00
59, 13552.02, 42160.93, 1504.88, 21676.01, 571.02, 1427.83, 12400.57, -47787.67, -29331.99, 29595.63, 2394.77, 14014.86, 0.00, 0.00, 0.00, 0.00, 0.00, 0.00, 0.00
60, 13552.02, 42160.93, 1504.88, 21676.01, 571.02, 1427.83, 12400.57, -47787.67, -29335.68, 29616.73, 2399.59, 13998.47, 0.00, 0.00, 0.00, 0.00, 0.00, 0.00, 0.00
61, 13537.33, 42157.40, 1499.35, 21660.79, 558.75, 1420.25, 12386.64, -47796.01, -29335.68, 29616.73, 2399.59, 13998.47, 0.00, 0.00, 0.00, 0.00, 0.00, 0.00, 0.00
62, 13537.33, 42157.40, 1499.35, 21660.79, 558.75, 1420.25, 12386.64, -47796.01, -29333.74, 29604.88, 2383.95, 13981.33, 0.00, 0.00, 0.00, 0.00, 0.00, 0.00, 0.00
63, 13533.87, 42150.47, 1499.44, 21671.27, 568.65, 1428.95, 12396.77, -47786.73, -29333.74, 29604.88, 2383.95, 13981.33, 0.00, 0.00, 0.00, 0.00, -0.12, 0.41, 0.92
64, 13533.87, 42150.47, 1499.44, 21671.27, 568.65, 1428.95, 12396.77, -47786.73, -29336.98, 29614.27, 2398.41, 13987.99, 0.00, 0.00, 0.00, 0.00, 0.00, 0.00, 0.00
65, 13539.03, 42148.13, 1494.82, 21661.52, 556.49, 1420.72, 12384.50, -47797.46, -29336.98, 29614.27, 2398.41, 13987.99, 0.00, 0.00, 0.00, 0.00, 0.00, 0.00, 0.00
66, 13539.03, 42148.13, 1494.82, 21661.52, 556.49, 1420.72, 12384.50, -47797.46, -29338.61, 29588.93, 2378.69, 13997.49, 0.00, 0.00, 0.00, 0.00, 0.00, 0.00, 0.00
67, 13535.41, 42140.43, 1491.33, 21658.04, 553.00, 1416.43, 12384.77, -47801.33, -29338.61, 29588.93, 2378.69, 13997.49, 0.00, 0.00, 0.00, 0.00, 0.00, 0.00, 0.00
68, 13535.41, 42140.43, 1491.33, 21658.04, 553.00, 1416.43, 12384.77, -47801.33, -29344.58, 29605.04, 2393.27, 13988.88, 0.00, 0.00, 0.00, 0.00, 0.00, 0.00, 0.00
69, 13532.66, 42142.45, 1494.01, 21654.68, 556.67, 1413.32, 12378.93, -47804.99, -29344.58, 29605.04, 2393.27, 13988.88, 0.00, 0.00, 0.00, 0.00, 0.00, 0.00, 0.00
70, 13532.66, 42142.45, 1494.01, 21654.68, 556.67, 1413.32, 12378.93, -47804.99, -29329.64, 29593.87, 2386.79, 13998.23, 0.00, 0.00, 0.00, 0.00, 0.00, 0.00, 0.00
71, 13538.72, 42153.38, 1500.34, 21664.61, 568.40, 1420.88, 12390.02, -47788.12, -29329.64, 29593.87, 2386.79, 13998.23, 0.00, 0.00, 0.00, 0.00, 0.00, 0.00, 0.00
72, 13538.72, 42153.38, 1500.34, 21664.61, 568.40, 1420.88, 12390.02, -47788.12, -29336.24, 29614.81, 2398.61, 13966.80, 0.00, 0.00, 0.00, 0.00, -0.12, 0.41, 0.92
73, 13544.53, 42162.70, 1497.72, 21661.99, 557.25, 1421.03, 12388.14, -47791.67, -29336.24, 29614.81, 2398.61, 13966.80, 0.00, 0.00, 0.00, 0.00, 0.00, 0.00, 0.00
74, 13544.53, 42162.70, 1497.72, 21661.99, 557.25, 1421.03, 12388.14, -47791.67, -29327.16, 29600.32, 2382.47, 14026.84, 0.00, 0.00, 0.00, 0.00, 0.00, 0.00, 0.00
75, 13536.01, 42149.96, 1495.96, 21655.24, 555.93, 1416.03, 12386.33, -47791.74, -29327.16, 29600.32, 2382.47, 14026.84, 0.00, 0.00, 0.00, 0.00, 0.00, 0.00, 0.00
76, 13536.01, 42149.96, 1495.96, 21655.24, 555.93, 1416.03, 12386.33, -47791.74, -29336.37, 29616.13, 2392.40, 13968.72, 0.00, 0.00, 0.00, 0.00, 0.00, 0.00, 0.00
77, 13545.76, 42171.88, 1504.07, 21665.77, 559.96, 1422.33, 12389.62, -47792.14, -29336.37, 29616.13, 2392.40, 13968.72, 0.00, 0.00, 0.00, 0.00, 0.00, 0.00, 0.00
78, 13545.76, 42171.88, 1504.07, 21665.77, 559.96, 1422.33, 12389.62, -47792.14, -29323.92, 29596.79, 2394.99, 13976.86, 0.00, 0.00, 0.00, 0.00, 0.00, 0.00, 0.00
79, 13551.55, 42152.59, 1505.50, 21663.71, 555.98, 1419.67, 12387.83, -47790.64, -29323.92, 29596.79, 2394.99, 13976.86, 0.00, 0.00, 0.00, 0.00, 0.00, 0.00, 0.00
80, 13551.55, 42152.59, 1505.50, 21663.71, 555.98, 1419.67, 12387.83, -47790.64, -29340.55, 29604.66, 2391.70, 14025.52, 0.00, 0.00, 0.00, 0.00, 0.00, 0.00, 0.00
81, 13545.11, 42145.66, 1509.66, 21664.34, 561.79, 1418.67, 12385.48, -47796.36, -29340.55, 29604.66, 2391.70, 14025.52, 0.00, 0.00, 0.00, 0.00, 0.00, 0.00, 0.00
82, 13545.11, 42145.66, 1509.66, 21664.34, 561.79, 1418.67, 12385.48, -47796.36, -29330.61, 29587.85, 2384.60, 13986.45, 0.00, 0.00, 0.00, 0.00, -0.12, 0.41, 0.91
83, 13544.98, 42149.55, 1501.61, 21661.34, 555.71, 1419.40, 12379.94, -47798.87, -29330.61, 29587.85, 2384.60, 13986.45, 0.00, 0.00, 0.00, 0.00, 0.00, 0.00, 0.00
84, 13544.98, 42149.55, 1501.61, 21661.34, 555.71, 1419.40, 12379.94, -47798.87, -29339.59, 29612.55, 2384.84, 13946.42, 0.00, 0.00, 0.00, 0.00, 0.00, 0.00, 0.00
85, 13535.95, 42161.07, 1501.79, 21671.78, 560.49, 1425.55, 12391.70, -47785.12, -29339.59, 29612.55, 2384.84, 13946.42, 0.00, 0.00, 0.00, 0.00, 0.00, 0.00, 0.00
86, 13535.95, 42161.07, 1501.79, 21671.78, 560.49, 1425.55, 12391.70, -47785.12, -29333.47, 29598.56, 2383.41, 14021.20, 0.00, 0.00, 0.00, 0.00, 0.00, 0.00, 0.00
87, 13527.54, 42142.65, 1493.32, 21659.78, 547.39, 1415.89, 12380.83, -47794.71, -29333.47, 29598.56, 2383.41, 14021.20, 0.00, 0.00, 0.00, 0.00, 0.00, 0.00, 0.00
88, 13527.54, 42142.65, 1493.32, 21659.78, 547.39, 1415.89, 12380.83, -47794.71, -29333.31, 29601.20, 2388.19, 13993.13, 0.00, 0.00, 0.00, 0.00, 0.00, 0.00, 0.00
89, 13536.06, 42145.31, 1501.43, 21674.06, 569.61, 1427.49, 12392.14, -47785.50, -29333.31, 29601.20, 2388.19, 13993.13, 0.00, 0.00, 0.00, 0.00, 0.00, 0.00, 0.00
90, 13536.06, 42145.31, 1501.43, 21674.06, 569.61, 1427.49, 12392.14, -47785.50, -29326.09, 29603.19, 2385.18, 13967.29, 0.00, 0.00, 0.00, 0.00, 0.00, 0.00, 0.00
91, 13535.14, 42138.16, 1494.04, 21659.91, 553.61, 1417.03, 12379.74, -47792.90, -29326.09, 29603.19, 2385.18, 13967.29, 0.00, 0.00, 0.00, 0.00, 0.00, 0.00, 0.00
92, 13535.14, 42138.16, 1494.04, 21659.91, 553.61, 1417.03, 12379.74, -47792.90, -29327.16, 29610.21, 2387.01, 13974.76, 0.00, 0.00, 0.00, 0.00, -0.12, 0.41, 0.91
93, 13526.58, 42149.55, 1495.80, 21668.67, 558.73, 1422.91, 12390.76, -47786.11, -29327.16, 29610.21, 2387.01, 13974.76, 0.00, 0.00, 0.00, 0.00, 0.00, 0.00, 0.00
94, 13526.58, 42149.55, 1495.80, 21668.67, 558.73, 1422.91, 12390.76, -47786.11, -29336.31, 29601.13, 2378.52, 14006.25, 0.00, 0.00, 0.00, 0.00, 0.00, 0.00, 0.00
95, 13517.60, 42124.43, 1480.78, 21648.63, 543.80, 1409.66, 12370.44, -47798.18, -29336.31, 29601.13, 2378.52, 14006.25, 0.00, 0.00, 0.00, 0.00, 0.00, 0.00, 0.00
96, 13517.60, 42124.43, 1480.78, 21648.63, 543.80, 1409.66, 12370.44, -47798.18, -29330.25, 29607.57, 2379.99, 13973.42, 0.00, 0.00, 0.00, 0.00, 0.00, 0.00, 0.00
97, 13528.82, 42139.47, 1494.68, 21668.43, 549.96, 1423.58, 12388.43, -47784.95, -29330.25, 29607.57, 2379.99, 13973.42, 0.00, 0.00, 0.00, 0.00, 0.00, 0.00, 0.00
98, 13528.82, 42139.47, 1494.68, 21668.43, 549.96, 1423.58, 12388.43, -47784.95, -29330.81, 29605.31, 2386.29, 14019.10, 0.00, 0.00, 0.00, 0.00, 0.00, 0.00, 0.00
99, 13524.35, 42139.45, 1485.12, 21651.73, 543.42, 1412.52, 12371.85, -47795.23, -29330.81, 29605.31, 2386.29, 14019.10, 0.00, 0.00, 0.00, 0.00, 0.00, 0.00, 0.00
100, 13524.35, 42139.45, 1485.12, 21651.73, 543.42, 1412.52, 12371.85, -47795.23, -29322.25, 29598.49, 2382.36, 14007.97, 0.00, 0.00, 0.00, 0.00, 0.00, 0.00, 0.00
101, 13547.33, 42154.02, 1498.48, 21669.50, 564.85, 1422.24, 12391.36, -47778.89, -29322.25, 29598.49, 2382.36, 14007.97, 0.00, 0.00, 0.00, 0.00, 0.00, 0.00, 0.00
102, 13547.33, 42154.02, 1498.48, 21669.50, 564.85, 1422.24, 12391.36, -47778.89, -29322.69, 29615.81, 2395.64, 13931.33, 0.00, 0.00, 0.00, 0.00, -0.12, 0.41, 0.91
103, 13525.82, 42125.13, 1498.82, 21661.52, 551.84, 1416.74, 12376.18, -47788.95, -29322.69, 29615.81, 2395.64, 13931.33, 0.00, 0.00, 0.00, 0.00, 0.00, 0.00, 0.00
104, 13525.82, 42125.13, 1498.82, 21661.52, 551.84, 1416.74, 12376.18, -47788.95, -29321.31, 29607.19, 2386.81, 14035.64, 0.00, 0.00, 0.00, 0.00, 0.00, 0.00, 0.00
105, 13534.25, 42154.56, 1502.53, 21677.59, 554.68, 1426.80, 12391.56, -47778.80, -29321.31, 29607.19, 2386.81, 14035.64, 0.00, 0.00, 0.00, 0.00, 0.00, 0.00, 0.00
106, 13534.25, 42154.56, 1502.53, 21677.59, 554.68, 1426.80, 12391.56, -47778.80, -29328.59, 29616.87, 2388.26, 14014.99, 0.00, 0.00, 0.00, 0.00, 0.00, 0.00, 0.00
107, 13534.52, 42147.48, 1495.53, 21661.01, 546.14, 1419.29, 12379.92, -47784.65, -29328.59, 29616.87, 2388.26, 14014.99, 0.00, 0.00, 0.00, 0.00, 0.00, 0.00, 0.00
108, 13534.52, 42147.48, 1495.53, 21661.01, 546.14, 1419.29, 12379.92, -47784.65, -29322.52, 29601.84, 2380.04, 13962.89, 0.00, 0.00, 0.00, 0.00, 0.00, 0.00, 0.00
109, 13525.46, 42134.00, 1491.02, 21668.07, 552.27, 1421.53, 12386.67, -47779.89, -29322.52, 29601.84, 2380.04, 13962.89, 0.00, 0.00, 0.00, 0.00, 0.00, 0.00, 0.00
110, 13525.46, 42134.00, 1491.02, 21668.07, 552.27, 1421.53, 12386.67, -47779.89, -29328.17, 29615.75, 2382.70, 13986.63, 0.00, 0.00, 0.00, 0.00, 0.00, 0.00, 0.00
111, 13527.95, 42131.25, 1494.04, 21662.44, 558.37, 1418.67, 12378.82, -47785.41, -29328.17, 29615.75, 2382.70, 13986.63, 0.00, 0.00, 0.00, 0.00, -0.12, 0.41, 0.91
112, 13527.95, 42131.25, 1494.04, 21662.44, 558.37, 1418.67, 12378.82, -47785.41, -29315.27, 29605.96, 2381.18, 13977.57, 0.00, 0.00, 0.00, 0.00, 0.00, 0.00, 0.00
113, 13534.07, 42137.86, 1500.34, 21664.14, 556.89, 1423.14, 12387.65, -47779.40, -29315.27, 29605.96, 2381.18, 13977.57, 0.00, 0.00, 0.00, 0.00, 0.00, 0.00, 0.00
114, 13534.07, 42137.86, 1500.34, 21664.14, 556.89, 1423.14, 12387.65, -47779.40, -29327.46, 29619.08, 2393.83, 13992.77, 0.00, 0.00, 0.00, 0.00, 0.00, 0.00, 0.00
115, 13522.58, 42146.67, 1501.90, 21656.72, 547.44, 1415.13, 12378.31, -47783.74, -29327.46, 29619.08, 2393.83, 13992.77, 0.00, 0.00, 0.00, 0.00, 0.00, 0.00, 0.00
116, 13522.58, 42146.67, 1501.90, 21656.72, 547.44, 1415.13, 12378.31, -47783.74, -29314.11, 29605.00, 2386.09, 14016.47, 0.00, 0.00, 0.00, 0.00, 0.00, 0.00, 0.00
117, 13536.28, 42155.39, 1503.40, 21663.47, 559.67, 1420.86, 12389.04, -47771.76, -29314.11, 29605.00, 2386.09, 14016.47, 0.00, 0.00, 0.00, 0.00, 0.00, 0.00, 0.00
118, 13536.28, 42155.39, 1503.40, 21663.47, 559.67, 1420.86, 12389.04, -47771.76, -29314.40, 29631.80, 2405.58, 13989.33, 0.00, 0.00, 0.00, 0.00, 0.00, 0.00, 0.00
119, 13537.36, 42158.16, 1503.71, 21657.41, 558.73, 1421.21, 12387.43, -47770.79, -29314.40, 29631.80, 2405.58, 13989.33, 0.00, 0.00, 0.00, 0.00, 0.00, 0.00, 0.00
120, 13537.36, 42158.16, 1503.71, 21657.41, 558.73, 1421.21, 12387.43, -47770.79, -29303.40, 29611.21, 2395.32, 13984.61, 0.00, 0.00, 0.00, 0.00, 0.00, 0.00, 0.00
121, 13531.34, 42161.36, 1505.61, 21660.49, 557.50, 1423.47, 12386.33, -47773.34, -29303.40, 29611.21, 2395.32, 13984.61, 0.00, 0.00, 0.00, 0.00, -0.13, 0.41, 0.91
122, 13531.34, 42161.36, 1505.61, 21660.49, 557.50, 1423.47, 12386.33, -47773.34, -29311.90, 29634.39, 2405.87, 14032.02, 0.00, 0.00, 0.00, 0.00, 0.00, 0.00, 0.00
123, 13544.04, 42161.25, 1504.18, 21660.67, 560.65, 1422.22, 12385.01, -47773.05, -29311.90, 29634.39, 2405.87, 14032.02, 0.00, 0.00, 0.00, 0.00, 0.00, 0.00, 0.00
124, 13544.04, 42161.25, 1504.18, 21660.67, 560.65, 1422.22, 12385.01, -47773.05, -29309.89, 29611.95, 2393.13, 13966.06, 0.00, 0.00, 0.00, 0.00, 0.00, 0.00, 0.00
125, 13536.17, 42136.75, 1506.15, 21659.67, 556.18, 1421.84, 12385.46, -47776.54, -29309.89, 29611.95, 2393.13, 13966.06, 0.00, 0.00, 0.00, 0.00, 0.00, 0.00, 0.00
126, 13536.17, 42136.75, 1506.15, 21659.67, 556.18, 1421.84, 12385.46, -47776.54, -29317.40, 29621.18, 2404.00, 14023.62, 0.00, 0.00, 0.00, 0.00, 0.00, 0.00, 0.00
127, 13540.37, 42170.61, 1514.69, 21669.55, 565.21, 1424.63, 12389.62, -47772.09, -29317.40, 29621.18, 2404.00, 14023.62, 0.00, 0.00, 0.00, 0.00, 0.00, 0.00, 0.00
128, 13540.37, 42170.61, 1514.69, 21669.55, 565.21, 1424.63, 12389.62, -47772.09, -29308.75, 29609.36, 2401.16, 13974.78, 0.00, 0.00, 0.00, 0.00, 0.00, 0.00, 0.00
129, 13534.03, 42148.13, 1513.53, 21660.38, 554.26, 1419.40, 12380.45, -47778.53, -29308.75, 29609.36, 2401.16, 13974.78, 0.00, 0.00, 0.00, 0.00, 0.00, 0.00, 0.00
130, 13534.03, 42148.13, 1513.53, 21660.38, 554.26, 1419.40, 12380.45, -47778.53, -29313.39, 29624.82, 2411.53, 13997.15, 0.00, 0.00, 0.00, 0.00, 0.00, 0.00, 0.00
131, 13555.48, 42178.39, 1521.08, 21676.27, 568.00, 1428.99, 12392.63, -47770.41, -29313.39, 29624.82, 2411.53, 13997.15, 0.00, 0.00, 0.00, 0.00, -0.12, 0.41, 0.91
132, 13555.48, 42178.39, 1521.08, 21676.27, 568.00, 1428.99, 12392.63, -47770.41, -29307.72, 29613.96, 2412.20, 13973.21, 0.00, 0.00, 0.00, 0.00, 0.00, 0.00, 0.00
133, 13544.31, 42166.43, 1515.56, 21665.14, 549.67, 1420.70, 12385.73, -47772.25, -29307.72, 29613.96, 2412.20, 13973.21, 0.00, 0.00, 0.00, 0.00, 0.00, 0.00, 0.00
134, 13544.31, 42166.43, 1515.56, 21665.14, 549.67, 1420.70, 12385.73, -47772.25, -29313.57, 29626.81, 2415.75, 13963.60, 0.00, 0.00, 0.00, 0.00, 0.00, 0.00, 0.00
135, 13545.74, 42199.69, 1529.08, 21677.21, 575.58, 1430.00, 12396.21, -47759.51, -29313.57, 29626.81, 2415.75, 13963.60, 0.00, 0.00, 0.00, 0.00, 0.00, 0.00, 0.00
136, 13545.74, 42199.69, 1529.08, 21677.21, 575.58, 1430.00, 12396.21, -47759.51, -29302.35, 29616.55, 2417.43, 14033.88, 0.00, 0.00, 0.00, 0.00, 0.00, 0.00, 0.00
137, 13545.13, 42150.02, 1516.34, 21661.39, 565.07, 1424.68, 12381.12, -47773.72, -29302.35, 29616.55, 2417.43, 14033.88, 0.00, 0.00, 0.00, 0.00, 0.00, 0.00, 0.00
138, 13545.13, 42150.02, 1516.34, 21661.39, 565.07, 1424.68, 12381.12, -47773.72, -29303.36, 29619.73, 2419.26, 13998.81, 0.00, 0.00, 0.00, 0.00, 0.00, 0.00, 0.00
139, 13535.05, 42148.35, 1516.86, 21676.30, 566.26, 1428.81, 12398.71, -47760.71, -29303.36, 29619.73, 2419.26, 13998.81, 0.00, 0.00, 0.00, 0.00, 0.00, 0.00, 0.00
140, 13535.05, 42148.35, 1516.86, 21676.30, 566.26, 1428.81, 12398.71, -47760.71, -29301.35, 29626.14, 2419.62, 14012.00, 0.00, 0.00, 0.00, 0.00, 0.00, 0.00, 0.00
141, 13526.94, 42146.40, 1512.56, 21659.02, 565.14, 1420.90, 12382.78, -47769.92, -29301.35, 29626.14, 2419.62, 14012.00, 0.00, 0.00, 0.00, 0.00, -0.12, 0.41, 0.91
142, 13526.94, 42146.40, 1512.56, 21659.02, 565.14, 1420.90, 12382.78, -47769.92, -29304.70, 29624.51, 2409.43, 13965.01, 0.00, 0.00, 0.00, 0.00, 0.00, 0.00, 0.00
143, 13523.56, 42156.08, 1513.97, 21668.76, 559.53, 1428.25, 12388.28, -47766.50, -29304.70, 29624.51, 2409.43, 13965.01, 0.00, 0.00, 0.00, 0.00, 0.00, 0.00, 0.00
144, 13523.56, 42156.08, 1513.97, 21668.76, 559.53, 1428.25, 12388.28, -47766.50, -29307.16, 29612.84, 2402.41, 13989.75, 0.00, 0.00, 0.00, 0.00, 0.00, 0.00, 0.00
145, 13513.73, 42139.34, 1498.71, 21650.50, 550.32, 1411.98, 12372.32, -47776.67, -29307.16, 29612.84, 2402.41, 13989.75, 0.00, 0.00, 0.00, 0.00, 0.00, 0.00, 0.00
146, 13513.73, 42139.34, 1498.71, 21650.50, 550.32, 1411.98, 12372.32, -47776.67, -29300.57, 29622.54, 2401.99, 14013.05, 0.00, 0.00, 0.00, 0.00, 0.00, 0.00, 0.00
147, 13536.31, 42156.39, 1502.01, 21667.40, 555.93, 1432.79, 12396.66, -47754.46, -29300.57, 29622.54, 2401.99, 14013.05, 0.00, 0.00, 0.00, 0.00, 0.00, 0.00, 0.00
148, 13536.31, 42156.39, 1502.01, 21667.40, 555.93, 1432.79, 12396.66, -47754.46, -29288.65, 29625.43, 2393.65, 13980.52, 0.00, 0.00, 0.00, 0.00, 0.00, 0.00, 0.00
149, 13524.88, 42149.51, 1497.25, 21650.37, 554.68, 1420.54, 12361.79, -47806.51, -29288.65, 29625.43, 2393.65, 13980.52, 0.00, 0.00, 0.00, 0.00, 0.00, 0.00, 0.00
150, 13524.88, 42149.51, 1497.25, 21650.37, 554.68, 1420.54, 12361.79, -47806.51, -29304.59, 29614.56, 2395.30, 13973.24, 0.00, 0.00, 0.00, 0.00, -0.12, 0.41, 0.91
151, 13534.09, 42176.98, 1517.04, 21669.30, 556.42, 1429.57, 12398.62, -47732.46, -29304.59, 29614.56, 2395.30, 13973.24, 0.00, 0.00, 0.00, 0.00, 0.00, 0.00, 0.00
152, 13534.09, 42176.98, 1517.04, 21669.30, 556.42, 1429.57, 12398.62, -47732.46, -29309.42, 29631.21, 2403.10, 14031.98, 0.00, 0.00, 0.00, 0.00, 0.00, 0.00, 0.00
153, 13525.71, 42148.17, 1506.80, 21653.52, 547.35, 1413.77, 12376.03, -47763.44, -29309.42, 29631.21, 2403.10, 14031.98, 0.00, 0.00, 0.00, 0.00, 0.00, 0.00, 0.00
154, 13525.71, 42148.17, 1506.80, 21653.52, 547.35, 1413.77, 12376.03, -47763.44, -29291.11, 29602.18, 2387.23, 14000.75, 0.00, 0.00, 0.00, 0.00, 0.00, 0.00, 0.00
155, 13528.10, 42154.61, 1494.97, 21660.05, 551.66, 1432.72, 12367.64, -47797.06, -29291.11, 29602.18, 2387.23, 14000.75, 0.00, 0.00, 0.00, 0.00, 0.00, 0.00, 0.00
156, 13528.10, 42154.61, 1494.97, 21660.05, 551.66, 1432.72, 12367.64, -47797.06, -29313.53, 29626.74, 2393.67, 13964.18, 0.00, 0.00, 0.00, 0.00, 0.00, 0.00, 0.00
157, 13520.88, 42135.45, 1497.54, 21653.56, 541.67, 1423.07, 12372.81, -47748.27, -29313.53, 29626.74, 2393.67, 13964.18, 0.00, 0.00, 0.00, 0.00, 0.00, 0.00, 0.00
158, 13520.88, 42135.45, 1497.54, 21653.56, 541.67, 1423.07, 12372.81, -47748.27, -29304.97, 29611.79, 2387.73, 14038.71, 0.00, 0.00, 0.00, 0.00, 0.00, 0.00, 0.00
159, 13520.37, 42160.20, 1505.57, 21662.77, 539.75, 1412.99, 12380.23, -47777.46, -29304.97, 29611.79, 2387.73, 14038.71, 0.00, 0.00, 0.00, 0.00, 0.00, 0.00, 0.00
160, 13520.37, 42160.20, 1505.57, 21662.77, 539.75, 1412.99, 12380.23, -47777.46, -29274.93, 29624.00, 2394.32, 13952.03, 0.00, 0.00, 0.00, 0.00, -0.12, 0.41, 0.91
161, 13514.83, 42121.68, 1494.01, 21657.59, 549.12, 1440.97, 12347.42, -47821.27, -29274.93, 29624.00, 2394.32, 13952.03, 0.00, 0.00, 0.00, 0.00, 0.00, 0.00, 0.00
162, 13514.83, 42121.68, 1494.01, 21657.59, 549.12, 1440.97, 12347.42, -47821.27, -29316.93, 29607.41, 2385.83, 14036.05, 0.00, 0.00, 0.00, 0.00, 0.00, 0.00, 0.00
163, 13534.41, 42159.46, 1524.63, 21661.30, 557.79, 1398.55, 12404.26, -47728.95, -29316.93, 29607.41, 2385.83, 14036.05, 0.00, 0.00, 0.00, 0.00, 0.00, 0.00, 0.00
164, 13534.41, 42159.46, 1524.63, 21661.30, 557.79, 1398.55, 12404.26, -47728.95, -29313.22, 29628.53, 2398.30, 13996.59, 0.00, 0.00, 0.00, 0.00, 0.00, 0.00, 0.00
165, 13523.45, 42140.68, 1496.83, 21660.31, 552.96, 1418.62, 12377.37, -47781.21, -29313.22, 29628.53, 2398.30, 13996.59, 0.00, 0.00, 0.00, 0.00, 0.00, 0.00, 0.00
166, 13523.45, 42140.68, 1496.83, 21660.31, 552.96, 1418.62, 12377.37, -47781.21, -29254.14, 29604.93, 2385.22, 14019.39, 0.00, 0.00, 0.00, 0.00, 0.00, 0.00, 0.00
167, 13522.69, 42140.88, 1502.44, 21662.91, 552.96, 1429.68, 12365.45, -47834.99, -29254.14, 29604.93, 2385.22, 14019.39, 0.00, 0.00, 0.00, 0.00, 0.00, 0.00, 0.00
168, 13522.69, 42140.88, 1502.44, 21662.91, 552.96, 1429.68, 12365.45, -47834.99, -29329.33, 29632.11, 2399.55, 13968.92, 0.00, 0.00, 0.00, 0.00, 0.00, 0.00, 0.00
169, 13505.08, 42151.12, 1514.55, 21663.71, 552.58, 1421.44, 12399.16, -47734.68, -29329.33, 29632.11, 2399.55, 13968.92, 0.00, 0.00, 0.00, 0.00, 0.00, 0.00, 0.00
170, 13505.08, 42151.12, 1514.55, 21663.71, 552.58, 1421.44, 12399.16, -47734.68, -29301.93, 29603.74, 2385.53, 14001.29, 0.00, 0.00, 0.00, 0.00, -0.12, 0.41, 0.91
171, 13515.27, 42150.80, 1497.97, 21663.51, 535.46, 1421.37, 12389.26, -47795.61, -29301.93, 29603.74, 2385.53, 14001.29, 0.00, 0.00, 0.00, 0.00, 0.00, 0.00, 0.00
172, 13515.27, 42150.80, 1497.97, 21663.51, 535.46, 1421.37, 12389.26, -47795.61, -29289.90, 29628.80, 2389.80, 13983.12, 0.00, 0.00, 0.00, 0.00, 0.00, 0.00, 0.00
173, 13525.29, 42154.38, 1497.77, 21669.86, 576.83, 1427.23, 12380.81, -47832.26, -29289.90, 29628.80, 2389.80, 13983.12, 0.00, 0.00, 0.00, 0.00, 0.00, 0.00, 0.00
174, 13525.29, 42154.38, 1497.77, 21669.86, 576.83, 1427.23, 12380.81, -47832.26, -29274.55, 29609.71, 2371.61, 13981.26, 0.00, 0.00, 0.00, 0.00, 0.00, 0.00, 0.00
175, 13519.21, 42127.20, 1481.76, 21661.05, 549.79, 1431.25, 12377.43, -47839.01, -29274.55, 29609.71, 2371.61, 13981.26, 0.00, 0.00, 0.00, 0.00, 0.00, 0.00, 0.00
176, 13519.21, 42127.20, 1481.76, 21661.05, 549.79, 1431.25, 12377.43, -47839.01, -29309.73, 29627.50, 2382.23, 13970.76, 0.00, 0.00, 0.00, 0.00, 0.00, 0.00, 0.00
177, 13518.94, 42145.62, 1490.57, 21659.09, 551.37, 1417.46, 12397.93, -47830.16, -29309.73, 29627.50, 2382.23, 13970.76, 0.00, 0.00, 0.00, 0.00, 0.00, 0.00, 0.00
178, 13518.94, 42145.62, 1490.57, 21659.09, 551.37, 1417.46, 12397.93, -47830.16, -29290.19, 29607.03, 2377.40, 13998.41, 0.00, 0.00, 0.00, 0.00, 0.00, 0.00, 0.00
179, 13483.94, 42150.54, 1509.75, 21668.61, 538.10, 1444.88, 12377.37, -47865.59, -29290.19, 29607.03, 2377.40, 13998.41, 0.00, 0.00, 0.00, 0.00, 0.00, 0.00, 0.00
180, 13483.94, 42150.54, 1509.75, 21668.61, 538.10, 1444.88, 12377.37, -47865.59, -29296.92, 29625.22, 2371.23, 13988.88, 0.00, 0.00, 0.00, 0.00, -0.12, 0.41, 0.91
181, 13508.95, 42172.69, 1479.39, 21673.53, 561.21, 1441.08, 12378.31, -47896.81, -29296.92, 29625.22, 2371.23, 13988.88, 0.00, 0.00, 0.00, 0.00, 0.00, 0.00, 0.00
182, 13508.95, 42172.69, 1479.39, 21673.53, 561.21, 1441.08, 12378.31, -47896.81, -29282.53, 29607.25, 2365.93, 13976.28, 0.00, 0.00, 0.00, 0.00, 0.00, 0.00, 0.00
183, 13505.91, 42116.95, 1485.21, 21652.54, 551.69, 1397.07, 12397.98, -47906.31, -29282.53, 29607.25, 2365.93, 13976.28, 0.00, 0.00, 0.00, 0.00, 0.00, 0.00, 0.00
184, 13505.91, 42116.95, 1485.21, 21652.54, 551.69, 1397.07, 12397.98, -47906.31, -29283.76, 29635.78, 2378.16, 13968.43, 0.00, 0.00, 0.00, 0.00, 0.00, 0.00, 0.00
185, 13532.06, 42159.32, 1486.01, 21674.87, 564.58, 1437.57, 12407.56, -47914.20, -29283.76, 29635.78, 2378.16, 13968.43, 0.00, 0.00, 0.00, 0.00, 0.00, 0.00, 0.00
186, 13532.06, 42159.32, 1486.01, 21674.87, 564.58, 1437.57, 12407.56, -47914.20, -29290.19, 29617.96, 2365.46, 13977.91, 0.00, 0.00, 0.00, 0.00, 0.00, 0.00, 0.00
187, 13480.69, 42136.99, 1479.10, 21656.94, 544.98, 1418.89, 12388.21, -47971.31, -29290.19, 29617.96, 2365.46, 13977.91, 0.00, 0.00, 0.00, 0.00, 0.00, 0.00, 0.00
188, 13480.69, 42136.99, 1479.10, 21656.94, 544.98, 1418.89, 12388.21, -47971.31, -29281.16, 29619.21, 2354.71, 13995.08, 0.00, 0.00, 0.00, 0.00, 0.00, 0.00, 0.00
189, 13497.37, 42130.58, 1491.02, 21679.16, 555.51, 1443.90, 12395.81, -47989.11, -29281.16, 29619.21, 2354.71, 13995.08, 0.00, 0.00, 0.00, 0.00, -0.12, 0.40, 0.92
190, 13497.37, 42130.58, 1491.02, 21679.16, 555.51, 1443.90, 12395.81, -47989.11, -29303.96, 29607.43, 2360.10, 13959.67, 0.00, 0.00, 0.00, 0.00, 0.00, 0.00, 0.00
191, 13494.62, 42137.57, 1478.95, 21671.20, 546.34, 1421.35, 12388.72, -48031.21, -29303.96, 29607.43, 2360.10, 13959.67, 0.00, 0.00, 0.00, 0.00, 0.00, 0.00, 0.00
192, 13494.62, 42137.57, 1478.95, 21671.20, 546.34, 1421.35, 12388.72, -48031.21, -29255.24, 29615.19, 2348.81, 13981.08, 0.00, 0.00, 0.00, 0.00, 0.00, 0.00, 0.00
193, 13509.48, 42154.90, 1483.84, 21692.05, 569.63, 1437.28, 12413.11, -48054.71, -29255.24, 29615.19, 2348.81, 13981.08, 0.00, 0.00, 0.00, 0.00, 0.00, 0.00, 0.00
194, 13509.48, 42154.90, 1483.84, 21692.05, 569.63, 1437.28, 12413.11, -48054.71, -29307.72, 29625.38, 2351.54, 13942.10, 0.00, 0.00, 0.00, 0.00, 0.00, 0.00, 0.00
195, 13495.11, 42161.69, 1477.67, 21673.64, 570.26, 1425.15, 12412.33, -48065.61, -29307.72, 29625.38, 2351.54, 13942.10, 0.00, 0.00, 0.00, 0.00, 0.00, 0.00, 0.00
196, 13495.11, 42161.69, 1477.67, 21673.64, 570.26, 1425.15, 12412.33, -48065.61, -29280.61, 29615.01, 2346.51, 13945.97, 0.00, 0.00, 0.00, 0.00, 0.00, 0.00, 0.00
197, 13508.14, 42199.31, 1492.98, 21691.16, 561.21, 1442.58, 12417.02, -48122.97, -29280.61, 29615.01, 2346.51, 13945.97, 0.00, 0.00, 0.00, 0.00, 0.00, 0.00, 0.00
198, 13508.14, 42199.31, 1492.98, 21691.16, 561.21, 1442.58, 12417.02, -48122.97, -29268.45, 29616.26, 2343.71, 13972.97, 0.00, 0.00, 0.00, 0.00, 0.00, 0.00, 0.00
199, 13488.65, 42116.38, 1463.12, 21666.73, 560.92, 1424.36, 12383.69, -48197.55, -29268.45, 29616.26, 2343.71, 13972.97, 0.00, 0.00, 0.00, 0.00, -0.12, 0.40, 0.91
200, 13488.65, 42116.38, 1463.12, 21666.73, 560.92, 1424.36, 12383.69, -48197.55, -29272.74, 29601.00, 2324.63, 13926.59, 0.00, 0.00, 0.00, 0.00, 0.00, 0.00, 0.00
201, 13445.54, 42104.61, 1484.42, 21675.31, 562.75, 1457.40, 12394.76, -48221.00, -29272.74, 29601.00, 2324.63, 13926.59, 0.00, 0.00, 0.00, 0.00, 0.00, 0.00, 0.00
202, 13445.54, 42104.61, 1484.42, 21675.31, 562.75, 1457.40, 12394.76, -48221.00, -29299.18, 29620.24, 2335.20, 13949.50, 0.00, 0.00, 0.00, 0.00, 0.00, 0.00, 0.00
203, 13489.55, 42138.09, 1457.60, 21674.49, 567.76, 1405.88, 12424.51, -48202.68, -29299.18, 29620.24, 2335.20, 13949.50, 0.00, 0.00, 0.00, 0.00, 0.00, 0.00, 0.00
204, 13489.55, 42138.09, 1457.60, 21674.49, 567.76, 1405.88, 12424.51, -48202.68, -29288.70, 29609.09, 2336.09, 13908.37, 0.00, 0.00, 0.00, 0.00, 0.00, 0.00, 0.00
205, 13510.38, 42178.01, 1463.17, 21691.52, 579.36, 1430.78, 12432.06, -48248.14, -29288.70, 29609.09, 2336.09, 13908.37, 0.00, 0.00, 0.00, 0.00, 0.00, 0.00, 0.00
206, 13510.38, 42178.01, 1463.17, 21691.52, 579.36, 1430.78, 12432.06, -48248.14, -29282.01, 29622.90, 2317.92, 13954.62, 0.00, 0.00, 0.00, 0.00, 0.00, 0.00, 0.00
207, 13474.88, 42092.58, 1447.28, 21671.74, 548.74, 1426.44, 12401.19, -48339.18, -29282.01, 29622.90, 2317.92, 13954.62, 0.00, 0.00, 0.00, 0.00, 0.00, 0.00, 0.00
208, 13474.88, 42092.58, 1447.28, 21671.74, 548.74, 1426.44, 12401.19, -48339.18, -29254.21, 29595.07, 2302.88, 13891.79, 0.00, 0.00, 0.00, 0.00, 0.00, 0.00, 0.00
209, 13434.96, 42137.64, 1462.30, 21674.55, 571.85, 1449.22, 12394.27, -48383.05, -29254.21, 29595.07, 2302.88, 13891.79, 0.00, 0.00, 0.00, 0.00, -0.12, 0.40, 0.91
210, 13434.96, 42137.64, 1462.30, 21674.55, 571.85, 1449.22, 12394.27, -48383.05, -29289.37, 29614.67, 2314.34, 13850.86, 0.00, 0.00, 0.00, 0.00, 0.00, 0.00, 0.00
211, 13507.07, 42198.82, 1419.34, 21686.44, 542.01, 1438.18, 12403.79, -48366.16, -29289.37, 29614.67, 2314.34, 13850.86, 0.00, 0.00, 0.00, 0.00, 0.00, 0.00, 0.00
212, 13507.07, 42198.82, 1419.34, 21686.44, 542.01, 1438.18, 12403.79, -48366.16, -29310.11, 29571.27, 2265.55, 13835.51, 0.00, 0.00, 0.00, 0.00, 0.00, 0.00, 0.00
213, 13432.15, 42088.04, 1422.15, 21679.72, 545.02, 1416.34, 12396.25, -48470.34, -29310.11, 29571.27, 2265.55, 13835.51, 0.00, 0.00, 0.00, 0.00, 0.00, 0.00, 0.00
214, 13432.15, 42088.04, 1422.15, 21679.72, 545.02, 1416.34, 12396.25, -48470.34, -29256.06, 29606.43, 2283.79, 13818.03, 0.00, 0.00, 0.00, 0.00, 0.00, 0.00, 0.00
215, 13457.83, 42076.78, 1398.37, 21673.17, 586.78, 1431.03, 12440.94, -48429.95, -29256.06, 29606.43, 2283.79, 13818.03, 0.00, 0.00, 0.00, 0.00, 0.00, 0.00, 0.00
216, 13457.83, 42076.78, 1398.37, 21673.17, 586.78, 1431.03, 12440.94, -48429.95, -29300.23, 29602.31, 2242.55, 13781.10, 0.00, 0.00, 0.00, 0.00, 0.00, 0.00, 0.00
217, 13428.84, 42069.40, 1387.06, 21680.48, 558.93, 1426.91, 12409.15, -48534.13, -29300.23, 29602.31, 2242.55, 13781.10, 0.00, 0.00, 0.00, 0.00, 0.00, 0.00, 0.00
218, 13428.84, 42069.40, 1387.06, 21680.48, 558.93, 1426.91, 12409.15, -48534.13, -29253.00, 29628.00, 2234.91, 13799.45, 0.00, 0.00, 0.00, 0.00, 0.00, 0.00, 0.00
219, 13407.56, 42086.01, 1379.80, 21683.27, 549.81, 1459.64, 12428.62, -48548.34, -29253.00, 29628.00, 2234.91, 13799.45, 0.00, 0.00, 0.00, 0.00, -0.12, 0.40, 0.92
220, 13407.56, 42086.01, 1379.80, 21683.27, 549.81, 1459.64, 12428.62, -48548.34, -29306.09, 29606.07, 2254.80, 13810.94, 0.00, 0.00, 0.00, 0.00, 0.00, 0.00, 0.00
221, 13467.39, 42139.81, 1401.28, 21674.62, 607.39, 1416.03, 12488.23, -48550.49, -29306.09, 29606.07, 2254.80, 13810.94, 0.00, 0.00, 0.00, 0.00, 0.00, 0.00, 0.00
222, 13467.39, 42139.81, 1401.28, 21674.62, 607.39, 1416.03, 12488.23, -48550.49, -29272.36, 29611.54, 2251.09, 13745.52, 0.00, 0.00, 0.00, 0.00, 0.00, 0.00, 0.00
223, 13443.52, 42120.86, 1343.41, 21637.49, 568.61, 1417.30, 12435.66, -48704.20, -29272.36, 29611.54, 2251.09, 13745.52, 0.00, 0.00, 0.00, 0.00, 0.00, 0.00, 0.00
224, 13443.52, 42120.86, 1343.41, 21637.49, 568.61, 1417.30, 12435.66, -48704.20, -29276.52, 29583.11, 2245.30, 13698.20, 0.00, 0.00, 0.00, 0.00, 0.00, 0.00, 0.00
225, 13427.21, 42109.66, 1355.14, 21620.55, 556.33, 1422.73, 12435.50, -48743.92, -29276.52, 29583.11, 2245.30, 13698.20, 0.00, 0.00, 0.00, 0.00, 0.00, 0.00, 0.00
226, 13427.21, 42109.66, 1355.14, 21620.55, 556.33, 1422.73, 12435.50, -48743.92, -29268.98, 29596.44, 2280.19, 13633.47, 0.00, 0.00, 0.00, 0.00, 0.00, 0.00, 0.00
227, 13415.79, 42185.92, 1367.35, 21629.63, 536.44, 1450.94, 12425.45, -48856.44, -29268.98, 29596.44, 2280.19, 13633.47, 0.00, 0.00, 0.00, 0.00, 0.00, 0.00, 0.00
228, 13415.79, 42185.92, 1367.35, 21629.63, 536.44, 1450.94, 12425.45, -48856.44, -29253.49, 29591.18, 2291.08, 13637.38, 0.00, 0.00, 0.00, 0.00, 0.00, 0.00, 0.00
229, 13457.00, 42152.75, 1393.07, 21597.10, 539.95, 1371.26, 12452.63, -48914.60, -29253.49, 29591.18, 2291.08, 13637.38, 0.00, 0.00, 0.00, 0.00, -0.11, 0.40, 0.91
230, 13457.00, 42152.75, 1393.07, 21597.10, 539.95, 1371.26, 12452.63, -48914.60, -29225.51, 29611.17, 2299.77, 13706.80, 0.00, 0.00, 0.00, 0.00, 0.00, 0.00, 0.00
231, 13442.16, 42089.41, 1316.27, 21592.86, 551.17, 1440.97, 12429.87, -48966.16, -29225.51, 29611.17, 2299.77, 13706.80, 0.00, 0.00, 0.00, 0.00, 0.00, 0.00, 0.00
232, 13442.16, 42089.41, 1316.27, 21592.86, 551.17, 1440.97, 12429.87, -48966.16, -29304.48, 29596.57, 2242.26, 13597.08, 0.00, 0.00, 0.00, 0.00, 0.00, 0.00, 0.00
233, 13394.06, 42069.07, 1295.04, 21606.80, 536.46, 1393.90, 12487.45, -48934.85, -29304.48, 29596.57, 2242.26, 13597.08, 0.00, 0.00, 0.00, 0.00, 0.00, 0.00, 0.00
234, 13394.06, 42069.07, 1295.04, 21606.80, 536.46, 1393.90, 12487.45, -48934.85, -29274.77, 29597.51, 2200.33, 13620.97, 0.00, 0.00, 0.00, 0.00, 0.00, 0.00, 0.00
235, 13390.15, 42083.55, 1233.57, 21612.15, 522.52, 1405.03, 12475.96, -49059.17, -29274.77, 29597.51, 2200.33, 13620.97, 0.00, 0.00, 0.00, 0.00, 0.00, 0.00, 0.00
236, 13390.15, 42083.55, 1233.57, 21612.15, 522.52, 1405.03, 12475.96, -49059.17, -29281.30, 29588.54, 2133.90, 13631.59, 0.00, 0.00, 0.00, 0.00, 0.00, 0.00, 0.00
237, 13345.44, 42043.07, 1193.74, 21613.04, 544.04, 1417.50, 12467.20, -49102.85, -29281.30, 29588.54, 2133.90, 13631.59, 0.00, 0.00, 0.00, 0.00, 0.00, 0.00, 0.00
238, 13345.44, 42043.07, 1193.74, 21613.04, 544.04, 1417.50, 12467.20, -49102.85, -29264.85, 29595.34, 2112.20, 13567.62, 0.00, 0.00, 0.00, 0.00, -0.12, 0.41, 0.91
239, 13363.44, 42050.52, 1188.11, 21650.10, 560.40, 1446.20, 12522.16, -49117.15, -29264.85, 29595.34, 2112.20, 13567.62, 0.00, 0.00, 0.00, 0.00, 0.00, 0.00, 0.00
240, 13363.44, 42050.52, 1188.11, 21650.10, 560.40, 1446.20, 12522.16, -49117.15, -29251.66, 29593.02, 2106.14, 13641.87, 0.00, 0.00, 0.00, 0.00, 0.00, 0.00, 0.00
241, 13322.24, 41992.51, 1133.32, 21562.75, 492.90, 1387.22, 12459.42, -49265.19, -29251.66, 29593.02, 2106.14, 13641.87, 0.00, 0.00, 0.00, 0.00, 0.00, 0.00, 0.00
242, 13322.24, 41992.51, 1133.32, 21562.75, 492.90, 1387.22, 12459.42, -49265.19, -29264.15, 29574.69, 2130.72, 13596.32, 0.00, 0.00, 0.00, 0.00, 0.00, 0.00, 0.00
243, 13299.65, 42029.66, 1177.04, 21568.81, 485.77, 1424.30, 12470.95, -49266.84, -29264.15, 29574.69, 2130.72, 13596.32, 0.00, 0.00, 0.00, 0.00, 0.00, 0.00, 0.00
244, 13299.65, 42029.66, 1177.04, 21568.81, 485.77, 1424.30, 12470.95, -49266.84, -29275.20, 29592.75, 2217.02, 13518.69, 0.00, 0.00, 0.00, 0.00, 0.00, 0.00, 0.00
245, 13300.09, 42126.20, 1186.18, 21513.71, 419.21, 1385.29, 12479.76, -49353.75, -29275.20, 29592.75, 2217.02, 13518.69, 0.00, 0.00, 0.00, 0.00, 0.00, 0.00, 0.00
246, 13300.09, 42126.20, 1186.18, 21513.71, 419.21, 1385.29, 12479.76, -49353.75, -29209.37, 29587.43, 2254.40, 13497.39, 0.00, 0.00, 0.00, 0.00, 0.00, 0.00, 0.00
247, 13391.58, 42066.03, 1067.72, 21501.51, 459.42, 1379.39, 12476.94, -49435.02, -29209.37, 29587.43, 2254.40, 13497.39, 0.00, 0.00, 0.00, 0.00, 0.00, 0.00, 0.00
248, 13391.58, 42066.03, 1067.72, 21501.51, 459.42, 1379.39, 12476.94, -49435.02, -29283.00, 29588.63, 2277.13, 13536.60, 0.00, 0.00, 0.00, 0.00, -0.11, 0.41, 0.91
249, 13398.31, 42058.89, 1101.34, 21478.77, 443.73, 1373.56, 12499.05, -49378.49, -29283.00, 29588.63, 2277.13, 13536.60, 0.00, 0.00, 0.00, 0.00, 0.00, 0.00, 0.00
250, 13398.31, 42058.89, 1101.34, 21478.77, 443.73, 1373.56, 12499.05, -49378.49, -29248.66, 29589.48, 2302.54, 13520.19, 0.00, 0.00, 0.00, 0.00, 0.00, 0.00, 0.00
251, 13366.77, 42100.40, 1073.98, 21499.54, 425.82, 1387.19, 12482.15, -49520.91, -29248.66, 29589.48, 2302.54, 13520.19, 0.00, 0.00, 0.00, 0.00, 0.00, 0.00, 0.00
252, 13366.77, 42100.40, 1073.98, 21499.54, 425.82, 1387.19, 12482.15, -49520.91, -29219.00, 29591.76, 2268.03, 13501.39, 0.00, 0.00, 0.00, 0.00, 0.00, 0.00, 0.00
253, 13322.76, 42071.46, 1027.08, 21460.78, 393.88, 1351.72, 12489.48, -49544.29, -29219.00, 29591.76, 2268.03, 13501.39, 0.00, 0.00, 0.00, 0.00, 0.00, 0.00, 0.00
254, 13322.76, 42071.46, 1027.08, 21460.78, 393.88, 1351.72, 12489.48, -49544.29, -29269.54, 29586.91, 2223.64, 13521.82, 0.00, 0.00, 0.00, 0.00, 0.00, 0.00, 0.00
255, 13340.57, 42070.14, 988.48, 21490.62, 407.23, 1398.33, 12513.94, -49551.25, -29269.54, 29586.91, 2223.64, 13521.82, 0.00, 0.00, 0.00, 0.00, 0.00, 0.00, 0.00
0, 13340.57, 42070.14, 988.48, 21490.62, 407.23, 1398.33, 12513.94, -49551.25, -29235.54, 29606.56, 2212.60, 13493.93, 0.00, 0.00, 0.00, 0.00, 0.00, 0.00, 0.00
1, 13304.96, 42051.86, 924.07, 21461.65, 374.93, 1358.78, 12495.92, -49692.29, -29235.54, 29606.56, 2212.60, 13493.93, 0.00, 0.00, 0.00, 0.00, 0.00, 0.00, 0.00
2, 13304.96, 42051.86, 924.07, 21461.65, 374.93, 1358.78, 12495.92, -49692.29, -29243.93, 29578.58, 2197.98, 13486.66, 0.00, 0.00, 0.00, 0.00, -0.12, 0.41, 0.91
3, 13280.65, 42005.09, 891.05, 21472.11, 353.29, 1373.27, 12520.40, -49689.76, -29243.93, 29578.58, 2197.98, 13486.66, 0.00, 0.00, 0.00, 0.00, 0.00, 0.00, 0.00
4, 13280.65, 42005.09, 891.05, 21472.11, 353.29, 1373.27, 12520.40, -49689.76, -29267.55, 29580.30, 2180.37, 13515.43, 0.00, 0.00, 0.00, 0.00, 0.00, 0.00, 0.00
5, 13229.91, 42003.60, 919.86, 21467.33, 347.90, 1373.85, 12483.81, -49792.15, -29267.55, 29580.30, 2180.37, 13515.43, 0.00, 0.00, 0.00, 0.00, 0.00, 0.00, 0.00
6, 13229.91, 42003.60, 919.86, 21467.33, 347.90, 1373.85, 12483.81, -49792.15, -29218.85, 29585.66, 2190.20, 13470.99, 0.00, 0.00, 0.00, 0.00, 0.00, 0.00, 0.00
7, 13312.88, 42056.26, 811.37, 21458.03, 342.38, 1369.13, 12479.45, -49875.01, -29218.85, 29585.66, 2190.20, 13470.99, 0.00, 0.00, 0.00, 0.00, 0.00, 0.00, 0.00
8, 13312.88, 42056.26, 811.37, 21458.03, 342.38, 1369.13, 12479.45, -49875.01, -29216.84, 29595.18, 2190.05, 13448.84, 0.00, 0.00, 0.00, 0.00, 0.00, 0.00, 0.00
9, 13234.80, 41964.84, 807.59, 21473.25, 297.17, 1394.86, 12479.29, -49894.64, -29216.84, 29595.18, 2190.05, 13448.84, 0.00, 0.00, 0.00, 0.00, 0.00, 0.00, 0.00
10, 13234.80, 41964.84, 807.59, 21473.25, 297.17, 1394.86, 12479.29, -49894.64, -29295.00, 29565.68, 2154.35, 13458.68, 0.00, 0.00, 0.00, 0.00, 0.00, 0.00, 0.00
11, 13246.13, 41980.66, 769.21, 21456.89, 295.67, 1343.14, 12536.80, -49872.06, -29295.00, 29565.68, 2154.35, 13458.68, 0.00, 0.00, 0.00, 0.00, 0.00, 0.00, 0.00
12, 13246.13, 41980.66, 769.21, 21456.89, 295.67, 1343.14, 12536.80, -49872.06, -29222.67, 29577.84, 2158.75, 13518.31, 0.00, 0.00, 0.00, 0.00, -0.12, 0.41, 0.92
13, 13264.53, 41968.33, 712.66, 21474.64, 329.04, 1384.94, 12506.61, -49953.49, -29222.67, 29577.84, 2158.75, 13518.31, 0.00, 0.00, 0.00, 0.00, 0.00, 0.00, 0.00
14, 13264.53, 41968.33, 712.66, 21474.64, 329.04, 1384.94, 12506.61, -49953.49, -29271.11, 29585.15, 2148.32, 13458.05, 0.00, 0.00, 0.00, 0.00, 0.00, 0.00, 0.00
15, 13262.56, 41983.91, 705.40, 21463.51, 299.49, 1358.18, 12528.98, -49972.02, -29271.11, 29585.15, 2148.32, 13458.05, 0.00, 0.00, 0.00, 0.00, 0.00, 0.00, 0.00
16, 13262.56, 41983.91, 705.40, 21463.51, 299.49, 1358.18, 12528.98, -49972.02, -29242.99, 29602.54, 2161.30, 13429.91, 0.00, 0.00, 0.00, 0.00, 0.00, 0.00, 0.00
17, 13219.49, 41978.70, 718.43, 21475.60, 310.15, 1372.33, 12530.66, -50051.23, -29242.99, 29602.54, 2161.30, 13429.91, 0.00, 0.00, 0.00, 0.00, 0.00, 0.00, 0.00
18, 13219.49, 41978.70, 718.43, 21475.60, 310.15, 1372.33, 12530.66, -50051.23, -29209.33, 29582.69, 2144.72, 13431.57, 0.00, 0.00, 0.00, 0.00, 0.00, 0.00, 0.00
19, 13219.94, 42007.35, 584.05, 21463.91, 262.92, 1384.18, 12483.49, -50160.66, -29209.33, 29582.69, 2144.72, 13431.57, 0.00, 0.00, 0.00, 0.00, 0.00, 0.00, 0.00
20, 13219.94, 42007.35, 584.05, 21463.91, 262.92, 1384.18, 12483.49, -50160.66, -29219.72, 29590.98, 2145.23, 13376.87, 0.00, 0.00, 0.00, 0.00, 0.00, 0.00, 0.00
21, 13256.26, 42009.86, 577.73, 21475.06, 290.22, 1382.08, 12540.29, -50113.44, -29219.72, 29590.98, 2145.23, 13376.87, 0.00, 0.00, 0.00, 0.00, -0.12, 0.41, 0.91
22, 13256.26, 42009.86, 577.73, 21475.06, 290.22, 1382.08, 12540.29, -50113.44, -29238.03, 29588.66, 2138.91, 13401.28, 0.00, 0.00, 0.00, 0.00, 0.00, 0.00, 0.00
23, 13203.13, 41926.55, 562.26, 21458.50, 251.23, 1347.61, 12522.36, -50200.59, -29238.03, 29588.66, 2138.91, 13401.28, 0.00, 0.00, 0.00, 0.00, 0.00, 0.00, 0.00
24, 13203.13, 41926.55, 562.26, 21458.50, 251.23, 1347.61, 12522.36, -50200.59, -29247.97, 29595.85, 2147.80, 13383.13, 0.00, 0.00, 0.00, 0.00, 0.00, 0.00, 0.00
25, 13164.08, 41941.15, 562.21, 21476.52, 237.17, 1392.71, 12525.00, -50213.64, -29247.97, 29595.85, 2147.80, 13383.13, 0.00, 0.00, 0.00, 0.00, 0.00, 0.00, 0.00
26, 13164.08, 41941.15, 562.21, 21476.52, 237.17, 1392.71, 12525.00, -50213.64, -29245.76, 29576.01, 2122.66, 13410.35, 0.00, 0.00, 0.00, 0.00, 0.00, 0.00, 0.00
27, 13189.21, 41980.46, 452.44, 21468.36, 241.26, 1373.74, 12501.55, -50316.68, -29245.76, 29576.01, 2122.66, 13410.35, 0.00, 0.00, 0.00, 0.00, 0.00, 0.00, 0.00
28, 13189.21, 41980.46, 452.44, 21468.36, 241.26, 1373.74, 12501.55, -50316.68, -29178.35, 29575.63, 2101.00, 13368.80, 0.00, 0.00, 0.00, 0.00, 0.00, 0.00, 0.00
29, 13257.27, 42025.88, 402.60, 21471.06, 232.03, 1353.40, 12519.82, -50365.83, -29178.35, 29575.63, 2101.00, 13368.80, 0.00, 0.00, 0.00, 0.00, 0.00, 0.00, 0.00
30, 13257.27, 42025.88, 402.60, 21471.06, 232.03, 1353.40, 12519.82, -50365.83, -29301.06, 29589.89, 2098.02, 13395.33, 0.00, 0.00, 0.00, 0.00, 0.00, 0.00, 0.00
31, 13166.12, 41886.81, 425.11, 21453.70, 227.05, 1352.10, 12543.66, -50329.69, -29301.06, 29589.89, 2098.02, 13395.33, 0.00, 0.00, 0.00, 0.00, -0.12, 0.41, 0.92
32, 13166.12, 41886.81, 425.11, 21453.70, 227.05, 1352.10, 12543.66, -50329.69, -29244.91, 29582.38, 2098.38, 13314.46, 0.00, 0.00, 0.00, 0.00, 0.00, 0.00, 0.00
33, 13150.22, 41942.93, 450.86, 21468.56, 202.46, 1373.27, 12533.94, -50451.02, -29244.91, 29582.38, 2098.38, 13314.46, 0.00, 0.00, 0.00, 0.00, 0.00, 0.00, 0.00
34, 13150.22, 41942.93, 450.86, 21468.56, 202.46, 1373.27, 12533.94, -50451.02, -29226.60, 29575.74, 2102.00, 13357.58, 0.00, 0.00, 0.00, 0.00, 0.00, 0.00, 0.00
35, 13212.52, 42005.70, 315.81, 21456.00, 199.71, 1360.17, 12500.15, -50505.75, -29226.60, 29575.74, 2102.00, 13357.58, 0.00, 0.00, 0.00, 0.00, 0.00, 0.00, 0.00
36, 13212.52, 42005.70, 315.81, 21456.00, 199.71, 1360.17, 12500.15, -50505.75, -29231.12, 29580.95, 2081.44, 13375.44, 0.00, 0.00, 0.00, 0.00, 0.00, 0.00, 0.00
37, 13183.80, 41887.66, 292.11, 21474.06, 228.28, 1370.14, 12547.69, -50501.71, -29231.12, 29580.95, 2081.44, 13375.44, 0.00, 0.00, 0.00, 0.00, 0.00, 0.00, 0.00
38, 13183.80, 41887.66, 292.11, 21474.06, 228.28, 1370.14, 12547.69, -50501.71, -29245.87, 29597.31, 2063.47, 13403.71, 0.00, 0.00, 0.00, 0.00, 0.00, 0.00, 0.00
39, 13148.03, 41890.05, 245.58, 21442.86, 192.05, 1351.34, 12515.08, -50573.37, -29245.87, 29597.31, 2063.47, 13403.71, 0.00, 0.00, 0.00, 0.00, 0.00, 0.00, 0.00
40, 13148.03, 41890.05, 245.58, 21442.86, 192.05, 1351.34, 12515.08, -50573.37, -29246.27, 29562.19, 2053.75, 13350.85, 0.00, 0.00, 0.00, 0.00, 0.00, 0.00, 0.00
41, 13107.15, 41931.47, 284.63, 21479.02, 174.92, 1378.81, 12523.53, -50617.16, -29246.27, 29562.19, 2053.75, 13350.85, 0.00, 0.00, 0.00, 0.00, -0.11, 0.40, 0.92
42, 13107.15, 41931.47, 284.63, 21479.02, 174.92, 1378.81, 12523.53, -50617.16, -29219.61, 29579.43, 2053.75, 13364.33, 0.00, 0.00, 0.00, 0.00, 0.00, 0.00, 0.00
43, 13170.76, 41955.77, 227.43, 21470.59, 185.32, 1368.75, 12510.90, -50634.48, -29219.61, 29579.43, 2053.75, 13364.33, 0.00, 0.00, 0.00, 0.00, 0.00, 0.00, 0.00
44, 13170.76, 41955.77, 227.43, 21470.59, 185.32, 1368.75, 12510.90, -50634.48, -29220.93, 29574.87, 2039.10, 13386.03, 0.00, 0.00, 0.00, 0.00, 0.00, 0.00, 0.00
45, 13156.68, 41911.08, 142.60, 21454.95, 191.17, 1351.21, 12535.82, -50670.22, -29220.93, 29574.87, 2039.10, 13386.03, 0.00, 0.00, 0.00, 0.00, 0.00, 0.00, 0.00
46, 13156.68, 41911.08, 142.60, 21454.95, 191.17, 1351.21, 12535.82, -50670.22, -29237.51, 29599.27, 2049.07, 13317.01, 0.00, 0.00, 0.00, 0.00, 0.00, 0.00, 0.00
47, 13146.83, 41903.62, 193.72, 21456.29, 175.86, 1351.72, 12547.71, -50651.33, -29237.51, 29599.27, 2049.07, 13317.01, 0.00, 0.00, 0.00, 0.00, 0.00, 0.00, 0.00
48, 13146.83, 41903.62, 193.72, 21456.29, 175.86, 1351.72, 12547.71, -50651.33, -29245.56, 29574.73, 2038.77, 13405.77, 0.00, 0.00, 0.00, 0.00, 0.00, 0.00, 0.00
49, 13140.57, 41957.20, 176.80, 21462.32, 167.97, 1366.83, 12527.57, -50734.14, -29245.56, 29574.73, 2038.77, 13405.77, 0.00, 0.00, 0.00, 0.00, 0.00, 0.00, 0.00
50, 13140.57, 41957.20, 176.80, 21462.32, 167.97, 1366.83, 12527.57, -50734.14, -29250.39, 29586.36, 2051.38, 13356.93, 0.00, 0.00, 0.00, 0.00, 0.00, 0.00, 0.00
51, 13134.26, 41945.86, 179.24, 21459.82, 155.84, 1357.58, 12541.99, -50727.19, -29250.39, 29586.36, 2051.38, 13356.93, 0.00, 0.00, 0.00, 0.00, -0.11, 0.41, 0.92
52, 13134.26, 41945.86, 179.24, 21459.82, 155.84, 1357.58, 12541.99, -50727.19, -29231.16, 29582.09, 2042.30, 13351.08, 0.00, 0.00, 0.00, 0.00, 0.00, 0.00, 0.00
53, 13137.93, 41863.50, 107.11, 21456.15, 159.93, 1346.29, 12551.80, -50793.22, -29231.16, 29582.09, 2042.30, 13351.08, 0.00, 0.00, 0.00, 0.00, 0.00, 0.00, 0.00
54, 13137.93, 41863.50, 107.11, 21456.15, 159.93, 1346.29, 12551.80, -50793.22, -29238.07, 29589.62, 2038.55, 13356.58, 0.00, 0.00, 0.00, 0.00, 0.00, 0.00, 0.00
55, 13125.77, 41891.26, 95.93, 21449.27, 167.35, 1354.96, 12520.89, -50853.52, -29238.07, 29589.62, 2038.55, 13356.58, 0.00, 0.00, 0.00, 0.00, 0.00, 0.00, 0.00
56, 13125.77, 41891.26, 95.93, 21449.27, 167.35, 1354.96, 12520.89, -50853.52, -29216.30, 29558.24, 2014.54, 13303.22, 0.00, 0.00, 0.00, 0.00, 0.00, 0.00, 0.00
57, 13111.47, 41898.97, 88.71, 21452.13, 137.89, 1363.39, 12488.50, -50951.54, -29216.30, 29558.24, 2014.54, 13303.22, 0.00, 0.00, 0.00, 0.00, 0.00, 0.00, 0.00
58, 13111.47, 41898.97, 88.71, 21452.13, 137.89, 1363.39, 12488.50, -50951.54, -29242.54, 29594.85, 2039.51, 13346.81, 0.00, 0.00, 0.00, 0.00, 0.00, 0.00, 0.00
59, 13127.92, 41965.78, 150.78, 21464.18, 158.90, 1356.53, 12565.05, -50829.23, -29242.54, 29594.85, 2039.51, 13346.81, 0.00, 0.00, 0.00, 0.00, 0.00, 0.00, 0.00
60, 13127.92, 41965.78, 150.78, 21464.18, 158.90, 1356.53, 12565.05, -50829.23, -29230.16, 29577.44, 2028.13, 13364.76, 0.00, 0.00, 0.00, 0.00, -0.12, 0.41, 0.92
61, 13116.00, 41900.33, 25.06, 21452.55, 132.03, 1346.00, 12522.68, -50969.39, -29230.16, 29577.44, 2028.13, 13364.76, 0.00, 0.00, 0.00, 0.00, 0.00, 0.00, 0.00
62, 13116.00, 41900.33, 25.06, 21452.55, 132.03, 1346.00, 12522.68, -50969.39, -29228.12, 29581.97, 2017.33, 13295.76, 0.00, 0.00, 0.00, 0.00, 0.00, 0.00, 0.00
63, 13122.84, 41882.03, 40.81, 21446.28, 129.39, 1346.02, 12533.72, -50956.63, -29228.12, 29581.97, 2017.33, 13295.76, 0.00, 0.00, 0.00, 0.00, 0.00, 0.00, 0.00
64, 13122.84, 41882.03, 40.81, 21446.28, 129.39, 1346.02, 12533.72, -50956.63, -29233.64, 29581.19, 1987.27, 13401.99, 0.00, 0.00, 0.00, 0.00, 0.00, 0.00, 0.00
65, 13095.01, 41881.42, 19.62, 21455.37, 141.62, 1355.59, 12535.37, -50990.00, -29233.64, 29581.19, 1987.27, 13401.99, 0.00, 0.00, 0.00, 0.00, 0.00, 0.00, 0.00
66, 13095.01, 41881.42, 19.62, 21455.37, 141.62, 1355.59, 12535.37, -50990.00, -29248.69, 29594.69, 1998.98, 13339.72, 0.00, 0.00, 0.00, 0.00, 0.00, 0.00, 0.00
67, 13101.09, 41907.98, 54.14, 21466.70, 127.58, 1357.73, 12536.11, -51012.56, -29248.69, 29594.69, 1998.98, 13339.72, 0.00, 0.00, 0.00, 0.00, 0.00, 0.00, 0.00
68, 13101.09, 41907.98, 54.14, 21466.70, 127.58, 1357.73, 12536.11, -51012.56, -29247.39, 29583.23, 1991.18, 13318.76, 0.00, 0.00, 0.00, 0.00, 0.00, 0.00, 0.00
69, 13098.21, 41873.89, -45.78, 21442.21, 140.93, 1336.57, 12537.05, -51044.83, -29247.39, 29583.23, 1991.18, 13318.76, 0.00, 0.00, 0.00, 0.00, 0.00, 0.00, 0.00
70, 13098.21, 41873.89, -45.78, 21442.21, 140.93, 1336.57, 12537.05, -51044.83, -29221.60, 29580.79, 1982.42, 13335.54, 0.00, 0.00, 0.00, 0.00, -0.12, 0.41, 0.92
71, 13086.10, 41899.55, 16.32, 21469.32, 130.36, 1354.20, 12549.36, -51104.91, -29221.60, 29580.79, 1982.42, 13335.54, 0.00, 0.00, 0.00, 0.00, 0.00, 0.00, 0.00
72, 13086.10, 41899.55, 16.32, 21469.32, 130.36, 1354.20, 12549.36, -51104.91, -29228.41, 29584.28, 1986.44, 13330.31, 0.00, 0.00, 0.00, 0.00, 0.00, 0.00, 0.00
73, 13088.20, 41865.17, 13.46, 21447.66, 94.26, 1344.97, 12520.40, -51170.83, -29228.41, 29584.28, 1986.44, 13330.31, 0.00, 0.00, 0.00, 0.00, 0.00, 0.00, 0.00
74, 13088.20, 41865.17, 13.46, 21447.66, 94.26, 1344.97, 12520.40, -51170.83, -29217.91, 29597.49, 2002.00, 13370.83, 0.00, 0.00, 0.00, 0.00, 0.00, 0.00, 0.00
75, 13068.37, 41899.95, -30.96, 21460.58, 137.33, 1370.81, 12551.13, -51128.25, -29217.91, 29597.49, 2002.00, 13370.83, 0.00, 0.00, 0.00, 0.00, 0.00, 0.00, 0.00
76, 13068.37, 41899.95, -30.96, 21460.58, 137.33, 1370.81, 12551.13, -51128.25, -29236.95, 29583.27, 1972.25, 13308.94, 0.00, 0.00, 0.00, 0.00, 0.00, 0.00, 0.00
77, 13091.71, 41926.20, -59.32, 21454.79, 119.87, 1348.75, 12522.81, -51211.02, -29236.95, 29583.27, 1972.25, 13308.94, 0.00, 0.00, 0.00, 0.00, 0.00, 0.00, 0.00
78, 13091.71, 41926.20, -59.32, 21454.79, 119.87, 1348.75, 12522.81, -51211.02, -29210.35, 29595.03, 1969.86, 13346.03, 0.00, 0.00, 0.00, 0.00, 0.00, 0.00, 0.00
79, 13074.27, 41855.25, -7.22, 21467.64, 148.17, 1351.57, 12555.53, -51201.30, -29210.35, 29595.03, 1969.86, 13346.03, 0.00, 0.00, 0.00, 0.00, 0.00, 0.00, 0.00
80, 13074.27, 41855.25, -7.22, 21467.64, 148.17, 1351.57, 12555.53, -51201.30, -29237.98, 29599.14, 1978.98, 13361.31, 0.00, 0.00, 0.00, 0.00, -0.11, 0.41, 0.92
81, 13072.46, 41884.73, -83.66, 21453.67, 119.05, 1332.92, 12563.18, -51185.94, -29237.98, 29599.14, 1978.98, 13361.31, 0.00, 0.00, 0.00, 0.00, 0.00, 0.00, 0.00
82, 13072.46, 41884.73, -83.66, 21453.67, 119.05, 1332.92, 12563.18, -51185.94, -29221.69, 29593.11, 1942.43, 13339.81, 0.00, 0.00, 0.00, 0.00, 0.00, 0.00, 0.00
83, 13054.74, 41857.17, -52.03, 21477.84, 112.32, 1364.89, 12541.23, -51295.62, -29221.69, 29593.11, 1942.43, 13339.81, 0.00, 0.00, 0.00, 0.00, 0.00, 0.00, 0.00
84, 13054.74, 41857.17, -52.03, 21477.84, 112.32, 1364.89, 12541.23, -51295.62, -29192.29, 29595.14, 1943.06, 13323.99, 0.00, 0.00, 0.00, 0.00, 0.00, 0.00, 0.00
85, 13062.45, 41883.68, -66.07, 21455.24, 103.38, 1346.02, 12530.79, -51287.06, -29192.29, 29595.14, 1943.06, 13323.99, 0.00, 0.00, 0.00, 0.00, 0.00, 0.00, 0.00
86, 13062.45, 41883.68, -66.07, 21455.24, 103.38, 1346.02, 12530.79, -51287.06, -29221.31, 29605.26, 1932.33, 13273.69, 0.00, 0.00, 0.00, 0.00, 0.00, 0.00, 0.00
87, 13046.02, 41864.12, -99.04, 21467.96, 120.32, 1362.63, 12560.36, -51283.46, -29221.31, 29605.26, 1932.33, 13273.69, 0.00, 0.00, 0.00, 0.00, 0.00, 0.00, 0.00
88, 13046.02, 41864.12, -99.04, 21467.96, 120.32, 1362.63, 12560.36, -51283.46, -29225.31, 29592.93, 1937.67, 13319.00, 0.00, 0.00, 0.00, 0.00, 0.00, 0.00, 0.00
89, 13036.74, 41921.61, -24.36, 21466.97, 132.72, 1355.12, 12562.91, -51286.55, -29225.31, 29592.93, 1937.67, 13319.00, 0.00, 0.00, 0.00, 0.00, 0.00, 0.00, 0.00
90, 13036.74, 41921.61, -24.36, 21466.97, 132.72, 1355.12, 12562.91, -51286.55, -29236.77, 29594.18, 1968.23, 13346.52, 0.00, 0.00, 0.00, 0.00, -0.11, 0.41, 0.92
91, 13089.61, 41890.18, -126.06, 21449.76, 117.77, 1347.65, 12558.75, -51336.41, -29236.77, 29594.18, 1968.23, 13346.52, 0.00, 0.00, 0.00, 0.00, 0.00, 0.00, 0.00
92, 13089.61, 41890.18, -126.06, 21449.76, 117.77, 1347.65, 12558.75, -51336.41, -29206.53, 29602.81, 1921.80, 13282.72, 0.00, 0.00, 0.00, 0.00, 0.00, 0.00, 0.00
93, 13022.37, 41815.80, -146.23, 21422.00, 72.87, 1332.16, 12520.71, -51419.54, -29206.53, 29602.81, 1921.80, 13282.72, 0.00, 0.00, 0.00, 0.00, 0.00, 0.00, 0.00
94, 13022.37, 41815.80, -146.23, 21422.00, 72.87, 1332.16, 12520.71, -51419.54, -29214.53, 29598.25, 1962.51, 13355.93, 0.00, 0.00, 0.00, 0.00, 0.00, 0.00, 0.00
95, 13057.46, 41888.04, -68.20, 21442.27, 83.80, 1337.91, 12569.01, -51366.07, -29214.53, 29598.25, 1962.51, 13355.93, 0.00, 0.00, 0.00, 0.00, 0.00, 0.00, 0.00
96, 13057.46, 41888.04, -68.20, 21442.27, 83.80, 1337.91, 12569.01, -51366.07, -29216.32, 29606.58, 1974.93, 13326.47, 0.00, 0.00, 0.00, 0.00, 0.00, 0.00, 0.00
97, 13044.43, 41890.48, -126.67, 21425.55, 87.22, 1338.94, 12513.78, -51462.90, -29216.32, 29606.58, 1974.93, 13326.47, 0.00, 0.00, 0.00, 0.00, 0.00, 0.00, 0.00
98, 13044.43, 41890.48, -126.67, 21425.55, 87.22, 1338.94, 12513.78, -51462.90, -29181.19, 29577.68, 1937.23, 13322.18, 0.00, 0.00, 0.00, 0.00, 0.00, 0.00, 0.00
99, 13021.66, 41851.41, -155.75, 21410.65, 60.17, 1322.75, 12520.31, -51477.00, -29181.19, 29577.68, 1937.23, 13322.18, 0.00, 0.00, 0.00, 0.00, -0.11, 0.41, 0.92
100, 13021.66, 41851.41, -155.75, 21410.65, 60.17, 1322.75, 12520.31, -51477.00, -29241.60, 29610.88, 1955.51, 13261.71, 0.00, 0.00, 0.00, 0.00, 0.00, 0.00, 0.00
101, 13030.49, 41898.86, -92.47, 21429.87, 95.17, 1343.07, 12557.50, -51399.76, -29241.60, 29610.88, 1955.51, 13261.71, 0.00, 0.00, 0.00, 0.00, 0.00, 0.00, 0.00
102, 13030.49, 41898.86, -92.47, 21429.87, 95.17, 1343.07, 12557.50, -51399.76, -29227.59, 29585.60, 1935.55, 13373.90, 0.00, 0.00, 0.00, 0.00, 0.00, 0.00, 0.00
103, 13016.81, 41843.74, -142.89, 21419.30, 72.26, 1329.17, 12535.66, -51472.96, -29227.59, 29585.60, 1935.55, 13373.90, 0.00, 0.00, 0.00, 0.00, 0.00, 0.00, 0.00
104, 13016.81, 41843.74, -142.89, 21419.30, 72.26, 1329.17, 12535.66, -51472.96, -29204.36, 29612.30, 1934.48, 13318.71, 0.00, 0.00, 0.00, 0.00, 0.00, 0.00, 0.00
105, 13035.31, 41848.45, -187.89, 21413.11, 77.43, 1313.43, 12545.16, -51485.77, -29204.36, 29612.30, 1934.48, 13318.71, 0.00, 0.00, 0.00, 0.00, 0.00, 0.00, 0.00
106, 13035.31, 41848.45, -187.89, 21413.11, 77.43, 1313.43, 12545.16, -51485.77, -29223.59, 29587.63, 1936.40, 13357.58, 0.00, 0.00, 0.00, 0.00, 0.00, 0.00, 0.00
107, 13013.01, 41880.33, -174.95, 21428.62, 78.81, 1339.12, 12530.07, -51520.84, -29223.59, 29587.63, 1936.40, 13357.58, 0.00, 0.00, 0.00, 0.00, 0.00, 0.00, 0.00
108, 13013.01, 41880.33, -174.95, 21428.62, 78.81, 1339.12, 12530.07, -51520.84, -29189.46, 29603.19, 1941.47, 13334.98, 0.00, 0.00, 0.00, 0.00, 0.00, 0.00, 0.00
109, 13025.79, 41873.22, -163.79, 21431.75, 70.41, 1346.67, 12531.39, -51510.33, -29189.46, 29603.19, 1941.47, 13334.98, 0.00, 0.00, 0.00, 0.00, -0.11, 0.41, 0.92
110, 13025.79, 41873.22, -163.79, 21431.75, 70.41, 1346.67, 12531.39, -51510.33, -29204.97, 29610.27, 1933.40, 13295.06, 0.00, 0.00, 0.00, 0.00, 0.00, 0.00, 0.00
111, 13024.05, 41881.51, -179.08, 21411.83, 61.09, 1314.37, 12542.64, -51530.09, -29204.97, 29610.27, 1933.40, 13295.06, 0.00, 0.00, 0.00, 0.00, 0.00, 0.00, 0.00
112, 13024.05, 41881.51, -179.08, 21411.83, 61.09, 1314.37, 12542.64, -51530.09, -29248.84, 29598.34, 1934.01, 13382.97, 0.00, 0.00, 0.00, 0.00, 0.00, 0.00, 0.00
113, 12994.34, 41873.98, -166.97, 21419.03, 60.48, 1329.30, 12558.82, -51509.50, -29248.84, 29598.34, 1934.01, 13382.97, 0.00, 0.00, 0.00, 0.00, 0.00, 0.00, 0.00
114, 12994.34, 41873.98, -166.97, 21419.03, 60.48, 1329.30, 12558.82, -51509.50, -29178.64, 29588.34, 1930.70, 13323.11, 0.00, 0.00, 0.00, 0.00, 0.00, 0.00, 0.00
115, 13007.75, 41872.19, -170.92, 21417.17, 52.33, 1333.59, 12509.29, -51619.14, -29178.64, 29588.34, 1930.70, 13323.11, 0.00, 0.00, 0.00, 0.00, 0.00, 0.00, 0.00
116, 13007.75, 41872.19, -170.92, 21417.17, 52.33, 1333.59, 12509.29, -51619.14, -29225.11, 29618.61, 1939.51, 13347.88, 0.00, 0.00, 0.00, 0.00, 0.00, 0.00, 0.00
117, 13029.84, 41893.09, -223.20, 21433.11, 74.88, 1332.90, 12570.73, -51501.05, -29225.11, 29618.61, 1939.51, 13347.88, 0.00, 0.00, 0.00, 0.00, 0.00, 0.00, 0.00
118, 13029.84, 41893.09, -223.20, 21433.11, 74.88, 1332.90, 12570.73, -51501.05, -29196.63, 29614.29, 1921.67, 13346.70, 0.00, 0.00, 0.00, 0.00, 0.00, 0.00, 0.00
119, 12993.69, 41833.10, -198.75, 21409.64, 50.76, 1326.58, 12523.06, -51587.45, -29196.63, 29614.29, 1921.67, 13346.70, 0.00, 0.00, 0.00, 0.00, -0.11, 0.41, 0.92
120, 12993.69, 41833.10, -198.75, 21409.64, 50.76, 1326.58, 12523.06, -51587.45, -29161.47, 29617.94, 1920.08, 13272.24, 0.00, 0.00, 0.00, 0.00, 0.00, 0.00, 0.00
121, 13002.48, 41894.43, -234.58, 21422.94, 40.66, 1343.05, 12516.62, -51655.98, -29161.47, 29617.94, 1920.08, 13272.24, 0.00, 0.00, 0.00, 0.00, 0.00, 0.00, 0.00
122, 13002.48, 41894.43, -234.58, 21422.94, 40.66, 1343.05, 12516.62, -51655.98, -29205.37, 29618.09, 1915.92, 13402.20, 0.00, 0.00, 0.00, 0.00, 0.00, 0.00, 0.00
123, 12992.93, 41840.36, -228.19, 21405.21, 55.90, 1309.77, 12544.60, -51582.26, -29205.37, 29618.09, 1915.92, 13402.20, 0.00, 0.00, 0.00, 0.00, 0.00, 0.00, 0.00
124, 12992.93, 41840.36, -228.19, 21405.21, 55.90, 1309.77, 12544.60, -51582.26, -29222.94, 29616.98, 1915.75, 13300.25, 0.00, 0.00, 0.00, 0.00, 0.00, 0.00, 0.00
125, 12980.82, 41844.99, -198.53, 21430.67, 56.66, 1329.33, 12567.07, -51586.44, -29222.94, 29616.98, 1915.75, 13300.25, 0.00, 0.00, 0.00, 0.00, 0.00, 0.00, 0.00
126, 12980.82, 41844.99, -198.53, 21430.67, 56.66, 1329.33, 12567.07, -51586.44, -29204.39, 29599.30, 1907.79, 13312.32, 0.00, 0.00, 0.00, 0.00, 0.00, 0.00, 0.00
127, 12976.44, 41836.07, -265.76, 21413.02, 26.33, 1324.41, 12517.83, -51672.92, -29204.39, 29599.30, 1907.79, 13312.32, 0.00, 0.00, 0.00, 0.00, 0.00, 0.00, 0.00
128, 12976.44, 41836.07, -265.76, 21413.02, 26.33, 1324.41, 12517.83, -51672.92, -29227.25, 29589.86, 1889.86, 13331.65, 0.00, 0.00, 0.00, 0.00, 0.00, 0.00, 0.00
129, 12983.10, 41870.52, -249.36, 21433.62, 29.62, 1336.63, 12543.71, -51644.98, -29227.25, 29589.86, 1889.86, 13331.65, 0.00, 0.00, 0.00, 0.00, -0.11, 0.41, 0.91
130, 12983.10, 41870.52, -249.36, 21433.62, 29.62, 1336.63, 12543.71, -51644.98, -29190.64, 29615.86, 1895.56, 13310.69, 0.00, 0.00, 0.00, 0.00, 0.00, 0.00, 0.00
131, 12942.04, 41836.83, -260.80, 21403.05, 23.47, 1318.84, 12518.54, -51663.08, -29190.64, 29615.86, 1895.56, 13310.69, 0.00, 0.00, 0.00, 0.00, 0.00, 0.00, 0.00
132, 12942.04, 41836.83, -260.80, 21403.05, 23.47, 1318.84, 12518.54, -51663.08, -29198.11, 29620.31, 1876.90, 13347.37, 0.00, 0.00, 0.00, 0.00, 0.00, 0.00, 0.00
133, 12953.24, 41850.18, -280.45, 21420.12, 30.64, 1312.90, 12554.77, -51642.36, -29198.11, 29620.31, 1876.90, 13347.37, 0.00, 0.00, 0.00, 0.00, 0.00, 0.00, 0.00
134, 12953.24, 41850.18, -280.45, 21420.12, 30.64, 1312.90, 12554.77, -51642.36, -29180.18, 29627.53, 1886.62, 13354.72, 0.00, 0.00, 0.00, 0.00, 0.00, 0.00, 0.00
135, 12999.13, 41860.64, -314.09, 21402.58, -5.19, 1317.19, 12521.36, -51676.07, -29180.18, 29627.53, 1886.62, 13354.72, 0.00, 0.00, 0.00, 0.00, 0.00, 0.00, 0.00
136, 12999.13, 41860.64, -314.09, 21402.58, -5.19, 1317.19, 12521.36, -51676.07, -29142.87, 29606.56, 1864.09, 13295.76, 0.00, 0.00, 0.00, 0.00, 0.00, 0.00, 0.00
137, 12951.00, 41811.08, -280.63, 21428.82, 38.91, 1339.29, 12517.49, -51689.48, -29142.87, 29606.56, 1864.09, 13295.76, 0.00, 0.00, 0.00, 0.00, 0.00, 0.00, 0.00
138, 12951.00, 41811.08, -280.63, 21428.82, 38.91, 1339.29, 12517.49, -51689.48, -29189.39, 29627.95, 1889.08, 13363.77, 0.00, 0.00, 0.00, 0.00, -0.11, 0.41, 0.91
139, 12966.09, 41838.78, -307.52, 21402.67, 30.00, 1303.33, 12543.55, -51644.66, -29189.39, 29627.95, 1889.08, 13363.77, 0.00, 0.00, 0.00, 0.00, 0.00, 0.00, 0.00
140, 12966.09, 41838.78, -307.52, 21402.67, 30.00, 1303.33, 12543.55, -51644.66, -29197.50, 29622.77, 1877.81, 13336.50, 0.00, 0.00, 0.00, 0.00, 0.00, 0.00, 0.00
141, 12960.23, 41878.23, -325.62, 21417.53, 26.96, 1325.06, 12539.69, -51645.18, -29197.50, 29622.77, 1877.81, 13336.50, 0.00, 0.00, 0.00, 0.00, 0.00, 0.00, 0.00
142, 12960.23, 41878.23, -325.62, 21417.53, 26.96, 1325.06, 12539.69, -51645.18, -29151.05, 29621.60, 1878.28, 13270.03, 0.00, 0.00, 0.00, 0.00, 0.00, 0.00, 0.00
143, 12924.65, 41814.70, -313.84, 21398.51, 3.76, 1312.54, 12522.70, -51674.35, -29151.05, 29621.60, 1878.28, 13270.03, 0.00, 0.00, 0.00, 0.00, 0.00, 0.00, 0.00
144, 12924.65, 41814.70, -313.84, 21398.51, 3.76, 1312.54, 12522.70, -51674.35, -29162.28, 29620.42, 1852.47, 13320.39, 0.00, 0.00, 0.00, 0.00, 0.00, 0.00, 0.00
145, 12950.64, 41870.09, -335.19, 21428.21, -3.38, 1319.22, 12541.12, -51660.49, -29162.28, 29620.42, 1852.47, 13320.39, 0.00, 0.00, 0.00, 0.00, 0.00, 0.00, 0.00
146, 12950.64, 41870.09, -335.19, 21428.21, -3.38, 1319.22, 12541.12, -51660.49, -29185.59, 29645.70, 1873.48, 13348.86, 0.00, 0.00, 0.00, 0.00, 0.00, 0.00, 0.00
147, 12950.33, 41858.51, -325.84, 21419.70, 10.01, 1316.92, 12537.09, -51685.93, -29185.59, 29645.70, 1873.48, 13348.86, 0.00, 0.00, 0.00, 0.00, 0.00, 0.00, 0.00
148, 12950.33, 41858.51, -325.84, 21419.70, 10.01, 1316.92, 12537.09, -51685.93, -29146.65, 29618.47, 1845.94, 13313.53, 0.00, 0.00, 0.00, 0.00, -0.12, 0.41, 0.91
149, 12952.77, 41834.89, -296.90, 21409.37, 34.35, 1314.91, 12544.36, -51650.43, -29146.65, 29618.47, 1845.94, 13313.53, 0.00, 0.00, 0.00, 0.00, 0.00, 0.00, 0.00
150, 12952.77, 41834.89, -296.90, 21409.37, 34.35, 1314.91, 12544.36, -51650.43, -29161.18, 29645.19, 1874.75, 13373.21, 0.00, 0.00, 0.00, 0.00, 0.00, 0.00, 0.00
151, 12927.42, 41892.09, -398.69, 21401.91, 2.35, 1304.22, 12534.50, -51693.37, -29161.18, 29645.19, 1874.75, 13373.21, 0.00, 0.00, 0.00, 0.00, 0.00, 0.00, 0.00
152, 12927.42, 41892.09, -398.69, 21401.91, 2.35, 1304.22, 12534.50, -51693.37, -29161.56, 29601.17, 1841.43, 13325.26, 0.00, 0.00, 0.00, 0.00, 0.00, 0.00, 0.00
153, 12906.39, 41791.59, -352.02, 21401.37, 8.36, 1306.82, 12520.28, -51705.30, -29161.56, 29601.17, 1841.43, 13325.26, 0.00, 0.00, 0.00, 0.00, 0.00, 0.00, 0.00
154, 12906.39, 41791.59, -352.02, 21401.37, 8.36, 1306.82, 12520.28, -51705.30, -29143.37, 29649.77, 1856.87, 13288.25, 0.00, 0.00, 0.00, 0.00, 0.00, 0.00, 0.00
155, 12933.59, 41824.76, -393.84, 21406.71, -4.87, 1319.02, 12528.08, -51722.58, -29143.37, 29649.77, 1856.87, 13288.25, 0.00, 0.00, 0.00, 0.00, 0.00, 0.00, 0.00
156, 12933.59, 41824.76, -393.84, 21406.71, -4.87, 1319.02, 12528.08, -51722.58, -29166.61, 29613.24, 1829.91, 13304.85, 0.00, 0.00, 0.00, 0.00, 0.00, 0.00, 0.00
157, 12928.74, 41856.59, -392.25, 21414.78, 8.16, 1321.97, 12533.99, -51698.49, -29166.61, 29613.24, 1829.91, 13304.85, 0.00, 0.00, 0.00, 0.00, 0.00, 0.00, 0.00
158, 12928.74, 41856.59, -392.25, 21414.78, 8.16, 1321.97, 12533.99, -51698.49, -29225.22, 29608.73, 1847.89, 13360.51, 0.00, 0.00, 0.00, 0.00, -0.11, 0.41, 0.91
159, 12905.63, 41823.51, -409.64, 21400.68, -7.40, 1295.75, 12536.04, -51713.02, -29225.22, 29608.73, 1847.89, 13360.51, 0.00, 0.00, 0.00, 0.00, 0.00, 0.00, 0.00
160, 12905.63, 41823.51, -409.64, 21400.68, -7.40, 1295.75, 12536.04, -51713.02, -29193.72, 29595.54, 1824.73, 13304.00, 0.00, 0.00, 0.00, 0.00, 0.00, 0.00, 0.00
161, 12909.74, 41816.47, -360.78, 21405.13, -21.77, 1311.00, 12525.22, -51733.54, -29193.72, 29595.54, 1824.73, 13304.00, 0.00, 0.00, 0.00, 0.00, 0.00, 0.00, 0.00
162, 12909.74, 41816.47, -360.78, 21405.13, -21.77, 1311.00, 12525.22, -51733.54, -29193.08, 29622.07, 1842.43, 13323.87, 0.00, 0.00, 0.00, 0.00, 0.00, 0.00, 0.00
163, 12934.02, 41902.95, -418.11, 21417.82, 13.66, 1311.11, 12542.97, -51716.66, -29193.08, 29622.07, 1842.43, 13323.87, 0.00, 0.00, 0.00, 0.00, 0.00, 0.00, 0.00
164, 12934.02, 41902.95, -418.11, 21417.82, 13.66, 1311.11, 12542.97, -51716.66, -29157.34, 29634.39, 1839.10, 13319.23, 0.00, 0.00, 0.00, 0.00, 0.00, 0.00, 0.00
165, 12945.46, 41858.87, -454.03, 21399.02, -20.25, 1307.89, 12524.96, -51719.10, -29157.34, 29634.39, 1839.10, 13319.23, 0.00, 0.00, 0.00, 0.00, 0.00, 0.00, 0.00
166, 12945.46, 41858.87, -454.03, 21399.02, -20.25, 1307.89, 12524.96, -51719.10, -29191.02, 29625.25, 1824.82, 13293.21, 0.00, 0.00, 0.00, 0.00, 0.00, 0.00, 0.00
167, 12888.08, 41796.84, -392.79, 21422.22, -1.27, 1311.60, 12531.93, -51707.56, -29191.02, 29625.25, 1824.82, 13293.21, 0.00, 0.00, 0.00, 0.00, 0.00, 0.00, 0.00
168, 12888.08, 41796.84, -392.79, 21422.22, -1.27, 1311.60, 12531.93, -51707.56, -29181.63, 29592.61, 1826.61, 13299.04, 0.00, 0.00, 0.00, 0.00, -0.12, 0.41, 0.91
169, 12874.54, 41832.61, -423.79, 21411.96, -25.32, 1315.56, 12514.52, -51749.11, -29181.63, 29592.61, 1826.61, 13299.04, 0.00, 0.00, 0.00, 0.00, 0.00, 0.00, 0.00
170, 12874.54, 41832.61, -423.79, 21411.96, -25.32, 1315.56, 12514.52, -51749.11, -29206.55, 29626.59, 1822.52, 13308.70, 0.00, 0.00, 0.00, 0.00, 0.00, 0.00, 0.00
171, 12916.83, 41839.56, -419.10, 21415.09, -6.57, 1311.85, 12556.03, -51659.91, -29206.55, 29626.59, 1822.52, 13308.70, 0.00, 0.00, 0.00, 0.00, 0.00, 0.00, 0.00
172, 12916.83, 41839.56, -419.10, 21415.09, -6.57, 1311.85, 12556.03, -51659.91, -29162.37, 29624.17, 1833.36, 13257.11, 0.00, 0.00, 0.00, 0.00, 0.00, 0.00, 0.00
173, 12927.91, 41873.09, -487.72, 21388.50, -47.36, 1298.14, 12497.66, -51765.77, -29162.37, 29624.17, 1833.36, 13257.11, 0.00, 0.00, 0.00, 0.00, 0.00, 0.00, 0.00
174, 12927.91, 41873.09, -487.72, 21388.50, -47.36, 1298.14, 12497.66, -51765.77, -29187.71, 29619.30, 1817.02, 13378.66, 0.00, 0.00, 0.00, 0.00, 0.00, 0.00, 0.00
175, 12849.86, 41847.18, -475.47, 21429.33, -20.14, 1325.46, 12531.35, -51675.15, -29187.71, 29619.30, 1817.02, 13378.66, 0.00, 0.00, 0.00, 0.00, 0.00, 0.00, 0.00
176, 12849.86, 41847.18, -475.47, 21429.33, -20.14, 1325.46, 12531.35, -51675.15, -29177.59, 29604.77, 1817.06, 13300.36, 0.00, 0.00, 0.00, 0.00, 0.00, 0.00, 0.00
177, 12909.96, 41810.88, -476.65, 21397.55, -55.88, 1302.77, 12508.24, -51705.37, -29177.59, 29604.77, 1817.06, 13300.36, 0.00, 0.00, 0.00, 0.00, -0.12, 0.41, 0.91
178, 12909.96, 41810.88, -476.65, 21397.55, -55.88, 1302.77, 12508.24, -51705.37, -29193.72, 29632.29, 1794.98, 13354.25, 0.00, 0.00, 0.00, 0.00, 0.00, 0.00, 0.00
179, 12876.06, 41788.13, -491.69, 21400.32, 5.48, 1290.77, 12544.87, -51640.08, -29193.72, 29632.29, 1794.98, 13354.25, 0.00, 0.00, 0.00, 0.00, 0.00, 0.00, 0.00
180, 12876.06, 41788.13, -491.69, 21400.32, 5.48, 1290.77, 12544.87, -51640.08, -29202.02, 29616.04, 1807.16, 13312.99, 0.00, 0.00, 0.00, 0.00, 0.00, 0.00, 0.00
181, 12840.96, 41791.91, -460.18, 21392.25, -34.69, 1295.42, 12508.88, -51688.63, -29202.02, 29616.04, 1807.16, 13312.99, 0.00, 0.00, 0.00, 0.00, 0.00, 0.00, 0.00
182, 12840.96, 41791.91, -460.18, 21392.25, -34.69, 1295.42, 12508.88, -51688.63, -29180.80, 29623.39, 1798.89, 13251.52, 0.00, 0.00, 0.00, 0.00, 0.00, 0.00, 0.00
183, 12871.65, 41878.09, -499.16, 21399.89, -24.32, 1302.68, 12534.41, -51654.97, -29180.80, 29623.39, 1798.89, 13251.52, 0.00, 0.00, 0.00, 0.00, 0.00, 0.00, 0.00
184, 12871.65, 41878.09, -499.16, 21399.89, -24.32, 1302.68, 12534.41, -51654.97, -29189.10, 29620.66, 1806.45, 13273.20, 0.00, 0.00, 0.00, 0.00, 0.00, 0.00, 0.00
185, 12874.18, 41798.43, -511.94, 21388.05, -49.06, 1294.95, 12509.47, -51680.23, -29189.10, 29620.66, 1806.45, 13273.20, 0.00, 0.00, 0.00, 0.00, 0.00, 0.00, 0.00
186, 12874.18, 41798.43, -511.94, 21388.05, -49.06, 1294.95, 12509.47, -51680.23, -29185.97, 29596.21, 1781.28, 13381.97, 0.00, 0.00, 0.00, 0.00, 0.00, 0.00, 0.00
187, 12851.43, 41825.52, -494.96, 21398.89, -22.31, 1298.68, 12514.25, -51662.93, -29185.97, 29596.21, 1781.28, 13381.97, 0.00, 0.00, 0.00, 0.00, -0.12, 0.40, 0.91
188, 12851.43, 41825.52, -494.96, 21398.89, -22.31, 1298.68, 12514.25, -51662.93, -29191.64, 29621.89, 1820.46, 13301.28, 0.00, 0.00, 0.00, 0.00, 0.00, 0.00, 0.00
189, 12844.32, 41824.61, -463.93, 21400.79, -40.08, 1311.00, 12501.49, -51663.84, -29191.64, 29621.89, 1820.46, 13301.28, 0.00, 0.00, 0.00, 0.00, 0.00, 0.00, 0.00
190, 12844.32, 41824.61, -463.93, 21400.79, -40.08, 1311.00, 12501.49, -51663.84, -29180.31, 29613.82, 1809.37, 13297.88, 0.00, 0.00, 0.00, 0.00, 0.00, 0.00, 0.00
191, 12889.02, 41843.09, -525.71, 21389.03, -24.94, 1289.52, 12517.94, -51637.11, -29180.31, 29613.82, 1809.37, 13297.88, 0.00, 0.00, 0.00, 0.00, 0.00, 0.00, 0.00
192, 12889.02, 41843.09, -525.71, 21389.03, -24.94, 1289.52, 12517.94, -51637.11, -29187.00, 29632.13, 1826.29, 13228.30, 0.00, 0.00, 0.00, 0.00, 0.00, 0.00, 0.00
193, 12878.07, 41835.76, -501.33, 21392.59, -27.69, 1296.07, 12506.07, -51617.95, -29187.00, 29632.13, 1826.29, 13228.30, 0.00, 0.00, 0.00, 0.00, 0.00, 0.00, 0.00
194, 12878.07, 41835.76, -501.33, 21392.59, -27.69, 1296.07, 12506.07, -51617.95, -29192.25, 29597.24, 1818.56, 13398.57, 0.00, 0.00, 0.00, 0.00, 0.00, 0.00, 0.00
195, 12874.00, 41855.76, -469.27, 21397.01, -23.20, 1294.50, 12508.62, -51593.39, -29192.25, 29597.24, 1818.56, 13398.57, 0.00, 0.00, 0.00, 0.00, 0.00, 0.00, 0.00
196, 12874.00, 41855.76, -469.27, 21397.01, -23.20, 1294.50, 12508.62, -51593.39, -29189.12, 29622.45, 1847.33, 13326.29, 0.00, 0.00, 0.00, 0.00, 0.00, 0.00, 0.00
197, 12854.26, 41806.84, -438.54, 21390.55, -17.43, 1293.05, 12492.46, -51568.07, -29189.12, 29622.45, 1847.33, 13326.29, 0.00, 0.00, 0.00, 0.00, -0.12, 0.41, 0.91
198, 12854.26, 41806.84, -438.54, 21390.55, -17.43, 1293.05, 12492.46, -51568.07, -29177.70, 29604.59, 1829.29, 13285.05, 0.00, 0.00, 0.00, 0.00, 0.00, 0.00, 0.00
199, 12866.31, 41838.82, -467.35, 21399.83, -7.98, 1293.09, 12495.12, -51522.76, -29177.70, 29604.59, 1829.29, 13285.05, 0.00, 0.00, 0.00, 0.00, 0.00, 0.00, 0.00
200, 12866.31, 41838.82, -467.35, 21399.83, -7.98, 1293.09, 12495.12, -51522.76, -29188.63, 29631.68, 1878.35, 13295.15, 0.00, 0.00, 0.00, 0.00, 0.00, 0.00, 0.00
201, 12880.04, 41856.28, -403.36, 21472.27, 54.40, 1328.43, 12512.53, -51446.58, -29188.63, 29631.68, 1878.35, 13295.15, 0.00, 0.00, 0.00, 0.00, 0.00, 0.00, 0.00
202, 12880.04, 41856.28, -403.36, 21472.27, 54.40, 1328.43, 12512.53, -51446.58, -29158.50, 29631.37, 1879.27, 13347.77, 0.00, 0.00, 0.00, 0.00, 0.00, 0.00, 0.00
203, 12847.60, 41821.45, -437.45, 21423.95, 25.50, 1308.81, 12483.00, -51434.58, -29158.50, 29631.37, 1879.27, 13347.77, 0.00, 0.00, 0.00, 0.00, 0.00, 0.00, 0.00
204, 12847.60, 41821.45, -437.45, 21423.95, 25.50, 1308.81, 12483.00, -51434.58, -29197.90, 29622.63, 1799.76, 13282.08, 0.00, 0.00, 0.00, 0.00, 0.00, 0.00, 0.00
205, 12828.85, 41794.18, -469.16, 21434.67, 55.59, 1290.32, 12488.70, -51377.02, -29197.90, 29622.63, 1799.76, 13282.08, 0.00, 0.00, 0.00, 0.00, 0.00, 0.00, 0.00
206, 12828.85, 41794.18, -469.16, 21434.67, 55.59, 1290.32, 12488.70, -51377.02, -29190.13, 29605.11, 1746.21, 13306.08, 0.00, 0.00, 0.00, 0.00, 0.00, 0.00, 0.00
207, 12835.51, 41794.77, -477.25, 21451.37, 71.55, 1300.47, 12466.95, -51354.92, -29190.13, 29605.11, 1746.21, 13306.08, 0.00, 0.00, 0.00, 0.00, -0.12, 0.41, 0.91
208, 12835.51, 41794.77, -477.25, 21451.37, 71.55, 1300.47, 12466.95, -51354.92, -29200.32, 29621.11, 1700.21, 13317.42, 0.00, 0.00, 0.00, 0.00, 0.00, 0.00, 0.00
209, 12811.04, 41767.30, -464.22, 21488.45, 88.42, 1311.80, 12471.13, -51301.01, -29200.32, 29621.11, 1700.21, 13317.42, 0.00, 0.00, 0.00, 0.00, 0.00, 0.00, 0.00
210, 12811.04, 41767.30, -464.22, 21488.45, 88.42, 1311.80, 12471.13, -51301.01, -29198.28, 29599.59, 1667.28, 13321.26, 0.00, 0.00, 0.00, 0.00, 0.00, 0.00, 0.00
211, 12776.79, 41718.23, -493.28, 21489.66, 86.75, 1307.24, 12451.40, -51278.45, -29198.28, 29599.59, 1667.28, 13321.26, 0.00, 0.00, 0.00, 0.00, 0.00, 0.00, 0.00
212, 12776.79, 41718.23, -493.28, 21489.66, 86.75, 1307.24, 12451.40, -51278.45, -29208.86, 29610.47, 1629.29, 13296.11, 0.00, 0.00, 0.00, 0.00, 0.00, 0.00, 0.00
213, 12778.36, 41696.38, -464.92, 21520.91, 91.35, 1320.59, 12458.10, -51237.19, -29208.86, 29610.47, 1629.29, 13296.11, 0.00, 0.00, 0.00, 0.00, 0.00, 0.00, 0.00
214, 12778.36, 41696.38, -464.92, 21520.91, 91.35, 1320.59, 12458.10, -51237.19, -29228.39, 29592.99, 1637.58, 13265.51, 0.00, 0.00, 0.00, 0.00, 0.00, 0.00, 0.00
215, 12783.61, 41720.38, -411.27, 21533.87, 128.72, 1319.74, 12440.82, -51190.21, -29228.39, 29592.99, 1637.58, 13265.51, 0.00, 0.00, 0.00, 0.00, 0.00, 0.00, 0.00
216, 12783.61, 41720.38, -411.27, 21533.87, 128.72, 1319.74, 12440.82, -51190.21, -29219.05, 29603.30, 1642.85, 13322.87, 0.00, 0.00, 0.00, 0.00, -0.12, 0.41, 0.91
217, 12836.09, 41742.11, -413.48, 21531.79, 124.10, 1314.01, 12433.78, -51149.51, -29219.05, 29603.30, 1642.85, 13322.87, 0.00, 0.00, 0.00, 0.00, 0.00, 0.00, 0.00
218, 12836.09, 41742.11, -413.48, 21531.79, 124.10, 1314.01, 12433.78, -51149.51, -29207.74, 29607.32, 1670.41, 13349.69, 0.00, 0.00, 0.00, 0.00, 0.00, 0.00, 0.00
219, 12868.86, 41751.54, -357.85, 21524.30, 122.06, 1309.21, 12421.65, -51110.93, -29207.74, 29607.32, 1670.41, 13349.69, 0.00, 0.00, 0.00, 0.00, 0.00, 0.00, 0.00
220, 12868.86, 41751.54, -357.85, 21524.30, 122.06, 1309.21, 12421.65, -51110.93, -29183.69, 29613.71, 1737.83, 13365.38, 0.00, 0.00, 0.00, 0.00, 0.00, 0.00, 0.00
221, 12879.21, 41793.49, -282.06, 21538.63, 162.77, 1318.10, 12430.68, -51048.34, -29183.69, 29613.71, 1737.83, 13365.38, 0.00, 0.00, 0.00, 0.00, 0.00, 0.00, 0.00
222, 12879.21, 41793.49, -282.06, 21538.63, 162.77, 1318.10, 12430.68, -51048.34, -29231.59, 29596.66, 1768.63, 13335.39, 0.00, 0.00, 0.00, 0.00, 0.00, 0.00, 0.00
223, 12871.65, 41743.07, -253.18, 21520.28, 149.26, 1306.17, 12402.76, -51014.50, -29231.59, 29596.66, 1768.63, 13335.39, 0.00, 0.00, 0.00, 0.00, 0.00, 0.00, 0.00
224, 12871.65, 41743.07, -253.18, 21520.28, 149.26, 1306.17, 12402.76, -51014.50, -29211.40, 29610.41, 1792.21, 13322.33, 0.00, 0.00, 0.00, 0.00, 0.00, 0.00, 0.00
225, 12905.25, 41803.82, -196.23, 21530.32, 162.34, 1312.61, 12407.56, -50953.97, -29211.40, 29610.41, 1792.21, 13322.33, 0.00, 0.00, 0.00, 0.00, 0.00, 0.00, 0.00
