%OpenBCI Raw EEG Data
%
%Sample Rate = 250.0 Hz
%First Column = SampleIndex
%Other Columns = EEG data in microvolts followed by Accel Data (in G) interleaved with Aux Data
0, 0.00, 0.00, 0.00, 0.00, 0.00, 0.00, 0.00, 0.00, -26354.45, 29801.49, 1819.86, 17156.01, 0.00, 0.00, 0.00, 0.00, -0.04, 0.26, 0.97
1, 13206.42, 40069.75, 1293.74, 18382.05, -284.67, -302.24, 9468.18, -39716.37, -26354.45, 29801.49, 1819.86, 17156.01, 0.00, 0.00, 0.00, 0.00, 0.00, 0.00, 0.00
2, 13206.42, 40069.75, 1293.74, 18382.05, -284.67, -302.24, 9468.18, -39716.37, -26319.09, 29698.92, 1789.97, 17176.11, 0.00, 0.00, 0.00, 0.00, 0.00, 0.00, 0.00
3, 13201.45, 40065.03, 1291.01, 18369.98, -294.86, -311.27, 9456.35, -39719.94, -26319.09, 29698.92, 1789.97, 17176.11, 0.00, 0.00, 0.00, 0.00, 0.00, 0.00, 0.00
4, 13201.45, 40065.03, 1291.01, 18369.98, -294.86, -311.27, 9456.35, -39719.94, -26312.79, 29715.62, 1790.29, 17183.51, 0.00, 0.00, 0.00, 0.00, 0.00, 0.00, 0.00
5, 13208.90, 40082.87, 1298.88, 18385.99, -280.98, -298.35, 9473.63, -39710.11, -26312.79, 29715.62, 1790.29, 17183.51, 0.00, 0.00, 0.00, 0.00, 0.00, 0.00, 0.00
6, 13208.90, 40082.87, 1298.88, 18385.99, -280.98, -298.35, 9473.63, -39710.11, -26311.22, 29707.61, 1798.60, 17180.18, 0.00, 0.00, 0.00, 0.00, 0.00, 0.00, 0.00
7, 13204.54, 40073.57, 1297.16, 18373.80, -287.24, -307.96, 9462.32, -39712.30, -26311.22, 29707.61, 1798.60, 17180.18, 0.00, 0.00, 0.00, 0.00, -0.05, 0.26, 0.97
8, 13204.54, 40073.57, 1297.16, 18373.80, -287.24, -307.96, 9462.32, -39712.30, -26308.74, 29711.50, 1800.68, 17181.63, 0.00, 0.00, 0.00, 0.00, 0.00, 0.00, 0.00
9, 13215.40, 40080.23, 1304.56, 18389.43, -274.03, -296.52, 9479.35, -39703.38, -26308.74, 29711.50, 1800.68, 17181.63, 0.00, 0.00, 0.00, 0.00, 0.00, 0.00, 0.00
10, 13215.40, 40080.23, 1304.56, 18389.43, -274.03, -296.52, 9479.35, -39703.38, -26307.20, 29716.93, 1806.74, 17183.73, 0.00, 0.00, 0.00, 0.00, 0.00, 0.00, 0.00
11, 13198.64, 40061.28, 1294.39, 18370.88, -290.53, -309.93, 9460.40, -39713.46, -26307.20, 29716.93, 1806.74, 17183.73, 0.00, 0.00, 0.00, 0.00, 0.00, 0.00, 0.00
12, 13198.64, 40061.28, 1294.39, 18370.88, -290.53, -309.93, 9460.40, -39713.46, -26313.59, 29706.18, 1789.32, 17182.01, 0.00, 0.00, 0.00, 0.00, 0.00, 0.00, 0.00
13, 13202.35, 40068.27, 1294.70, 18380.71, -284.25, -302.42, 9473.12, -39714.18, -26313.59, 29706.18, 1789.32, 17182.01, 0.00, 0.00, 0.00, 0.00, 0.00, 0.00, 0.00
14, 13202.35, 40068.27, 1294.70, 18380.71, -284.25, -302.42, 9473.12, -39714.18, -26316.81, 29716.20, 1793.37, 17181.56, 0.00, 0.00, 0.00, 0.00, 0.00, 0.00, 0.00
15, 13192.78, 40062.59, 1291.15, 18368.53, -291.58, -312.14, 9459.57, -39715.63, -26316.81, 29716.20, 1793.37, 17181.56, 0.00, 0.00, 0.00, 0.00, 0.00, 0.00, 0.00
16, 13192.78, 40062.59, 1291.15, 18368.53, -291.58, -312.14, 9459.57, -39715.63, -26309.14, 29708.84, 1790.04, 17183.91, 0.00, 0.00, 0.00, 0.00, -0.05, 0.26, 0.98
17, 13209.92, 40081.86, 1300.63, 18384.18, -276.74, -300.92, 9477.77, -39706.46, -26309.14, 29708.84, 1790.04, 17183.91, 0.00, 0.00, 0.00, 0.00, 0.00, 0.00, 0.00
18, 13209.92, 40081.86, 1300.63, 18384.18, -276.74, -300.92, 9477.77, -39706.46, -26307.42, 29720.58, 1805.64, 17185.16, 0.00, 0.00, 0.00, 0.00, 0.00, 0.00, 0.00
19, 13198.84, 40060.92, 1290.99, 18367.86, -290.98, -310.40, 9461.49, -39712.54, -26307.42, 29720.58, 1805.64, 17185.16, 0.00, 0.00, 0.00, 0.00, 0.00, 0.00, 0.00
20, 13198.84, 40060.92, 1290.99, 18367.86, -290.98, -310.40, 9461.49, -39712.54, -26314.15, 29699.32, 1785.41, 17178.92, 0.00, 0.00, 0.00, 0.00, 0.00, 0.00, 0.00
21, 13201.45, 40071.49, 1292.27, 18378.92, -286.53, -302.71, 9472.02, -39711.58, -26314.15, 29699.32, 1785.41, 17178.92, 0.00, 0.00, 0.00, 0.00, 0.00, 0.00, 0.00
22, 13201.45, 40071.49, 1292.27, 18378.92, -286.53, -302.71, 9472.02, -39711.58, -26314.17, 29721.98, 1789.88, 17190.97, 0.00, 0.00, 0.00, 0.00, 0.00, 0.00, 0.00
23, 13198.46, 40064.25, 1289.05, 18366.00, -293.57, -310.24, 9461.14, -39716.61, -26314.17, 29721.98, 1789.88, 17190.97, 0.00, 0.00, 0.00, 0.00, 0.00, 0.00, 0.00
24, 13198.46, 40064.25, 1289.05, 18366.00, -293.57, -310.24, 9461.14, -39716.61, -26311.87, 29701.91, 1778.10, 17182.93, 0.00, 0.00, 0.00, 0.00, 0.00, 0.00, 0.00
25, 13202.01, 40064.32, 1288.38, 18377.20, -291.67, -304.88, 9467.55, -39717.19, -26311.87, 29701.91, 1778.10, 17182.93, 0.00, 0.00, 0.00, 0.00, 0.00, 0.00, 0.00
26, 13202.01, 40064.32, 1288.38, 18377.20, -291.67, -304.88, 9467.55, -39717.19, -26322.22, 29718.63, 1786.91, 17186.19, 0.00, 0.00, 0.00, 0.00, -0.05, 0.27, 0.97
27, 13193.25, 40057.81, 1285.07, 18366.27, -299.80, -311.90, 9455.50, -39722.96, -26322.22, 29718.63, 1786.91, 17186.19, 0.00, 0.00, 0.00, 0.00, 0.00, 0.00, 0.00
28, 13193.25, 40057.81, 1285.07, 18366.27, -299.80, -311.90, 9455.50, -39722.96, -26316.27, 29694.38, 1774.04, 17173.96, 0.00, 0.00, 0.00, 0.00, 0.00, 0.00, 0.00
29, 13195.62, 40061.10, 1284.13, 18370.83, -292.90, -311.47, 9461.81, -39721.75, -26316.27, 29694.38, 1774.04, 17173.96, 0.00, 0.00, 0.00, 0.00, 0.00, 0.00, 0.00
30, 13195.62, 40061.10, 1284.13, 18370.83, -292.90, -311.47, 9461.81, -39721.75, -26324.45, 29710.90, 1784.16, 17177.45, 0.00, 0.00, 0.00, 0.00, 0.00, 0.00, 0.00
31, 13200.54, 40059.00, 1287.37, 18371.66, -296.65, -310.06, 9459.95, -39722.27, -26324.45, 29710.90, 1784.16, 17177.45, 0.00, 0.00, 0.00, 0.00, 0.00, 0.00, 0.00
32, 13200.54, 40059.00, 1287.37, 18371.66, -296.65, -310.06, 9459.95, -39722.27, -26313.84, 29694.56, 1773.30, 17171.59, 0.00, 0.00, 0.00, 0.00, 0.00, 0.00, 0.00
33, 13196.89, 40063.64, 1290.52, 18375.55, -292.83, -307.94, 9462.03, -39720.70, -26313.84, 29694.56, 1773.30, 17171.59, 0.00, 0.00, 0.00, 0.00, 0.00, 0.00, 0.00
34, 13196.89, 40063.64, 1290.52, 18375.55, -292.83, -307.94, 9462.03, -39720.70, -26317.39, 29716.42, 1790.87, 17185.99, 0.00, 0.00, 0.00, 0.00, 0.00, 0.00, 0.00
35, 13205.32, 40071.04, 1295.60, 18376.82, -289.25, -306.22, 9465.63, -39717.26, -26317.39, 29716.42, 1790.87, 17185.99, 0.00, 0.00, 0.00, 0.00, 0.00, 0.00, 0.00
36, 13205.32, 40071.04, 1295.60, 18376.82, -289.25, -306.22, 9465.63, -39717.26, -26311.89, 29698.47, 1782.31, 17179.66, 0.00, 0.00, 0.00, 0.00, -0.05, 0.26, 0.98
37, 13210.84, 40070.57, 1296.51, 18380.04, -285.95, -304.01, 9467.53, -39714.09, -26311.89, 29698.47, 1782.31, 17179.66, 0.00, 0.00, 0.00, 0.00, 0.00, 0.00, 0.00
38, 13210.84, 40070.57, 1296.51, 18380.04, -285.95, -304.01, 9467.53, -39714.09, -26312.83, 29722.34, 1798.26, 17188.31, 0.00, 0.00, 0.00, 0.00, 0.00, 0.00, 0.00
39, 13208.94, 40070.91, 1296.69, 18381.65, -283.00, -304.43, 9470.34, -39712.90, -26312.83, 29722.34, 1798.26, 17188.31, 0.00, 0.00, 0.00, 0.00, 0.00, 0.00, 0.00
40, 13208.94, 40070.91, 1296.69, 18381.65, -283.00, -304.43, 9470.34, -39712.90, -26309.75, 29699.95, 1785.84, 17176.02, 0.00, 0.00, 0.00, 0.00, 0.00, 0.00, 0.00
41, 13205.77, 40069.41, 1295.33, 18375.41, -287.94, -307.49, 9464.31, -39717.82, -26309.75, 29699.95, 1785.84, 17176.02, 0.00, 0.00, 0.00, 0.00, 0.00, 0.00, 0.00
42, 13205.77, 40069.41, 1295.33, 18375.41, -287.94, -307.49, 9464.31, -39717.82, -26314.19, 29716.33, 1795.47, 17185.32, 0.00, 0.00, 0.00, 0.00, 0.00, 0.00, 0.00
43, 13215.45, 40079.00, 1300.71, 18384.35, -282.88, -303.51, 9470.79, -39718.18, -26314.19, 29716.33, 1795.47, 17185.32, 0.00, 0.00, 0.00, 0.00, 0.00, 0.00, 0.00
44, 13215.45, 40079.00, 1300.71, 18384.35, -282.88, -303.51, 9470.79, -39718.18, -26313.88, 29697.26, 1788.99, 17173.96, 0.00, 0.00, 0.00, 0.00, 0.00, 0.00, 0.00
45, 13210.51, 40079.09, 1299.35, 18377.83, -288.56, -308.23, 9463.28, -39719.32, -26313.88, 29697.26, 1788.99, 17173.96, 0.00, 0.00, 0.00, 0.00, 0.00, 0.00, 0.00
46, 13210.51, 40079.09, 1299.35, 18377.83, -288.56, -308.23, 9463.28, -39719.32, -26307.96, 29718.81, 1800.46, 17185.07, 0.00, 0.00, 0.00, 0.00, -0.05, 0.26, 0.97
47, 13224.59, 40085.30, 1307.15, 18391.17, -280.74, -298.91, 9475.15, -39713.08, -26307.96, 29718.81, 1800.46, 17185.07, 0.00, 0.00, 0.00, 0.00, 0.00, 0.00, 0.00
48, 13224.59, 40085.30, 1307.15, 18391.17, -280.74, -298.91, 9475.15, -39713.08, -26311.69, 29706.16, 1790.78, 17183.30, 0.00, 0.00, 0.00, 0.00, 0.00, 0.00, 0.00
49, 13214.73, 40072.96, 1299.96, 18380.38, -291.98, -308.34, 9461.20, -39719.70, -26311.69, 29706.16, 1790.78, 17183.30, 0.00, 0.00, 0.00, 0.00, 0.00, 0.00, 0.00
50, 13214.73, 40072.96, 1299.96, 18380.38, -291.98, -308.34, 9461.20, -39719.70, -26316.47, 29713.04, 1791.20, 17182.28, 0.00, 0.00, 0.00, 0.00, 0.00, 0.00, 0.00
51, 13228.72, 40082.76, 1305.72, 18391.04, -281.65, -300.99, 9474.90, -39716.07, -26316.47, 29713.04, 1791.20, 17182.28, 0.00, 0.00, 0.00, 0.00, 0.00, 0.00, 0.00
52, 13228.72, 40082.76, 1305.72, 18391.04, -281.65, -300.99, 9474.90, -39716.07, -26314.37, 29705.13, 1790.51, 17179.15, 0.00, 0.00, 0.00, 0.00, 0.00, 0.00, 0.00
53, 13218.26, 40072.96, 1302.70, 18377.11, -289.08, -309.73, 9462.03, -39719.70, -26314.37, 29705.13, 1790.51, 17179.15, 0.00, 0.00, 0.00, 0.00, 0.00, 0.00, 0.00
54, 13218.26, 40072.96, 1302.70, 18377.11, -289.08, -309.73, 9462.03, -39719.70, -26310.37, 29713.13, 1790.13, 17186.99, 0.00, 0.00, 0.00, 0.00, 0.00, 0.00, 0.00
55, 13216.09, 40085.44, 1308.29, 18391.53, -278.15, -299.56, 9478.21, -39711.14, -26310.37, 29713.13, 1790.13, 17186.99, 0.00, 0.00, 0.00, 0.00, -0.05, 0.26, 0.97
56, 13216.09, 40085.44, 1308.29, 18391.53, -278.15, -299.56, 9478.21, -39711.14, -26310.46, 29716.04, 1793.24, 17185.63, 0.00, 0.00, 0.00, 0.00, 0.00, 0.00, 0.00
57, 13206.06, 40059.84, 1293.79, 18377.89, -292.54, -310.85, 9460.69, -39720.61, -26310.46, 29716.04, 1793.24, 17185.63, 0.00, 0.00, 0.00, 0.00, 0.00, 0.00, 0.00
58, 13206.06, 40059.84, 1293.79, 18377.89, -292.54, -310.85, 9460.69, -39720.61, -26315.33, 29708.06, 1781.48, 17180.56, 0.00, 0.00, 0.00, 0.00, 0.00, 0.00, 0.00
59, 13209.01, 40068.90, 1296.47, 18386.54, -280.34, -302.87, 9477.92, -39713.08, -26315.33, 29708.06, 1781.48, 17180.56, 0.00, 0.00, 0.00, 0.00, 0.00, 0.00, 0.00
60, 13209.01, 40068.90, 1296.47, 18386.54, -280.34, -302.87, 9477.92, -39713.08, -26311.76, 29720.89, 1786.55, 17196.20, 0.00, 0.00, 0.00, 0.00, 0.00, 0.00, 0.00
61, 13195.20, 40054.75, 1289.92, 18372.35, -293.50, -312.16, 9461.11, -39720.48, -26311.76, 29720.89, 1786.55, 17196.20, 0.00, 0.00, 0.00, 0.00, 0.00, 0.00, 0.00
62, 13195.20, 40054.75, 1289.92, 18372.35, -293.50, -312.16, 9461.11, -39720.48, -26310.55, 29706.43, 1777.95, 17183.04, 0.00, 0.00, 0.00, 0.00, 0.00, 0.00, 0.00
63, 13200.34, 40067.16, 1294.77, 18385.92, -281.59, -304.34, 9475.28, -39714.60, -26310.55, 29706.43, 1777.95, 17183.04, 0.00, 0.00, 0.00, 0.00, 0.00, 0.00, 0.00
64, 13200.34, 40067.16, 1294.77, 18385.92, -281.59, -304.34, 9475.28, -39714.60, -26308.09, 29717.16, 1792.39, 17185.03, 0.00, 0.00, 0.00, 0.00, 0.00, 0.00, 0.00
65, 13200.31, 40062.44, 1292.98, 18370.50, -288.25, -311.43, 9463.77, -39715.94, -26308.09, 29717.16, 1792.39, 17185.03, 0.00, 0.00, 0.00, 0.00, -0.04, 0.26, 0.97
66, 13200.31, 40062.44, 1292.98, 18370.50, -288.25, -311.43, 9463.77, -39715.94, -26303.08, 29711.59, 1791.31, 17186.97, 0.00, 0.00, 0.00, 0.00, 0.00, 0.00, 0.00
67, 13214.31, 40075.04, 1301.18, 18389.63, -275.69, -301.01, 9482.01, -39708.14, -26303.08, 29711.59, 1791.31, 17186.97, 0.00, 0.00, 0.00, 0.00, 0.00, 0.00, 0.00
68, 13214.31, 40075.04, 1301.18, 18389.63, -275.69, -301.01, 9482.01, -39708.14, -26306.91, 29726.39, 1802.62, 17194.48, 0.00, 0.00, 0.00, 0.00, 0.00, 0.00, 0.00
69, 13208.65, 40068.20, 1298.14, 18372.87, -285.10, -308.70, 9468.58, -39713.64, -26306.91, 29726.39, 1802.62, 17194.48, 0.00, 0.00, 0.00, 0.00, 0.00, 0.00, 0.00
70, 13208.65, 40068.20, 1298.14, 18372.87, -285.10, -308.70, 9468.58, -39713.64, -26304.61, 29709.04, 1789.57, 17186.75, 0.00, 0.00, 0.00, 0.00, 0.00, 0.00, 0.00
71, 13223.60, 40085.08, 1305.39, 18391.75, -280.56, -300.23, 9478.44, -39710.84, -26304.61, 29709.04, 1789.57, 17186.75, 0.00, 0.00, 0.00, 0.00, 0.00, 0.00, 0.00
72, 13223.60, 40085.08, 1305.39, 18391.75, -280.56, -300.23, 9478.44, -39710.84, -26310.46, 29724.29, 1803.07, 17197.70, 0.00, 0.00, 0.00, 0.00, 0.00, 0.00, 0.00
73, 13225.84, 40085.98, 1309.16, 18383.77, -281.92, -305.06, 9470.08, -39714.13, -26310.46, 29724.29, 1803.07, 17197.70, 0.00, 0.00, 0.00, 0.00, 0.00, 0.00, 0.00
74, 13225.84, 40085.98, 1309.16, 18383.77, -281.92, -305.06, 9470.08, -39714.13, -26305.97, 29703.01, 1793.68, 17186.84, 0.00, 0.00, 0.00, 0.00, 0.00, 0.00, 0.00
75, 13233.55, 40096.23, 1317.32, 18392.60, -275.13, -299.42, 9481.23, -39708.30, -26305.97, 29703.01, 1793.68, 17186.84, 0.00, 0.00, 0.00, 0.00, -0.04, 0.26, 0.97
76, 13233.55, 40096.23, 1317.32, 18392.60, -275.13, -299.42, 9481.23, -39708.30, -26304.00, 29730.50, 1811.16, 17197.16, 0.00, 0.00, 0.00, 0.00, 0.00, 0.00, 0.00
77, 13237.26, 40095.50, 1322.31, 18395.15, -275.26, -297.50, 9479.15, -39708.66, -26304.00, 29730.50, 1811.16, 17197.16, 0.00, 0.00, 0.00, 0.00, 0.00, 0.00, 0.00
78, 13237.26, 40095.50, 1322.31, 18395.15, -275.26, -297.50, 9479.15, -39708.66, -26309.57, 29703.50, 1795.34, 17187.64, 0.00, 0.00, 0.00, 0.00, 0.00, 0.00, 0.00
79, 13238.65, 40098.63, 1318.93, 18393.99, -276.51, -299.47, 9478.64, -39712.93, -26309.57, 29703.50, 1795.34, 17187.64, 0.00, 0.00, 0.00, 0.00, 0.00, 0.00, 0.00
80, 13238.65, 40098.63, 1318.93, 18393.99, -276.51, -299.47, 9478.64, -39712.93, -26311.27, 29726.70, 1809.60, 17196.09, 0.00, 0.00, 0.00, 0.00, 0.00, 0.00, 0.00
81, 13246.13, 40103.48, 1325.88, 18400.78, -270.55, -296.23, 9482.55, -39708.05, -26311.27, 29726.70, 1809.60, 17196.09, 0.00, 0.00, 0.00, 0.00, 0.00, 0.00, 0.00
82, 13246.13, 40103.48, 1325.88, 18400.78, -270.55, -296.23, 9482.55, -39708.05, -26307.98, 29706.67, 1799.76, 17188.54, 0.00, 0.00, 0.00, 0.00, 0.00, 0.00, 0.00
83, 13236.23, 40101.22, 1324.70, 18398.79, -274.52, -298.73, 9481.74, -39708.95, -26307.98, 29706.67, 1799.76, 17188.54, 0.00, 0.00, 0.00, 0.00, 0.00, 0.00, 0.00
84, 13236.23, 40101.22, 1324.70, 18398.79, -274.52, -298.73, 9481.74, -39708.95, -26312.72, 29723.79, 1807.90, 17196.78, 0.00, 0.00, 0.00, 0.00, 0.00, 0.00, 0.00
85, 13233.77, 40094.47, 1325.28, 18400.80, -267.26, -294.98, 9486.88, -39704.81, -26312.72, 29723.79, 1807.90, 17196.78, 0.00, 0.00, 0.00, 0.00, -0.04, 0.26, 0.98
86, 13233.77, 40094.47, 1325.28, 18400.80, -267.26, -294.98, 9486.88, -39704.81, -26305.21, 29707.50, 1798.82, 17187.11, 0.00, 0.00, 0.00, 0.00, 0.00, 0.00, 0.00
87, 13226.04, 40082.51, 1315.96, 18392.91, -275.35, -299.71, 9479.49, -39709.13, -26305.21, 29707.50, 1798.82, 17187.11, 0.00, 0.00, 0.00, 0.00, 0.00, 0.00, 0.00
88, 13226.04, 40082.51, 1315.96, 18392.91, -275.35, -299.71, 9479.49, -39709.13, -26309.07, 29724.78, 1809.71, 17197.65, 0.00, 0.00, 0.00, 0.00, 0.00, 0.00, 0.00
89, 13228.32, 40095.70, 1322.44, 18399.17, -264.20, -295.78, 9488.49, -39703.31, -26309.07, 29724.78, 1809.71, 17197.65, 0.00, 0.00, 0.00, 0.00, 0.00, 0.00, 0.00
90, 13228.32, 40095.70, 1322.44, 18399.17, -264.20, -295.78, 9488.49, -39703.31, -26304.72, 29714.83, 1806.20, 17192.94, 0.00, 0.00, 0.00, 0.00, 0.00, 0.00, 0.00
91, 13218.96, 40091.59, 1313.32, 18386.70, -273.43, -304.03, 9479.71, -39707.34, -26304.72, 29714.83, 1806.20, 17192.94, 0.00, 0.00, 0.00, 0.00, 0.00, 0.00, 0.00
92, 13218.96, 40091.59, 1313.32, 18386.70, -273.43, -304.03, 9479.71, -39707.34, -26305.32, 29728.89, 1814.63, 17200.94, 0.00, 0.00, 0.00, 0.00, 0.00, 0.00, 0.00
93, 13226.49, 40102.00, 1320.36, 18399.02, -264.87, -294.98, 9490.19, -39700.72, -26305.32, 29728.89, 1814.63, 17200.94, 0.00, 0.00, 0.00, 0.00, 0.00, 0.00, 0.00
94, 13226.49, 40102.00, 1320.36, 18399.02, -264.87, -294.98, 9490.19, -39700.72, -26305.07, 29710.05, 1811.99, 17189.32, 0.00, 0.00, 0.00, 0.00, -0.04, 0.26, 0.98
95, 13222.49, 40085.15, 1310.24, 18384.46, -278.93, -306.02, 9474.30, -39711.45, -26305.07, 29710.05, 1811.99, 17189.32, 0.00, 0.00, 0.00, 0.00, 0.00, 0.00, 0.00
96, 13222.49, 40085.15, 1310.24, 18384.46, -278.93, -306.02, 9474.30, -39711.45, -26309.16, 29714.70, 1812.84, 17186.30, 0.00, 0.00, 0.00, 0.00, 0.00, 0.00, 0.00
97, 13230.35, 40096.41, 1317.61, 18398.21, -270.50, -299.65, 9483.42, -39710.71, -26309.16, 29714.70, 1812.84, 17186.30, 0.00, 0.00, 0.00, 0.00, 0.00, 0.00, 0.00
98, 13230.35, 40096.41, 1317.61, 18398.21, -270.50, -299.65, 9483.42, -39710.71, -26310.21, 29709.47, 1813.91, 17183.84, 0.00, 0.00, 0.00, 0.00, 0.00, 0.00, 0.00
99, 13221.48, 40085.33, 1312.54, 18384.33, -281.99, -306.35, 9472.80, -39710.93, -26310.21, 29709.47, 1813.91, 17183.84, 0.00, 0.00, 0.00, 0.00, 0.00, 0.00, 0.00
100, 13221.48, 40085.33, 1312.54, 18384.33, -281.99, -306.35, 9472.80, -39710.93, -26311.31, 29715.64, 1811.74, 17189.01, 0.00, 0.00, 0.00, 0.00, 0.00, 0.00, 0.00
101, 13231.45, 40096.19, 1316.79, 18399.33, -272.65, -299.45, 9485.39, -39708.48, -26311.31, 29715.64, 1811.74, 17189.01, 0.00, 0.00, 0.00, 0.00, 0.00, 0.00, 0.00
102, 13231.45, 40096.19, 1316.79, 18399.33, -272.65, -299.45, 9485.39, -39708.48, -26317.46, 29708.57, 1806.00, 17181.88, 0.00, 0.00, 0.00, 0.00, 0.00, 0.00, 0.00
103, 13222.58, 40082.58, 1311.85, 18388.98, -283.51, -307.40, 9470.21, -39715.63, -26317.46, 29708.57, 1806.00, 17181.88, 0.00, 0.00, 0.00, 0.00, 0.00, 0.00, 0.00
104, 13222.58, 40082.58, 1311.85, 18388.98, -283.51, -307.40, 9470.21, -39715.63, -26311.49, 29712.64, 1800.79, 17190.12, 0.00, 0.00, 0.00, 0.00, -0.04, 0.25, 0.98
105, 13237.71, 40103.45, 1325.06, 18406.21, -270.12, -296.63, 9489.72, -39706.46, -26311.49, 29712.64, 1800.79, 17190.12, 0.00, 0.00, 0.00, 0.00, 0.00, 0.00, 0.00
106, 13237.71, 40103.45, 1325.06, 18406.21, -270.12, -296.63, 9489.72, -39706.46, -26315.58, 29708.91, 1803.29, 17181.94, 0.00, 0.00, 0.00, 0.00, 0.00, 0.00, 0.00
107, 13225.19, 40082.60, 1315.74, 18393.79, -283.98, -307.94, 9471.35, -39716.41, -26315.58, 29708.91, 1803.29, 17181.94, 0.00, 0.00, 0.00, 0.00, 0.00, 0.00, 0.00
108, 13225.19, 40082.60, 1315.74, 18393.79, -283.98, -307.94, 9471.35, -39716.41, -26315.40, 29702.74, 1796.90, 17178.30, 0.00, 0.00, 0.00, 0.00, 0.00, 0.00, 0.00
109, 13235.54, 40086.76, 1319.87, 18414.69, -270.90, -291.60, 9491.33, -39706.18, -26315.40, 29702.74, 1796.90, 17178.30, 0.00, 0.00, 0.00, 0.00, 0.00, 0.00, 0.00
110, 13235.54, 40086.76, 1319.87, 18414.69, -270.90, -291.60, 9491.33, -39706.18, -26315.09, 29721.05, 1809.15, 17192.85, 0.00, 0.00, 0.00, 0.00, 0.00, 0.00, 0.00
111, 13255.17, 40098.92, 1353.15, 18449.76, -252.02, -276.74, 9498.04, -39696.36, -26315.09, 29721.05, 1809.15, 17192.85, 0.00, 0.00, 0.00, 0.00, 0.00, 0.00, 0.00
112, 13255.17, 40098.92, 1353.15, 18449.76, -252.02, -276.74, 9498.04, -39696.36, -26300.56, 29718.95, 1849.72, 17197.79, 0.00, 0.00, 0.00, 0.00, 0.00, 0.00, 0.00
113, 13224.12, 40102.02, 1334.80, 18410.53, -250.32, -294.60, 9501.08, -39696.50, -26300.56, 29718.95, 1849.72, 17197.79, 0.00, 0.00, 0.00, 0.00, 0.00, 0.00, 0.00
114, 13224.12, 40102.02, 1334.80, 18410.53, -250.32, -294.60, 9501.08, -39696.50, -26302.88, 29730.19, 1805.86, 17196.45, 0.00, 0.00, 0.00, 0.00, -0.05, 0.26, 0.97
115, 13194.17, 40063.29, 1304.09, 18376.24, -267.93, -302.35, 9488.99, -39701.46, -26302.88, 29730.19, 1805.86, 17196.45, 0.00, 0.00, 0.00, 0.00, 0.00, 0.00, 0.00
116, 13194.17, 40063.29, 1304.09, 18376.24, -267.93, -302.35, 9488.99, -39701.46, -26291.28, 29718.52, 1778.55, 17197.72, 0.00, 0.00, 0.00, 0.00, 0.00, 0.00, 0.00
117, 13160.57, 40052.00, 1278.56, 18344.19, -263.86, -304.18, 9500.43, -39691.69, -26291.28, 29718.52, 1778.55, 17197.72, 0.00, 0.00, 0.00, 0.00, 0.00, 0.00, 0.00
118, 13160.57, 40052.00, 1278.56, 18344.19, -263.86, -304.18, 9500.43, -39691.69, -26288.09, 29738.21, 1779.15, 17205.23, 0.00, 0.00, 0.00, 0.00, 0.00, 0.00, 0.00
119, 13134.02, 40036.36, 1262.09, 18332.07, -269.74, -312.08, 9491.74, -39694.73, -26288.09, 29738.21, 1779.15, 17205.23, 0.00, 0.00, 0.00, 0.00, 0.00, 0.00, 0.00
120, 13134.02, 40036.36, 1262.09, 18332.07, -269.74, -312.08, 9491.74, -39694.73, -26274.03, 29727.21, 1739.48, 17199.20, 0.00, 0.00, 0.00, 0.00, 0.00, 0.00, 0.00
121, 13124.94, 40029.94, 1247.81, 18332.25, -267.13, -305.48, 9502.11, -39686.71, -26274.03, 29727.21, 1739.48, 17199.20, 0.00, 0.00, 0.00, 0.00, 0.00, 0.00, 0.00
122, 13124.94, 40029.94, 1247.81, 18332.25, -267.13, -305.48, 9502.11, -39686.71, -26267.93, 29753.61, 1754.77, 17212.43, 0.00, 0.00, 0.00, 0.00, 0.00, 0.00, 0.00
123, 13094.79, 40004.01, 1217.97, 18293.00, -277.01, -317.39, 9495.67, -39684.16, -26267.93, 29753.61, 1754.77, 17212.43, 0.00, 0.00, 0.00, 0.00, 0.00, 0.00, 0.00
124, 13094.79, 40004.01, 1217.97, 18293.00, -277.01, -317.39, 9495.67, -39684.16, -26257.98, 29736.71, 1711.09, 17208.36, 0.00, 0.00, 0.00, 0.00, -0.05, 0.26, 0.97
125, 13072.73, 39990.02, 1199.89, 18279.66, -278.64, -315.83, 9502.06, -39681.90, -26257.98, 29736.71, 1711.09, 17208.36, 0.00, 0.00, 0.00, 0.00, 0.00, 0.00, 0.00
126, 13072.73, 39990.02, 1199.89, 18279.66, -278.64, -315.83, 9502.06, -39681.90, -26253.06, 29765.75, 1720.53, 17222.22, 0.00, 0.00, 0.00, 0.00, 0.00, 0.00, 0.00
127, 13056.03, 39978.38, 1190.41, 18274.52, -277.32, -316.19, 9504.12, -39673.83, -26253.06, 29765.75, 1720.53, 17222.22, 0.00, 0.00, 0.00, 0.00, 0.00, 0.00, 0.00
128, 13056.03, 39978.38, 1190.41, 18274.52, -277.32, -316.19, 9504.12, -39673.83, -26238.49, 29746.06, 1691.62, 17213.73, 0.00, 0.00, 0.00, 0.00, 0.00, 0.00, 0.00
129, 13042.69, 39968.07, 1187.32, 18276.46, -269.92, -310.04, 9514.98, -39667.08, -26238.49, 29746.06, 1691.62, 17213.73, 0.00, 0.00, 0.00, 0.00, 0.00, 0.00, 0.00
130, 13042.69, 39968.07, 1187.32, 18276.46, -269.92, -310.04, 9514.98, -39667.08, -26237.53, 29772.50, 1676.87, 17227.96, 0.00, 0.00, 0.00, 0.00, 0.00, 0.00, 0.00
131, 13024.83, 39957.07, 1178.18, 18298.86, -259.01, -299.16, 9525.49, -39658.05, -26237.53, 29772.50, 1676.87, 17227.96, 0.00, 0.00, 0.00, 0.00, 0.00, 0.00, 0.00
132, 13024.83, 39957.07, 1178.18, 18298.86, -259.01, -299.16, 9525.49, -39658.05, -26228.43, 29751.13, 1660.44, 17218.33, 0.00, 0.00, 0.00, 0.00, 0.00, 0.00, 0.00
133, 13005.52, 39941.27, 1155.45, 18268.64, -268.33, -308.63, 9520.37, -39661.05, -26228.43, 29751.13, 1660.44, 17218.33, 0.00, 0.00, 0.00, 0.00, -0.04, 0.26, 0.97
134, 13005.52, 39941.27, 1155.45, 18268.64, -268.33, -308.63, 9520.37, -39661.05, -26226.80, 29778.96, 1677.68, 17231.70, 0.00, 0.00, 0.00, 0.00, 0.00, 0.00, 0.00
135, 13016.63, 39954.03, 1167.86, 18280.31, -257.89, -298.42, 9534.76, -39648.48, -26226.80, 29778.96, 1677.68, 17231.70, 0.00, 0.00, 0.00, 0.00, 0.00, 0.00, 0.00
136, 13016.63, 39954.03, 1167.86, 18280.31, -257.89, -298.42, 9534.76, -39648.48, -26220.14, 29765.28, 1686.13, 17227.16, 0.00, 0.00, 0.00, 0.00, 0.00, 0.00, 0.00
137, 13021.17, 39950.90, 1174.41, 18274.45, -264.24, -301.44, 9526.60, -39653.87, -26220.14, 29765.28, 1686.13, 17227.16, 0.00, 0.00, 0.00, 0.00, 0.00, 0.00, 0.00
138, 13021.17, 39950.90, 1174.41, 18274.45, -264.24, -301.44, 9526.60, -39653.87, -26226.46, 29783.10, 1721.82, 17235.85, 0.00, 0.00, 0.00, 0.00, 0.00, 0.00, 0.00
139, 13044.92, 39982.15, 1206.17, 18294.59, -245.53, -288.07, 9543.10, -39644.62, -26226.46, 29783.10, 1721.82, 17235.85, 0.00, 0.00, 0.00, 0.00, 0.00, 0.00, 0.00
140, 13044.92, 39982.15, 1206.17, 18294.59, -245.53, -288.07, 9543.10, -39644.62, -26219.20, 29767.94, 1751.91, 17230.47, 0.00, 0.00, 0.00, 0.00, 0.00, 0.00, 0.00
141, 13050.47, 39992.10, 1221.61, 18289.18, -243.46, -292.38, 9538.72, -39645.64, -26219.20, 29767.94, 1751.91, 17230.47, 0.00, 0.00, 0.00, 0.00, 0.00, 0.00, 0.00
142, 13050.47, 39992.10, 1221.61, 18289.18, -243.46, -292.38, 9538.72, -39645.64, -26219.15, 29780.21, 1771.60, 17238.02, 0.00, 0.00, 0.00, 0.00, 0.00, 0.00, 0.00
143, 13067.77, 40007.41, 1233.06, 18297.23, -235.36, -284.22, 9550.39, -39641.82, -26219.15, 29780.21, 1771.60, 17238.02, 0.00, 0.00, 0.00, 0.00, -0.04, 0.27, 0.98
144, 13067.77, 40007.41, 1233.06, 18297.23, -235.36, -284.22, 9550.39, -39641.82, -26221.30, 29770.13, 1775.44, 17228.86, 0.00, 0.00, 0.00, 0.00, 0.00, 0.00, 0.00
145, 13058.25, 39995.52, 1228.85, 18283.50, -243.54, -294.26, 9538.72, -39646.52, -26221.30, 29770.13, 1775.44, 17228.86, 0.00, 0.00, 0.00, 0.00, 0.00, 0.00, 0.00
146, 13058.25, 39995.52, 1228.85, 18283.50, -243.54, -294.26, 9538.72, -39646.52, -26217.88, 29776.90, 1781.59, 17236.12, 0.00, 0.00, 0.00, 0.00, 0.00, 0.00, 0.00
147, 13063.12, 40001.06, 1231.36, 18296.20, -236.28, -284.45, 9552.84, -39640.17, -26217.88, 29776.90, 1781.59, 17236.12, 0.00, 0.00, 0.00, 0.00, 0.00, 0.00, 0.00
148, 13063.12, 40001.06, 1231.36, 18296.20, -236.28, -284.45, 9552.84, -39640.17, -26213.10, 29777.80, 1783.49, 17238.20, 0.00, 0.00, 0.00, 0.00, 0.00, 0.00, 0.00
149, 13050.71, 39986.71, 1225.79, 18280.64, -247.88, -294.77, 9538.94, -39641.20, -26213.10, 29777.80, 1783.49, 17238.20, 0.00, 0.00, 0.00, 0.00, 0.00, 0.00, 0.00
150, 13050.71, 39986.71, 1225.79, 18280.64, -247.88, -294.77, 9538.94, -39641.20, -26218.93, 29778.80, 1777.63, 17240.30, 0.00, 0.00, 0.00, 0.00, 0.00, 0.00, 0.00
151, 13057.24, 39993.30, 1221.81, 18286.19, -243.72, -290.82, 9546.68, -39642.00, -26218.93, 29778.80, 1777.63, 17240.30, 0.00, 0.00, 0.00, 0.00, 0.00, 0.00, 0.00
152, 13057.24, 39993.30, 1221.81, 18286.19, -243.72, -290.82, 9546.68, -39642.00, -26221.61, 29777.62, 1781.57, 17236.19, 0.00, 0.00, 0.00, 0.00, 0.00, 0.00, 0.00
153, 13053.78, 39988.10, 1220.85, 18271.48, -254.59, -302.28, 9532.62, -39647.63, -26221.61, 29777.62, 1781.57, 17236.19, 0.00, 0.00, 0.00, 0.00, -0.04, 0.26, 0.97
154, 13053.78, 39988.10, 1220.85, 18271.48, -254.59, -302.28, 9532.62, -39647.63, -26217.59, 29773.26, 1782.86, 17233.24, 0.00, 0.00, 0.00, 0.00, 0.00, 0.00, 0.00
155, 13069.62, 40007.16, 1231.25, 18288.24, -243.77, -292.67, 9547.70, -39642.63, -26217.59, 29773.26, 1782.86, 17233.24, 0.00, 0.00, 0.00, 0.00, 0.00, 0.00, 0.00
156, 13069.62, 40007.16, 1231.25, 18288.24, -243.77, -292.67, 9547.70, -39642.63, -26224.74, 29779.43, 1786.60, 17232.97, 0.00, 0.00, 0.00, 0.00, 0.00, 0.00, 0.00
157, 13069.00, 39992.12, 1226.31, 18271.52, -259.17, -303.40, 9529.15, -39650.14, -26224.74, 29779.43, 1786.60, 17232.97, 0.00, 0.00, 0.00, 0.00, 0.00, 0.00, 0.00
158, 13069.00, 39992.12, 1226.31, 18271.52, -259.17, -303.40, 9529.15, -39650.14, -26225.10, 29768.99, 1782.08, 17228.05, 0.00, 0.00, 0.00, 0.00, 0.00, 0.00, 0.00
159, 13076.82, 40006.69, 1238.98, 18293.25, -247.19, -291.31, 9544.91, -39644.89, -26225.10, 29768.99, 1782.08, 17228.05, 0.00, 0.00, 0.00, 0.00, 0.00, 0.00, 0.00
160, 13076.82, 40006.69, 1238.98, 18293.25, -247.19, -291.31, 9544.91, -39644.89, -26228.41, 29780.55, 1792.65, 17237.66, 0.00, 0.00, 0.00, 0.00, 0.00, 0.00, 0.00
161, 13083.64, 40004.91, 1237.55, 18277.07, -253.11, -299.69, 9534.16, -39648.02, -26228.41, 29780.55, 1792.65, 17237.66, 0.00, 0.00, 0.00, 0.00, 0.00, 0.00, 0.00
162, 13083.64, 40004.91, 1237.55, 18277.07, -253.11, -299.69, 9534.16, -39648.02, -26221.68, 29770.40, 1792.25, 17234.18, 0.00, 0.00, 0.00, 0.00, 0.00, 0.00, 0.00
163, 13093.07, 40020.48, 1250.49, 18297.79, -239.99, -287.11, 9550.41, -39640.71, -26221.68, 29770.40, 1792.25, 17234.18, 0.00, 0.00, 0.00, 0.00, -0.05, 0.26, 0.97
164, 13093.07, 40020.48, 1250.49, 18297.79, -239.99, -287.11, 9550.41, -39640.71, -26225.32, 29786.94, 1808.46, 17244.53, 0.00, 0.00, 0.00, 0.00, 0.00, 0.00, 0.00
165, 13096.69, 40018.43, 1256.79, 18294.57, -243.54, -289.70, 9543.55, -39641.42, -26225.32, 29786.94, 1808.46, 17244.53, 0.00, 0.00, 0.00, 0.00, 0.00, 0.00, 0.00
166, 13096.69, 40018.43, 1256.79, 18294.57, -243.54, -289.70, 9543.55, -39641.42, -26216.29, 29771.52, 1820.46, 17237.17, 0.00, 0.00, 0.00, 0.00, 0.00, 0.00, 0.00
167, 13117.95, 40043.64, 1293.99, 18346.42, -210.15, -262.28, 9571.87, -39624.81, -26216.29, 29771.52, 1820.46, 17237.17, 0.00, 0.00, 0.00, 0.00, 0.00, 0.00, 0.00
168, 13117.95, 40043.64, 1293.99, 18346.42, -210.15, -262.28, 9571.87, -39624.81, -26218.37, 29795.39, 1835.53, 17251.10, 0.00, 0.00, 0.00, 0.00, 0.00, 0.00, 0.00
169, 13069.49, 39994.09, 1230.69, 18252.39, -255.91, -307.38, 9534.40, -39647.16, -26218.37, 29795.39, 1835.53, 17251.10, 0.00, 0.00, 0.00, 0.00, 0.00, 0.00, 0.00
170, 13069.49, 39994.09, 1230.69, 18252.39, -255.91, -307.38, 9534.40, -39647.16, -26223.04, 29760.90, 1781.48, 17226.82, 0.00, 0.00, 0.00, 0.00, 0.00, 0.00, 0.00
171, 13074.52, 40005.24, 1241.91, 18266.98, -246.12, -296.14, 9548.73, -39640.10, -26223.04, 29760.90, 1781.48, 17226.82, 0.00, 0.00, 0.00, 0.00, 0.00, 0.00, 0.00
172, 13074.52, 40005.24, 1241.91, 18266.98, -246.12, -296.14, 9548.73, -39640.10, -26214.77, 29795.75, 1823.23, 17243.14, 0.00, 0.00, 0.00, 0.00, -0.05, 0.26, 0.97
173, 13076.73, 40008.04, 1247.12, 18261.44, -240.04, -294.06, 9551.62, -39633.17, -26214.77, 29795.75, 1823.23, 17243.14, 0.00, 0.00, 0.00, 0.00, 0.00, 0.00, 0.00
174, 13076.73, 40008.04, 1247.12, 18261.44, -240.04, -294.06, 9551.62, -39633.17, -26215.47, 29769.10, 1798.58, 17236.77, 0.00, 0.00, 0.00, 0.00, 0.00, 0.00, 0.00
175, 13061.80, 39995.61, 1228.00, 18243.94, -259.28, -307.34, 9539.14, -39647.55, -26215.47, 29769.10, 1798.58, 17236.77, 0.00, 0.00, 0.00, 0.00, 0.00, 0.00, 0.00
176, 13061.80, 39995.61, 1228.00, 18243.94, -259.28, -307.34, 9539.14, -39647.55, -26220.03, 29790.40, 1823.97, 17243.25, 0.00, 0.00, 0.00, 0.00, 0.00, 0.00, 0.00
177, 13071.84, 40004.41, 1238.31, 18241.68, -254.07, -305.53, 9543.48, -39640.10, -26220.03, 29790.40, 1823.97, 17243.25, 0.00, 0.00, 0.00, 0.00, 0.00, 0.00, 0.00
178, 13071.84, 40004.41, 1238.31, 18241.68, -254.07, -305.53, 9543.48, -39640.10, -26213.86, 29774.82, 1825.06, 17235.47, 0.00, 0.00, 0.00, 0.00, 0.00, 0.00, 0.00
179, 13070.34, 40005.96, 1243.38, 18239.04, -256.46, -307.45, 9540.55, -39643.30, -26213.86, 29774.82, 1825.06, 17235.47, 0.00, 0.00, 0.00, 0.00, 0.00, 0.00, 0.00
180, 13070.34, 40005.96, 1243.38, 18239.04, -256.46, -307.45, 9540.55, -39643.30, -26218.80, 29788.62, 1836.75, 17241.84, 0.00, 0.00, 0.00, 0.00, 0.00, 0.00, 0.00
181, 13075.88, 40008.91, 1243.43, 18239.96, -256.02, -308.07, 9540.82, -39646.76, -26218.80, 29788.62, 1836.75, 17241.84, 0.00, 0.00, 0.00, 0.00, 0.00, 0.00, 0.00
182, 13075.88, 40008.91, 1243.43, 18239.96, -256.02, -308.07, 9540.82, -39646.76, -26215.94, 29765.97, 1835.44, 17229.15, 0.00, 0.00, 0.00, 0.00, -0.05, 0.26, 0.97
183, 13071.39, 40009.13, 1243.65, 18235.63, -259.46, -312.10, 9536.84, -39647.79, -26215.94, 29765.97, 1835.44, 17229.15, 0.00, 0.00, 0.00, 0.00, 0.00, 0.00, 0.00
184, 13071.39, 40009.13, 1243.65, 18235.63, -259.46, -312.10, 9536.84, -39647.79, -26226.51, 29779.90, 1835.59, 17233.37, 0.00, 0.00, 0.00, 0.00, 0.00, 0.00, 0.00
185, 13085.25, 40013.49, 1249.95, 18248.01, -252.13, -305.26, 9544.44, -39647.03, -26226.51, 29779.90, 1835.59, 17233.37, 0.00, 0.00, 0.00, 0.00, 0.00, 0.00, 0.00
186, 13085.25, 40013.49, 1249.95, 18248.01, -252.13, -305.26, 9544.44, -39647.03, -26219.31, 29771.43, 1837.43, 17231.18, 0.00, 0.00, 0.00, 0.00, 0.00, 0.00, 0.00
187, 13085.58, 40016.06, 1254.65, 18247.16, -254.94, -306.22, 9539.84, -39645.67, -26219.31, 29771.43, 1837.43, 17231.18, 0.00, 0.00, 0.00, 0.00, 0.00, 0.00, 0.00
188, 13085.58, 40016.06, 1254.65, 18247.16, -254.94, -306.22, 9539.84, -39645.67, -26220.90, 29783.97, 1845.74, 17238.04, 0.00, 0.00, 0.00, 0.00, 0.00, 0.00, 0.00
189, 13105.12, 40037.07, 1267.77, 18263.90, -241.71, -294.46, 9555.59, -39637.49, -26220.90, 29783.97, 1845.74, 17238.04, 0.00, 0.00, 0.00, 0.00, 0.00, 0.00, 0.00
190, 13105.12, 40037.07, 1267.77, 18263.90, -241.71, -294.46, 9555.59, -39637.49, -26213.81, 29778.94, 1846.86, 17238.22, 0.00, 0.00, 0.00, 0.00, 0.00, 0.00, 0.00
191, 13093.76, 40022.72, 1264.13, 18252.54, -249.24, -303.65, 9545.40, -39641.06, -26213.81, 29778.94, 1846.86, 17238.22, 0.00, 0.00, 0.00, 0.00, 0.00, 0.00, 0.00
192, 13093.76, 40022.72, 1264.13, 18252.54, -249.24, -303.65, 9545.40, -39641.06, -26214.62, 29784.71, 1849.56, 17244.84, 0.00, 0.00, 0.00, 0.00, -0.04, 0.27, 0.97
193, 13101.90, 40029.74, 1266.94, 18263.68, -239.10, -292.96, 9558.83, -39635.65, -26214.62, 29784.71, 1849.56, 17244.84, 0.00, 0.00, 0.00, 0.00, 0.00, 0.00, 0.00
194, 13101.90, 40029.74, 1266.94, 18263.68, -239.10, -292.96, 9558.83, -39635.65, -26213.92, 29783.94, 1847.17, 17242.83, 0.00, 0.00, 0.00, 0.00, 0.00, 0.00, 0.00
195, 13084.71, 40010.89, 1255.18, 18243.89, -251.32, -306.33, 9542.41, -39642.23, -26213.92, 29783.94, 1847.17, 17242.83, 0.00, 0.00, 0.00, 0.00, 0.00, 0.00, 0.00
196, 13084.71, 40010.89, 1255.18, 18243.89, -251.32, -306.33, 9542.41, -39642.23, -26214.21, 29787.48, 1845.99, 17246.16, 0.00, 0.00, 0.00, 0.00, 0.00, 0.00, 0.00
197, 13094.59, 40028.84, 1265.29, 18263.16, -238.74, -293.41, 9559.93, -39635.25, -26214.21, 29787.48, 1845.99, 17246.16, 0.00, 0.00, 0.00, 0.00, 0.00, 0.00, 0.00
198, 13094.59, 40028.84, 1265.29, 18263.16, -238.74, -293.41, 9559.93, -39635.25, -26212.11, 29789.42, 1856.25, 17247.19, 0.00, 0.00, 0.00, 0.00, 0.00, 0.00, 0.00
199, 13082.30, 40017.02, 1258.02, 18245.28, -249.96, -306.67, 9542.56, -39642.18, -26212.11, 29789.42, 1856.25, 17247.19, 0.00, 0.00, 0.00, 0.00, 0.00, 0.00, 0.00
200, 13082.30, 40017.02, 1258.02, 18245.28, -249.96, -306.67, 9542.56, -39642.18, -26214.95, 29786.27, 1847.64, 17247.34, 0.00, 0.00, 0.00, 0.00, 0.00, 0.00, 0.00
201, 13093.79, 40027.43, 1259.25, 18258.78, -241.69, -298.57, 9556.76, -39638.20, -26214.95, 29786.27, 1847.64, 17247.34, 0.00, 0.00, 0.00, 0.00, 0.00, 0.00, 0.00
202, 13093.79, 40027.43, 1259.25, 18258.78, -241.69, -298.57, 9556.76, -39638.20, -26212.02, 29786.27, 1854.46, 17240.82, 0.00, 0.00, 0.00, 0.00, -0.05, 0.27, 0.98
203, 13081.07, 40016.30, 1254.60, 18243.72, -251.55, -309.17, 9542.07, -39645.20, -26212.02, 29786.27, 1854.46, 17240.82, 0.00, 0.00, 0.00, 0.00, 0.00, 0.00, 0.00
204, 13081.07, 40016.30, 1254.60, 18243.72, -251.55, -309.17, 9542.07, -39645.20, -26216.16, 29773.82, 1840.82, 17232.48, 0.00, 0.00, 0.00, 0.00, 0.00, 0.00, 0.00
205, 13082.23, 40023.34, 1254.31, 18256.35, -245.60, -302.40, 9552.71, -39643.34, -26216.16, 29773.82, 1840.82, 17232.48, 0.00, 0.00, 0.00, 0.00, 0.00, 0.00, 0.00
206, 13082.23, 40023.34, 1254.31, 18256.35, -245.60, -302.40, 9552.71, -39643.34, -26218.17, 29789.31, 1847.01, 17241.22, 0.00, 0.00, 0.00, 0.00, 0.00, 0.00, 0.00
207, 13077.85, 40005.89, 1248.14, 18242.15, -256.58, -312.41, 9537.53, -39650.63, -26218.17, 29789.31, 1847.01, 17241.22, 0.00, 0.00, 0.00, 0.00, 0.00, 0.00, 0.00
208, 13077.85, 40005.89, 1248.14, 18242.15, -256.58, -312.41, 9537.53, -39650.63, -26217.84, 29771.90, 1835.91, 17234.07, 0.00, 0.00, 0.00, 0.00, 0.00, 0.00, 0.00
209, 13084.51, 40016.55, 1252.03, 18251.03, -245.98, -304.99, 9552.31, -39644.48, -26217.84, 29771.90, 1835.91, 17234.07, 0.00, 0.00, 0.00, 0.00, 0.00, 0.00, 0.00
210, 13084.51, 40016.55, 1252.03, 18251.03, -245.98, -304.99, 9552.31, -39644.48, -26215.47, 29793.89, 1851.10, 17245.53, 0.00, 0.00, 0.00, 0.00, 0.00, 0.00, 0.00
211, 13075.84, 40007.97, 1246.78, 18237.46, -253.20, -312.92, 9541.71, -39647.97, -26215.47, 29793.89, 1851.10, 17245.53, 0.00, 0.00, 0.00, 0.00, -0.05, 0.26, 0.97
212, 13075.84, 40007.97, 1246.78, 18237.46, -253.20, -312.92, 9541.71, -39647.97, -26217.12, 29767.85, 1829.09, 17229.89, 0.00, 0.00, 0.00, 0.00, 0.00, 0.00, 0.00
213, 13075.21, 40013.27, 1247.03, 18245.88, -249.49, -307.56, 9549.85, -39647.57, -26217.12, 29767.85, 1829.09, 17229.89, 0.00, 0.00, 0.00, 0.00, 0.00, 0.00, 0.00
214, 13075.21, 40013.27, 1247.03, 18245.88, -249.49, -307.56, 9549.85, -39647.57, -26219.91, 29790.85, 1846.16, 17243.23, 0.00, 0.00, 0.00, 0.00, 0.00, 0.00, 0.00
215, 13064.57, 40003.95, 1236.74, 18233.26, -258.77, -314.73, 9538.65, -39650.99, -26219.91, 29790.85, 1846.16, 17243.23, 0.00, 0.00, 0.00, 0.00, 0.00, 0.00, 0.00
216, 13064.57, 40003.95, 1236.74, 18233.26, -258.77, -314.73, 9538.65, -39650.99, -26215.29, 29768.07, 1826.38, 17229.33, 0.00, 0.00, 0.00, 0.00, 0.00, 0.00, 0.00
217, 13071.55, 40006.89, 1241.68, 18240.99, -252.75, -310.91, 9547.12, -39647.86, -26215.29, 29768.07, 1826.38, 17229.33, 0.00, 0.00, 0.00, 0.00, 0.00, 0.00, 0.00
218, 13071.55, 40006.89, 1241.68, 18240.99, -252.75, -310.91, 9547.12, -39647.86, -26215.73, 29794.09, 1844.11, 17245.46, 0.00, 0.00, 0.00, 0.00, 0.00, 0.00, 0.00
219, 13070.70, 40010.79, 1243.49, 18235.80, -251.39, -312.52, 9546.43, -39641.09, -26215.73, 29794.09, 1844.11, 17245.46, 0.00, 0.00, 0.00, 0.00, 0.00, 0.00, 0.00
220, 13070.70, 40010.79, 1243.49, 18235.80, -251.39, -312.52, 9546.43, -39641.09, -26208.16, 29775.38, 1836.35, 17240.75, 0.00, 0.00, 0.00, 0.00, 0.00, 0.00, 0.00
221, 13075.88, 40011.79, 1240.30, 18238.82, -252.51, -309.50, 9548.11, -39642.61, -26208.16, 29775.38, 1836.35, 17240.75, 0.00, 0.00, 0.00, 0.00, -0.04, 0.27, 0.98
222, 13075.88, 40011.79, 1240.30, 18238.82, -252.51, -309.50, 9548.11, -39642.61, -26215.15, 29797.69, 1843.17, 17246.09, 0.00, 0.00, 0.00, 0.00, 0.00, 0.00, 0.00
223, 13069.82, 40005.84, 1241.68, 18240.10, -253.04, -310.13, 9546.68, -39642.32, -26215.15, 29797.69, 1843.17, 17246.09, 0.00, 0.00, 0.00, 0.00, 0.00, 0.00, 0.00
224, 13069.82, 40005.84, 1241.68, 18240.10, -253.04, -310.13, 9546.68, -39642.32, -26213.12, 29774.15, 1831.66, 17236.32, 0.00, 0.00, 0.00, 0.00, 0.00, 0.00, 0.00
225, 13077.02, 40012.46, 1241.35, 18237.55, -252.17, -311.65, 9547.77, -39641.87, -26213.12, 29774.15, 1831.66, 17236.32, 0.00, 0.00, 0.00, 0.00, 0.00, 0.00, 0.00
226, 13077.02, 40012.46, 1241.35, 18237.55, -252.17, -311.65, 9547.77, -39641.87, -26211.11, 29798.09, 1849.56, 17248.48, 0.00, 0.00, 0.00, 0.00, 0.00, 0.00, 0.00
227, 13072.51, 40016.08, 1246.22, 18240.59, -248.93, -309.42, 9550.07, -39641.76, -26211.11, 29798.09, 1849.56, 17248.48, 0.00, 0.00, 0.00, 0.00, 0.00, 0.00, 0.00
228, 13072.51, 40016.08, 1246.22, 18240.59, -248.93, -309.42, 9550.07, -39641.76, -26216.31, 29770.42, 1835.75, 17232.48, 0.00, 0.00, 0.00, 0.00, 0.00, 0.00, 0.00
229, 13062.14, 39999.18, 1239.87, 18233.90, -252.87, -314.67, 9544.78, -39644.39, -26216.31, 29770.42, 1835.75, 17232.48, 0.00, 0.00, 0.00, 0.00, 0.00, 0.00, 0.00
230, 13062.14, 39999.18, 1239.87, 18233.90, -252.87, -314.67, 9544.78, -39644.39, -26215.60, 29791.90, 1842.61, 17243.79, 0.00, 0.00, 0.00, 0.00, 0.00, 0.00, 0.00
231, 13069.85, 40006.94, 1244.68, 18239.36, -245.89, -308.63, 9553.83, -39638.83, -26215.60, 29791.90, 1842.61, 17243.79, 0.00, 0.00, 0.00, 0.00, -0.04, 0.27, 0.97
232, 13069.85, 40006.94, 1244.68, 18239.36, -245.89, -308.63, 9553.83, -39638.83, -26210.84, 29780.90, 1832.84, 17239.65, 0.00, 0.00, 0.00, 0.00, 0.00, 0.00, 0.00
233, 13061.80, 40000.79, 1241.28, 18231.33, -252.87, -314.02, 9545.76, -39641.96, -26210.84, 29780.90, 1832.84, 17239.65, 0.00, 0.00, 0.00, 0.00, 0.00, 0.00, 0.00
234, 13061.80, 40000.79, 1241.28, 18231.33, -252.87, -314.02, 9545.76, -39641.96, -26212.20, 29800.06, 1844.40, 17247.75, 0.00, 0.00, 0.00, 0.00, 0.00, 0.00, 0.00
235, 13069.36, 40011.05, 1245.06, 18238.51, -244.26, -308.99, 9554.34, -39636.37, -26212.20, 29800.06, 1844.40, 17247.75, 0.00, 0.00, 0.00, 0.00, 0.00, 0.00, 0.00
236, 13069.36, 40011.05, 1245.06, 18238.51, -244.26, -308.99, 9554.34, -39636.37, -26213.25, 29781.91, 1837.25, 17239.86, 0.00, 0.00, 0.00, 0.00, 0.00, 0.00, 0.00
237, 13067.25, 40005.22, 1245.80, 18234.04, -252.02, -313.33, 9544.46, -39642.52, -26213.25, 29781.91, 1837.25, 17239.86, 0.00, 0.00, 0.00, 0.00, 0.00, 0.00, 0.00
238, 13067.25, 40005.22, 1245.80, 18234.04, -252.02, -313.33, 9544.46, -39642.52, -26210.73, 29794.18, 1845.81, 17246.83, 0.00, 0.00, 0.00, 0.00, 0.00, 0.00, 0.00
239, 13080.80, 40019.63, 1250.38, 18245.30, -244.64, -306.51, 9556.33, -39639.75, -26210.73, 29794.18, 1845.81, 17246.83, 0.00, 0.00, 0.00, 0.00, 0.00, 0.00, 0.00
240, 13080.80, 40019.63, 1250.38, 18245.30, -244.64, -306.51, 9556.33, -39639.75, -26208.34, 29785.62, 1845.74, 17240.48, 0.00, 0.00, 0.00, 0.00, 0.00, 0.00, 0.00
241, 13074.25, 40013.67, 1250.80, 18236.43, -250.83, -313.53, 9544.69, -39642.32, -26208.34, 29785.62, 1845.74, 17240.48, 0.00, 0.00, 0.00, 0.00, -0.05, 0.27, 0.98
242, 13074.25, 40013.67, 1250.80, 18236.43, -250.83, -313.53, 9544.69, -39642.32, -26213.16, 29793.09, 1842.41, 17246.05, 0.00, 0.00, 0.00, 0.00, 0.00, 0.00, 0.00
243, 13084.15, 40019.19, 1254.87, 18249.17, -242.81, -305.17, 9557.96, -39636.91, -26213.16, 29793.09, 1842.41, 17246.05, 0.00, 0.00, 0.00, 0.00, 0.00, 0.00, 0.00
244, 13084.15, 40019.19, 1254.87, 18249.17, -242.81, -305.17, 9557.96, -39636.91, -26211.38, 29792.26, 1842.97, 17243.01, 0.00, 0.00, 0.00, 0.00, 0.00, 0.00, 0.00
245, 13078.77, 40011.12, 1248.39, 18234.55, -256.08, -313.51, 9543.88, -39640.86, -26211.38, 29792.26, 1842.97, 17243.01, 0.00, 0.00, 0.00, 0.00, 0.00, 0.00, 0.00
246, 13078.77, 40011.12, 1248.39, 18234.55, -256.08, -313.51, 9543.88, -39640.86, -26212.38, 29789.87, 1838.61, 17242.25, 0.00, 0.00, 0.00, 0.00, 0.00, 0.00, 0.00
247, 13072.33, 40014.98, 1251.74, 18245.73, -245.20, -306.22, 9557.96, -39637.42, -26212.38, 29789.87, 1838.61, 17242.25, 0.00, 0.00, 0.00, 0.00, 0.00, 0.00, 0.00
248, 13072.33, 40014.98, 1251.74, 18245.73, -245.20, -306.22, 9557.96, -39637.42, -26213.57, 29789.93, 1842.74, 17239.88, 0.00, 0.00, 0.00, 0.00, 0.00, 0.00, 0.00
249, 13069.60, 40008.79, 1243.52, 18229.10, -256.87, -317.22, 9542.63, -39642.89, -26213.57, 29789.93, 1842.74, 17239.88, 0.00, 0.00, 0.00, 0.00, 0.00, 0.00, 0.00
250, 13069.60, 40008.79, 1243.52, 18229.10, -256.87, -317.22, 9542.63, -39642.89, -26210.59, 29788.17, 1833.51, 17244.79, 0.00, 0.00, 0.00, 0.00, -0.05, 0.27, 0.97
251, 13073.65, 40013.40, 1245.82, 18241.48, -249.89, -309.82, 9555.01, -39640.13, -26210.59, 29788.17, 1833.51, 17244.79, 0.00, 0.00, 0.00, 0.00, 0.00, 0.00, 0.00
252, 13073.65, 40013.40, 1245.82, 18241.48, -249.89, -309.82, 9555.01, -39640.13, -26219.49, 29787.83, 1838.27, 17237.35, 0.00, 0.00, 0.00, 0.00, 0.00, 0.00, 0.00
253, 13066.27, 39998.98, 1244.79, 18229.17, -258.12, -317.93, 9540.39, -39647.19, -26219.49, 29787.83, 1838.27, 17237.35, 0.00, 0.00, 0.00, 0.00, 0.00, 0.00, 0.00
254, 13066.27, 39998.98, 1244.79, 18229.17, -258.12, -317.93, 9540.39, -39647.19, -26214.10, 29783.16, 1827.64, 17236.59, 0.00, 0.00, 0.00, 0.00, 0.00, 0.00, 0.00
255, 13061.76, 40004.50, 1243.54, 18238.89, -253.71, -311.23, 9552.87, -39644.73, -26214.10, 29783.16, 1827.64, 17236.59, 0.00, 0.00, 0.00, 0.00, 0.00, 0.00, 0.00
0, 13061.76, 40004.50, 1243.54, 18238.89, -253.71, -311.23, 9552.87, -39644.73, -26220.34, 29792.15, 1832.40, 17243.39, 0.00, 0.00, 0.00, 0.00, 0.00, 0.00, 0.00
1, 13060.95, 39996.39, 1240.99, 18228.72, -259.19, -316.28, 9543.73, -39646.83, -26220.34, 29792.15, 1832.40, 17243.39, 0.00, 0.00, 0.00, 0.00, 0.00, 0.00, 0.00
2, 13060.95, 39996.39, 1240.99, 18228.72, -259.19, -316.28, 9543.73, -39646.83, -26213.88, 29776.59, 1824.53, 17236.64, 0.00, 0.00, 0.00, 0.00, 0.00, 0.00, 0.00
3, 13066.02, 40008.13, 1243.43, 18239.89, -253.76, -311.65, 9552.82, -39644.26, -26213.88, 29776.59, 1824.53, 17236.64, 0.00, 0.00, 0.00, 0.00, 0.00, 0.00, 0.00
4, 13066.02, 40008.13, 1243.43, 18239.89, -253.76, -311.65, 9552.82, -39644.26, -26219.67, 29794.03, 1833.20, 17241.20, 0.00, 0.00, 0.00, 0.00, -0.05, 0.27, 0.98
5, 13062.98, 40001.02, 1242.35, 18232.65, -258.45, -318.18, 9542.67, -39651.12, -26219.67, 29794.03, 1833.20, 17241.20, 0.00, 0.00, 0.00, 0.00, 0.00, 0.00, 0.00
6, 13062.98, 40001.02, 1242.35, 18232.65, -258.45, -318.18, 9542.67, -39651.12, -26220.76, 29770.64, 1820.71, 17228.66, 0.00, 0.00, 0.00, 0.00, 0.00, 0.00, 0.00
7, 13069.62, 39999.56, 1242.76, 18242.13, -255.55, -313.59, 9549.94, -39648.20, -26220.76, 29770.64, 1820.71, 17228.66, 0.00, 0.00, 0.00, 0.00, 0.00, 0.00, 0.00
8, 13069.62, 39999.56, 1242.76, 18242.13, -255.55, -313.59, 9549.94, -39648.20, -26218.71, 29800.22, 1841.34, 17245.09, 0.00, 0.00, 0.00, 0.00, 0.00, 0.00, 0.00
9, 13061.87, 39991.92, 1241.53, 18233.10, -255.39, -314.62, 9547.70, -39642.74, -26218.71, 29800.22, 1841.34, 17245.09, 0.00, 0.00, 0.00, 0.00, 0.00, 0.00, 0.00
10, 13061.87, 39991.92, 1241.53, 18233.10, -255.39, -314.62, 9547.70, -39642.74, -26213.99, 29783.92, 1824.64, 17238.54, 0.00, 0.00, 0.00, 0.00, 0.00, 0.00, 0.00
11, 13059.48, 40001.82, 1243.43, 18238.06, -254.65, -314.89, 9550.27, -39647.32, -26213.99, 29783.92, 1824.64, 17238.54, 0.00, 0.00, 0.00, 0.00, 0.00, 0.00, 0.00
12, 13059.48, 40001.82, 1243.43, 18238.06, -254.65, -314.89, 9550.27, -39647.32, -26219.15, 29797.15, 1840.44, 17237.71, 0.00, 0.00, 0.00, 0.00, 0.00, 0.00, 0.00
13, 13065.35, 40005.89, 1247.34, 18237.68, -253.31, -314.42, 9548.91, -39648.21, -26219.15, 29797.15, 1840.44, 17237.71, 0.00, 0.00, 0.00, 0.00, 0.00, 0.00, 0.00
14, 13065.35, 40005.89, 1247.34, 18237.68, -253.31, -314.42, 9548.91, -39648.21, -26213.25, 29776.37, 1831.66, 17232.66, 0.00, 0.00, 0.00, 0.00, -0.05, 0.26, 0.98
15, 13068.89, 39998.89, 1245.71, 18236.97, -256.93, -315.94, 9550.92, -39647.75, -26213.25, 29776.37, 1831.66, 17232.66, 0.00, 0.00, 0.00, 0.00, 0.00, 0.00, 0.00
16, 13068.89, 39998.89, 1245.71, 18236.97, -256.93, -315.94, 9550.92, -39647.75, -26219.47, 29799.26, 1839.08, 17241.58, 0.00, 0.00, 0.00, 0.00, 0.00, 0.00, 0.00
17, 13068.46, 40004.91, 1249.51, 18238.46, -252.98, -313.35, 9551.57, -39645.18, -26219.47, 29799.26, 1839.08, 17241.58, 0.00, 0.00, 0.00, 0.00, 0.00, 0.00, 0.00
18, 13068.46, 40004.91, 1249.51, 18238.46, -252.98, -313.35, 9551.57, -39645.18, -26215.53, 29777.82, 1833.74, 17233.57, 0.00, 0.00, 0.00, 0.00, 0.00, 0.00, 0.00
19, 13066.94, 40002.74, 1246.76, 18232.18, -258.01, -318.49, 9547.57, -39646.61, -26215.53, 29777.82, 1833.74, 17233.57, 0.00, 0.00, 0.00, 0.00, 0.00, 0.00, 0.00
20, 13066.94, 40002.74, 1246.76, 18232.18, -258.01, -318.49, 9547.57, -39646.61, -26220.27, 29797.60, 1840.87, 17240.57, 0.00, 0.00, 0.00, 0.00, 0.00, 0.00, 0.00
21, 13069.02, 40005.06, 1247.65, 18240.63, -254.56, -314.13, 9550.97, -39647.34, -26220.27, 29797.60, 1840.87, 17240.57, 0.00, 0.00, 0.00, 0.00, 0.00, 0.00, 0.00
22, 13069.02, 40005.06, 1247.65, 18240.63, -254.56, -314.13, 9550.97, -39647.34, -26222.39, 29772.23, 1825.82, 17224.81, 0.00, 0.00, 0.00, 0.00, 0.00, 0.00, 0.00
23, 13062.72, 39998.47, 1243.00, 18232.99, -261.85, -320.46, 9543.86, -39650.81, -26222.39, 29772.23, 1825.82, 17224.81, 0.00, 0.00, 0.00, 0.00, 0.00, 0.00, 0.00
24, 13062.72, 39998.47, 1243.00, 18232.99, -261.85, -320.46, 9543.86, -39650.81, -26222.87, 29798.85, 1835.84, 17243.05, 0.00, 0.00, 0.00, 0.00, -0.05, 0.26, 0.98
25, 13072.24, 40006.38, 1249.75, 18241.08, -251.43, -312.05, 9556.09, -39643.54, -26222.87, 29798.85, 1835.84, 17243.05, 0.00, 0.00, 0.00, 0.00, 0.00, 0.00, 0.00
26, 13072.24, 40006.38, 1249.75, 18241.08, -251.43, -312.05, 9556.09, -39643.54, -26217.84, 29783.54, 1834.39, 17237.31, 0.00, 0.00, 0.00, 0.00, 0.00, 0.00, 0.00
27, 13065.53, 39996.79, 1246.18, 18236.32, -258.48, -317.48, 9545.38, -39650.41, -26217.84, 29783.54, 1834.39, 17237.31, 0.00, 0.00, 0.00, 0.00, 0.00, 0.00, 0.00
28, 13065.53, 39996.79, 1246.18, 18236.32, -258.48, -317.48, 9545.38, -39650.41, -26221.32, 29791.57, 1837.51, 17238.71, 0.00, 0.00, 0.00, 0.00, 0.00, 0.00, 0.00
29, 13069.00, 40007.79, 1252.28, 18246.69, -250.54, -309.80, 9556.49, -39646.52, -26221.32, 29791.57, 1837.51, 17238.71, 0.00, 0.00, 0.00, 0.00, 0.00, 0.00, 0.00
30, 13069.00, 40007.79, 1252.28, 18246.69, -250.54, -309.80, 9556.49, -39646.52, -26217.14, 29785.93, 1833.54, 17238.31, 0.00, 0.00, 0.00, 0.00, 0.00, 0.00, 0.00
31, 13059.34, 39991.74, 1242.56, 18230.57, -263.86, -320.95, 9544.37, -39650.43, -26217.14, 29785.93, 1833.54, 17238.31, 0.00, 0.00, 0.00, 0.00, 0.00, 0.00, 0.00
32, 13059.34, 39991.74, 1242.56, 18230.57, -263.86, -320.95, 9544.37, -39650.43, -26219.40, 29794.47, 1831.95, 17243.07, 0.00, 0.00, 0.00, 0.00, 0.00, 0.00, 0.00
33, 13071.66, 40006.49, 1251.45, 18248.75, -248.77, -309.50, 9558.25, -39646.14, -26219.40, 29794.47, 1831.95, 17243.07, 0.00, 0.00, 0.00, 0.00, 0.00, 0.00, 0.00
34, 13071.66, 40006.49, 1251.45, 18248.75, -248.77, -309.50, 9558.25, -39646.14, -26220.88, 29783.52, 1831.21, 17231.56, 0.00, 0.00, 0.00, 0.00, -0.05, 0.26, 0.98
35, 13060.86, 39992.10, 1240.28, 18230.37, -264.42, -322.07, 9541.27, -39651.66, -26220.88, 29783.52, 1831.21, 17231.56, 0.00, 0.00, 0.00, 0.00, 0.00, 0.00, 0.00
36, 13060.86, 39992.10, 1240.28, 18230.37, -264.42, -322.07, 9541.27, -39651.66, -26220.74, 29790.54, 1827.95, 17237.69, 0.00, 0.00, 0.00, 0.00, 0.00, 0.00, 0.00
37, 13066.99, 39999.23, 1245.93, 18247.07, -252.51, -309.91, 9557.67, -39645.78, -26220.74, 29790.54, 1827.95, 17237.69, 0.00, 0.00, 0.00, 0.00, 0.00, 0.00, 0.00
38, 13066.99, 39999.23, 1245.93, 18247.07, -252.51, -309.91, 9557.67, -39645.78, -26220.79, 29789.51, 1829.91, 17235.12, 0.00, 0.00, 0.00, 0.00, 0.00, 0.00, 0.00
39, 13063.83, 39989.35, 1243.81, 18232.45, -261.85, -318.83, 9543.77, -39650.56, -26220.79, 29789.51, 1829.91, 17235.12, 0.00, 0.00, 0.00, 0.00, 0.00, 0.00, 0.00
40, 13063.83, 39989.35, 1243.81, 18232.45, -261.85, -318.83, 9543.77, -39650.56, -26216.81, 29788.26, 1833.11, 17239.54, 0.00, 0.00, 0.00, 0.00, 0.00, 0.00, 0.00
41, 13064.68, 40000.17, 1249.19, 18249.82, -253.85, -309.50, 9557.90, -39648.75, -26216.81, 29788.26, 1833.11, 17239.54, 0.00, 0.00, 0.00, 0.00, 0.00, 0.00, 0.00
42, 13064.68, 40000.17, 1249.19, 18249.82, -253.85, -309.50, 9557.90, -39648.75, -26219.18, 29791.57, 1830.76, 17233.80, 0.00, 0.00, 0.00, 0.00, 0.00, 0.00, 0.00
43, 13052.66, 39990.93, 1241.66, 18231.00, -264.51, -322.16, 9541.15, -39651.75, -26219.18, 29791.57, 1830.76, 17233.80, 0.00, 0.00, 0.00, 0.00, -0.05, 0.26, 0.98
44, 13052.66, 39990.93, 1241.66, 18231.00, -264.51, -322.16, 9541.15, -39651.75, -26215.24, 29784.73, 1823.37, 17234.98, 0.00, 0.00, 0.00, 0.00, 0.00, 0.00, 0.00
45, 13062.69, 40003.23, 1244.43, 18244.86, -254.85, -313.91, 9556.62, -39645.71, -26215.24, 29784.73, 1823.37, 17234.98, 0.00, 0.00, 0.00, 0.00, 0.00, 0.00, 0.00
46, 13062.69, 40003.23, 1244.43, 18244.86, -254.85, -313.91, 9556.62, -39645.71, -26218.53, 29794.54, 1830.27, 17236.50, 0.00, 0.00, 0.00, 0.00, 0.00, 0.00, 0.00
47, 13051.47, 39983.40, 1238.29, 18229.63, -264.62, -323.34, 9542.32, -39651.61, -26218.53, 29794.54, 1830.27, 17236.50, 0.00, 0.00, 0.00, 0.00, 0.00, 0.00, 0.00
48, 13051.47, 39983.40, 1238.29, 18229.63, -264.62, -323.34, 9542.32, -39651.61, -26218.17, 29781.57, 1812.75, 17230.15, 0.00, 0.00, 0.00, 0.00, 0.00, 0.00, 0.00
49, 13054.25, 39988.77, 1238.60, 18239.43, -258.59, -317.13, 9552.91, -39650.47, -26218.17, 29781.57, 1812.75, 17230.15, 0.00, 0.00, 0.00, 0.00, 0.00, 0.00, 0.00
50, 13054.25, 39988.77, 1238.60, 18239.43, -258.59, -317.13, 9552.91, -39650.47, -26222.22, 29798.14, 1826.61, 17236.30, 0.00, 0.00, 0.00, 0.00, 0.00, 0.00, 0.00
51, 13050.13, 39983.36, 1238.60, 18226.19, -265.49, -324.50, 9542.47, -39652.71, -26222.22, 29798.14, 1826.61, 17236.30, 0.00, 0.00, 0.00, 0.00, 0.00, 0.00, 0.00
52, 13050.13, 39983.36, 1238.60, 18226.19, -265.49, -324.50, 9542.47, -39652.71, -26213.07, 29782.76, 1815.92, 17238.47, 0.00, 0.00, 0.00, 0.00, 0.00, 0.00, 0.00
53, 13065.53, 39999.36, 1246.11, 18241.50, -254.92, -317.35, 9554.92, -39645.09, -26213.07, 29782.76, 1815.92, 17238.47, 0.00, 0.00, 0.00, 0.00, -0.05, 0.26, 0.98
54, 13065.53, 39999.36, 1246.11, 18241.50, -254.92, -317.35, 9554.92, -39645.09, -26217.77, 29799.08, 1832.57, 17241.64, 0.00, 0.00, 0.00, 0.00, 0.00, 0.00, 0.00
55, 13067.75, 40007.25, 1249.93, 18236.45, -256.62, -319.79, 9550.34, -39647.19, -26217.77, 29799.08, 1832.57, 17241.64, 0.00, 0.00, 0.00, 0.00, 0.00, 0.00, 0.00
56, 13067.75, 40007.25, 1249.93, 18236.45, -256.62, -319.79, 9550.34, -39647.19, -26207.84, 29782.42, 1825.40, 17234.80, 0.00, 0.00, 0.00, 0.00, 0.00, 0.00, 0.00
57, 13061.78, 39999.65, 1249.53, 18243.92, -251.73, -314.11, 9557.92, -39644.01, -26207.84, 29782.42, 1825.40, 17234.80, 0.00, 0.00, 0.00, 0.00, 0.00, 0.00, 0.00
58, 13061.78, 39999.65, 1249.53, 18243.92, -251.73, -314.11, 9557.92, -39644.01, -26219.82, 29802.16, 1837.81, 17243.79, 0.00, 0.00, 0.00, 0.00, 0.00, 0.00, 0.00
59, 13061.62, 39993.37, 1247.36, 18237.79, -256.46, -317.73, 9552.69, -39645.64, -26219.82, 29802.16, 1837.81, 17243.79, 0.00, 0.00, 0.00, 0.00, 0.00, 0.00, 0.00
60, 13061.62, 39993.37, 1247.36, 18237.79, -256.46, -317.73, 9552.69, -39645.64, -26211.29, 29787.10, 1823.03, 17237.78, 0.00, 0.00, 0.00, 0.00, 0.00, 0.00, 0.00
61, 13068.64, 39999.05, 1248.64, 18241.24, -256.58, -316.66, 9555.04, -39644.48, -26211.29, 29787.10, 1823.03, 17237.78, 0.00, 0.00, 0.00, 0.00, 0.00, 0.00, 0.00
62, 13068.64, 39999.05, 1248.64, 18241.24, -256.58, -316.66, 9555.04, -39644.48, -26222.39, 29799.01, 1832.17, 17240.59, 0.00, 0.00, 0.00, 0.00, 0.00, 0.00, 0.00
63, 13062.36, 39999.74, 1247.88, 18239.20, -259.95, -319.09, 9549.04, -39650.29, -26222.39, 29799.01, 1832.17, 17240.59, 0.00, 0.00, 0.00, 0.00, -0.05, 0.27, 0.97
64, 13062.36, 39999.74, 1247.88, 18239.20, -259.95, -319.09, 9549.04, -39650.29, -26219.56, 29777.15, 1817.29, 17232.10, 0.00, 0.00, 0.00, 0.00, 0.00, 0.00, 0.00
65, 13061.40, 40001.42, 1246.13, 18237.44, -264.02, -320.81, 9548.20, -39650.90, -26219.56, 29777.15, 1817.29, 17232.10, 0.00, 0.00, 0.00, 0.00, 0.00, 0.00, 0.00
66, 13061.40, 40001.42, 1246.13, 18237.44, -264.02, -320.81, 9548.20, -39650.90, -26220.96, 29798.54, 1823.90, 17239.92, 0.00, 0.00, 0.00, 0.00, 0.00, 0.00, 0.00
67, 13062.54, 39995.05, 1245.69, 18240.05, -258.70, -318.18, 9552.35, -39646.23, -26220.96, 29798.54, 1823.90, 17239.92, 0.00, 0.00, 0.00, 0.00, 0.00, 0.00, 0.00
68, 13062.54, 39995.05, 1245.69, 18240.05, -258.70, -318.18, 9552.35, -39646.23, -26213.32, 29782.58, 1820.62, 17232.66, 0.00, 0.00, 0.00, 0.00, 0.00, 0.00, 0.00
69, 13060.33, 39990.64, 1245.86, 18237.01, -262.23, -321.98, 9549.74, -39648.51, -26213.32, 29782.58, 1820.62, 17232.66, 0.00, 0.00, 0.00, 0.00, 0.00, 0.00, 0.00
70, 13060.33, 39990.64, 1245.86, 18237.01, -262.23, -321.98, 9549.74, -39648.51, -26219.13, 29797.71, 1827.26, 17243.61, 0.00, 0.00, 0.00, 0.00, 0.00, 0.00, 0.00
71, 13059.63, 39992.93, 1248.32, 18243.72, -256.98, -315.38, 9555.91, -39645.06, -26219.13, 29797.71, 1827.26, 17243.61, 0.00, 0.00, 0.00, 0.00, 0.00, 0.00, 0.00
72, 13059.63, 39992.93, 1248.32, 18243.72, -256.98, -315.38, 9555.91, -39645.06, -26218.19, 29781.96, 1816.50, 17233.11, 0.00, 0.00, 0.00, 0.00, 0.00, 0.00, 0.00
73, 13060.46, 39989.41, 1241.73, 18232.16, -265.29, -321.64, 9547.17, -39649.63, -26218.19, 29781.96, 1816.50, 17233.11, 0.00, 0.00, 0.00, 0.00, -0.05, 0.27, 0.97
74, 13060.46, 39989.41, 1241.73, 18232.16, -265.29, -321.64, 9547.17, -39649.63, -26215.62, 29801.83, 1826.09, 17246.38, 0.00, 0.00, 0.00, 0.00, 0.00, 0.00, 0.00
75, 13067.90, 39998.47, 1250.74, 18245.57, -254.01, -315.05, 9557.47, -39645.31, -26215.62, 29801.83, 1826.09, 17246.38, 0.00, 0.00, 0.00, 0.00, 0.00, 0.00, 0.00
76, 13067.90, 39998.47, 1250.74, 18245.57, -254.01, -315.05, 9557.47, -39645.31, -26216.27, 29784.10, 1827.08, 17234.56, 0.00, 0.00, 0.00, 0.00, 0.00, 0.00, 0.00
77, 13063.21, 39995.09, 1252.21, 18237.88, -260.80, -320.90, 9546.12, -39652.95, -26216.27, 29784.10, 1827.08, 17234.56, 0.00, 0.00, 0.00, 0.00, 0.00, 0.00, 0.00
78, 13063.21, 39995.09, 1252.21, 18237.88, -260.80, -320.90, 9546.12, -39652.95, -26215.89, 29798.09, 1832.44, 17245.11, 0.00, 0.00, 0.00, 0.00, 0.00, 0.00, 0.00
79, 13070.58, 40016.06, 1263.03, 18254.63, -248.57, -310.29, 9562.46, -39643.39, -26215.89, 29798.09, 1832.44, 17245.11, 0.00, 0.00, 0.00, 0.00, 0.00, 0.00, 0.00
80, 13070.58, 40016.06, 1263.03, 18254.63, -248.57, -310.29, 9562.46, -39643.39, -26213.90, 29788.19, 1834.63, 17239.27, 0.00, 0.00, 0.00, 0.00, 0.00, 0.00, 0.00
81, 13065.58, 39996.68, 1252.88, 18237.59, -257.16, -321.93, 9549.65, -39646.20, -26213.90, 29788.19, 1834.63, 17239.27, 0.00, 0.00, 0.00, 0.00, 0.00, 0.00, 0.00
82, 13065.58, 39996.68, 1252.88, 18237.59, -257.16, -321.93, 9549.65, -39646.20, -26215.13, 29793.98, 1828.98, 17240.08, 0.00, 0.00, 0.00, 0.00, -0.05, 0.26, 0.97
83, 13069.00, 40002.22, 1256.46, 18250.65, -249.96, -313.89, 9560.58, -39645.49, -26215.13, 29793.98, 1828.98, 17240.08, 0.00, 0.00, 0.00, 0.00, 0.00, 0.00, 0.00
84, 13069.00, 40002.22, 1256.46, 18250.65, -249.96, -313.89, 9560.58, -39645.49, -26216.25, 29794.00, 1830.97, 17234.38, 0.00, 0.00, 0.00, 0.00, 0.00, 0.00, 0.00
85, 13052.05, 39987.83, 1249.24, 18235.33, -262.52, -324.86, 9544.19, -39652.11, -26216.25, 29794.00, 1830.97, 17234.38, 0.00, 0.00, 0.00, 0.00, 0.00, 0.00, 0.00
86, 13052.05, 39987.83, 1249.24, 18235.33, -262.52, -324.86, 9544.19, -39652.11, -26218.24, 29790.61, 1822.07, 17237.06, 0.00, 0.00, 0.00, 0.00, 0.00, 0.00, 0.00
87, 13067.32, 39999.94, 1250.62, 18250.04, -254.90, -315.92, 9558.70, -39651.57, -26218.24, 29790.61, 1822.07, 17237.06, 0.00, 0.00, 0.00, 0.00, 0.00, 0.00, 0.00
88, 13067.32, 39999.94, 1250.62, 18250.04, -254.90, -315.92, 9558.70, -39651.57, -26222.28, 29788.59, 1826.63, 17229.15, 0.00, 0.00, 0.00, 0.00, 0.00, 0.00, 0.00
89, 13059.14, 39986.40, 1244.50, 18236.01, -265.65, -327.41, 9542.29, -39657.83, -26222.28, 29788.59, 1826.63, 17229.15, 0.00, 0.00, 0.00, 0.00, 0.00, 0.00, 0.00
90, 13059.14, 39986.40, 1244.50, 18236.01, -265.65, -327.41, 9542.29, -39657.83, -26223.65, 29778.42, 1816.64, 17231.81, 0.00, 0.00, 0.00, 0.00, 0.00, 0.00, 0.00
91, 13056.59, 39983.71, 1242.47, 18246.47, -264.82, -321.26, 9552.67, -39655.41, -26223.65, 29778.42, 1816.64, 17231.81, 0.00, 0.00, 0.00, 0.00, 0.00, 0.00, 0.00
92, 13056.59, 39983.71, 1242.47, 18246.47, -264.82, -321.26, 9552.67, -39655.41, -26228.72, 29787.77, 1817.91, 17232.10, 0.00, 0.00, 0.00, 0.00, -0.05, 0.26, 0.97
93, 13042.80, 39967.51, 1233.26, 18229.05, -273.12, -331.25, 9538.25, -39662.66, -26228.72, 29787.77, 1817.91, 17232.10, 0.00, 0.00, 0.00, 0.00, 0.00, 0.00, 0.00
94, 13042.80, 39967.51, 1233.26, 18229.05, -273.12, -331.25, 9538.25, -39662.66, -26222.89, 29776.21, 1807.76, 17226.04, 0.00, 0.00, 0.00, 0.00, 0.00, 0.00, 0.00
95, 13053.26, 39982.78, 1239.87, 18244.32, -261.69, -321.40, 9553.96, -39655.97, -26222.89, 29776.21, 1807.76, 17226.04, 0.00, 0.00, 0.00, 0.00, 0.00, 0.00, 0.00
96, 13053.26, 39982.78, 1239.87, 18244.32, -261.69, -321.40, 9553.96, -39655.97, -26219.73, 29798.23, 1823.37, 17238.89, 0.00, 0.00, 0.00, 0.00, 0.00, 0.00, 0.00
97, 13046.53, 39980.88, 1240.63, 18232.23, -266.92, -326.72, 9546.38, -39652.11, -26219.73, 29798.23, 1823.37, 17238.89, 0.00, 0.00, 0.00, 0.00, 0.00, 0.00, 0.00
98, 13046.53, 39980.88, 1240.63, 18232.23, -266.92, -326.72, 9546.38, -39652.11, -26212.36, 29792.13, 1815.83, 17240.23, 0.00, 0.00, 0.00, 0.00, 0.00, 0.00, 0.00
99, 13048.72, 39986.87, 1244.81, 18246.78, -256.91, -319.50, 9557.92, -39649.56, -26212.36, 29792.13, 1815.83, 17240.23, 0.00, 0.00, 0.00, 0.00, 0.00, 0.00, 0.00
100, 13048.72, 39986.87, 1244.81, 18246.78, -256.91, -319.50, 9557.92, -39649.56, -26216.12, 29803.95, 1827.70, 17239.63, 0.00, 0.00, 0.00, 0.00, 0.00, 0.00, 0.00
101, 13052.23, 39979.51, 1241.86, 18233.84, -261.25, -326.13, 9549.65, -39650.85, -26216.12, 29803.95, 1827.70, 17239.63, 0.00, 0.00, 0.00, 0.00, 0.00, 0.00, 0.00
102, 13052.23, 39979.51, 1241.86, 18233.84, -261.25, -326.13, 9549.65, -39650.85, -26213.25, 29783.83, 1823.16, 17240.46, 0.00, 0.00, 0.00, 0.00, -0.05, 0.26, 0.97
103, 13052.81, 39992.75, 1247.36, 18244.46, -255.97, -319.34, 9559.95, -39647.68, -26213.25, 29783.83, 1823.16, 17240.46, 0.00, 0.00, 0.00, 0.00, 0.00, 0.00, 0.00
104, 13052.81, 39992.75, 1247.36, 18244.46, -255.97, -319.34, 9559.95, -39647.68, -26213.19, 29809.36, 1839.75, 17251.05, 0.00, 0.00, 0.00, 0.00, 0.00, 0.00, 0.00
105, 13055.54, 39991.61, 1253.51, 18245.35, -251.52, -318.20, 9560.47, -39642.47, -26213.19, 29809.36, 1839.75, 17251.05, 0.00, 0.00, 0.00, 0.00, 0.00, 0.00, 0.00
106, 13055.54, 39991.61, 1253.51, 18245.35, -251.52, -318.20, 9560.47, -39642.47, -26203.55, 29794.56, 1826.79, 17245.94, 0.00, 0.00, 0.00, 0.00, 0.00, 0.00, 0.00
107, 13056.68, 39993.77, 1251.43, 18245.50, -253.92, -317.73, 9563.64, -39641.02, -26203.55, 29794.56, 1826.79, 17245.94, 0.00, 0.00, 0.00, 0.00, 0.00, 0.00, 0.00
108, 13056.68, 39993.77, 1251.43, 18245.50, -253.92, -317.73, 9563.64, -39641.02, -26211.40, 29811.95, 1837.31, 17251.43, 0.00, 0.00, 0.00, 0.00, 0.00, 0.00, 0.00
109, 13053.73, 39989.86, 1248.43, 18239.45, -259.17, -324.32, 9554.88, -39649.47, -26211.40, 29811.95, 1837.31, 17251.43, 0.00, 0.00, 0.00, 0.00, 0.00, 0.00, 0.00
110, 13053.73, 39989.86, 1248.43, 18239.45, -259.17, -324.32, 9554.88, -39649.47, -26214.73, 29782.00, 1824.37, 17238.38, 0.00, 0.00, 0.00, 0.00, 0.00, 0.00, 0.00
111, 13054.18, 39994.06, 1248.86, 18241.95, -260.55, -323.39, 9555.37, -39649.71, -26214.73, 29782.00, 1824.37, 17238.38, 0.00, 0.00, 0.00, 0.00, 0.00, 0.00, 0.00
112, 13054.18, 39994.06, 1248.86, 18241.95, -260.55, -323.39, 9555.37, -39649.71, -26218.30, 29806.36, 1833.18, 17246.25, 0.00, 0.00, 0.00, 0.00, -0.04, 0.25, 0.97
113, 13063.54, 39994.11, 1250.60, 18245.53, -258.45, -321.55, 9554.57, -39651.90, -26218.30, 29806.36, 1833.18, 17246.25, 0.00, 0.00, 0.00, 0.00, 0.00, 0.00, 0.00
114, 13063.54, 39994.11, 1250.60, 18245.53, -258.45, -321.55, 9554.57, -39651.90, -26217.10, 29782.83, 1821.29, 17232.21, 0.00, 0.00, 0.00, 0.00, 0.00, 0.00, 0.00
115, 13055.07, 39991.56, 1247.32, 18239.58, -266.01, -326.89, 9549.74, -39654.61, -26217.10, 29782.83, 1821.29, 17232.21, 0.00, 0.00, 0.00, 0.00, 0.00, 0.00, 0.00
116, 13055.07, 39991.56, 1247.32, 18239.58, -266.01, -326.89, 9549.74, -39654.61, -26221.10, 29800.19, 1831.19, 17239.27, 0.00, 0.00, 0.00, 0.00, 0.00, 0.00, 0.00
117, 13052.12, 39994.02, 1247.74, 18242.35, -259.97, -325.02, 9555.88, -39650.12, -26221.10, 29800.19, 1831.19, 17239.27, 0.00, 0.00, 0.00, 0.00, 0.00, 0.00, 0.00
118, 13052.12, 39994.02, 1247.74, 18242.35, -259.97, -325.02, 9555.88, -39650.12, -26216.96, 29784.46, 1819.30, 17232.14, 0.00, 0.00, 0.00, 0.00, 0.00, 0.00, 0.00
119, 13049.64, 39985.28, 1242.80, 18233.90, -268.13, -329.00, 9549.36, -39651.17, -26216.96, 29784.46, 1819.30, 17232.14, 0.00, 0.00, 0.00, 0.00, 0.00, 0.00, 0.00
120, 13049.64, 39985.28, 1242.80, 18233.90, -268.13, -329.00, 9549.36, -39651.17, -26219.58, 29802.16, 1827.10, 17242.20, 0.00, 0.00, 0.00, 0.00, 0.00, 0.00, 0.00
121, 13059.41, 39998.78, 1253.24, 18247.36, -255.93, -318.60, 9561.56, -39646.45, -26219.58, 29802.16, 1827.10, 17242.20, 0.00, 0.00, 0.00, 0.00, -0.05, 0.26, 0.97
122, 13059.41, 39998.78, 1253.24, 18247.36, -255.93, -318.60, 9561.56, -39646.45, -26212.56, 29794.79, 1829.29, 17240.44, 0.00, 0.00, 0.00, 0.00, 0.00, 0.00, 0.00
123, 13053.66, 39993.26, 1250.94, 18237.06, -261.72, -326.51, 9553.09, -39646.83, -26212.56, 29794.79, 1829.29, 17240.44, 0.00, 0.00, 0.00, 0.00, 0.00, 0.00, 0.00
124, 13053.66, 39993.26, 1250.94, 18237.06, -261.72, -326.51, 9553.09, -39646.83, -26212.58, 29808.20, 1837.05, 17248.75, 0.00, 0.00, 0.00, 0.00, 0.00, 0.00, 0.00
125, 13059.81, 40006.34, 1256.17, 18249.95, -253.40, -317.51, 9563.35, -39645.06, -26212.58, 29808.20, 1837.05, 17248.75, 0.00, 0.00, 0.00, 0.00, 0.00, 0.00, 0.00
126, 13059.81, 40006.34, 1256.17, 18249.95, -253.40, -317.51, 9563.35, -39645.06, -26213.43, 29789.42, 1833.09, 17236.21, 0.00, 0.00, 0.00, 0.00, 0.00, 0.00, 0.00
127, 13058.69, 39993.68, 1251.09, 18236.90, -263.93, -325.40, 9550.21, -39653.49, -26213.43, 29789.42, 1833.09, 17236.21, 0.00, 0.00, 0.00, 0.00, 0.00, 0.00, 0.00
128, 13058.69, 39993.68, 1251.09, 18236.90, -263.93, -325.40, 9550.21, -39653.49, -26214.28, 29796.86, 1839.17, 17239.25, 0.00, 0.00, 0.00, 0.00, 0.00, 0.00, 0.00
129, 13053.60, 39999.63, 1258.00, 18253.17, -252.89, -317.62, 9564.02, -39648.57, -26214.28, 29796.86, 1839.17, 17239.25, 0.00, 0.00, 0.00, 0.00, 0.00, 0.00, 0.00
130, 13053.60, 39999.63, 1258.00, 18253.17, -252.89, -317.62, 9564.02, -39648.57, -26213.61, 29795.95, 1834.05, 17238.04, 0.00, 0.00, 0.00, 0.00, 0.00, 0.00, 0.00
131, 13045.51, 39989.53, 1248.86, 18237.77, -263.97, -327.32, 9550.03, -39650.34, -26213.61, 29795.95, 1834.05, 17238.04, 0.00, 0.00, 0.00, 0.00, -0.04, 0.26, 0.97
132, 13045.51, 39989.53, 1248.86, 18237.77, -263.97, -327.32, 9550.03, -39650.34, -26214.64, 29798.92, 1830.18, 17241.38, 0.00, 0.00, 0.00, 0.00, 0.00, 0.00, 0.00
133, 13059.10, 40005.64, 1256.95, 18254.42, -252.26, -314.80, 9566.12, -39644.15, -26214.64, 29798.92, 1830.18, 17241.38, 0.00, 0.00, 0.00, 0.00, 0.00, 0.00, 0.00
134, 13059.10, 40005.64, 1256.95, 18254.42, -252.26, -314.80, 9566.12, -39644.15, -26214.17, 29801.67, 1839.95, 17244.13, 0.00, 0.00, 0.00, 0.00, 0.00, 0.00, 0.00
135, 13056.28, 39990.60, 1251.92, 18241.84, -264.18, -325.26, 9552.84, -39650.43, -26214.17, 29801.67, 1839.95, 17244.13, 0.00, 0.00, 0.00, 0.00, 0.00, 0.00, 0.00
136, 13056.28, 39990.60, 1251.92, 18241.84, -264.18, -325.26, 9552.84, -39650.43, -26214.37, 29797.89, 1828.89, 17243.07, 0.00, 0.00, 0.00, 0.00, 0.00, 0.00, 0.00
137, 13062.45, 39998.60, 1255.97, 18253.78, -253.92, -315.61, 9566.08, -39645.45, -26214.37, 29797.89, 1828.89, 17243.07, 0.00, 0.00, 0.00, 0.00, 0.00, 0.00, 0.00
138, 13062.45, 39998.60, 1255.97, 18253.78, -253.92, -315.61, 9566.08, -39645.45, -26216.38, 29801.27, 1835.84, 17238.13, 0.00, 0.00, 0.00, 0.00, 0.00, 0.00, 0.00
139, 13059.70, 39991.83, 1251.30, 18242.15, -265.72, -327.01, 9550.61, -39652.86, -26216.38, 29801.27, 1835.84, 17238.13, 0.00, 0.00, 0.00, 0.00, 0.00, 0.00, 0.00
140, 13059.70, 39991.83, 1251.30, 18242.15, -265.72, -327.01, 9550.61, -39652.86, -26214.33, 29791.59, 1825.82, 17238.13, 0.00, 0.00, 0.00, 0.00, 0.00, 0.00, 0.00
141, 13059.95, 39997.39, 1253.75, 18255.52, -257.72, -316.99, 9564.87, -39648.60, -26214.33, 29791.59, 1825.82, 17238.13, 0.00, 0.00, 0.00, 0.00, -0.04, 0.27, 0.97
142, 13059.95, 39997.39, 1253.75, 18255.52, -257.72, -316.99, 9564.87, -39648.60, -26220.47, 29807.86, 1832.82, 17242.58, 0.00, 0.00, 0.00, 0.00, 0.00, 0.00, 0.00
143, 13049.39, 39992.32, 1249.37, 18238.91, -265.58, -327.50, 9550.10, -39653.74, -26220.47, 29807.86, 1832.82, 17242.58, 0.00, 0.00, 0.00, 0.00, 0.00, 0.00, 0.00
144, 13049.39, 39992.32, 1249.37, 18238.91, -265.58, -327.50, 9550.10, -39653.74, -26213.03, 29794.52, 1820.88, 17237.11, 0.00, 0.00, 0.00, 0.00, 0.00, 0.00, 0.00
145, 13052.90, 39997.73, 1251.83, 18253.75, -256.22, -317.48, 9563.06, -39647.70, -26213.03, 29794.52, 1820.88, 17237.11, 0.00, 0.00, 0.00, 0.00, 0.00, 0.00, 0.00
146, 13052.90, 39997.73, 1251.83, 18253.75, -256.22, -317.48, 9563.06, -39647.70, -26216.12, 29807.46, 1834.92, 17243.72, 0.00, 0.00, 0.00, 0.00, 0.00, 0.00, 0.00
147, 13044.21, 39980.92, 1244.70, 18238.20, -266.99, -327.72, 9551.37, -39653.98, -26216.12, 29807.46, 1834.92, 17243.72, 0.00, 0.00, 0.00, 0.00, 0.00, 0.00, 0.00
148, 13044.21, 39980.92, 1244.70, 18238.20, -266.99, -327.72, 9551.37, -39653.98, -26213.16, 29788.82, 1825.71, 17238.31, 0.00, 0.00, 0.00, 0.00, 0.00, 0.00, 0.00
149, 13051.59, 39998.13, 1256.35, 18252.37, -253.45, -319.00, 9568.40, -39643.41, -26213.16, 29788.82, 1825.71, 17238.31, 0.00, 0.00, 0.00, 0.00, 0.00, 0.00, 0.00
150, 13051.59, 39998.13, 1256.35, 18252.37, -253.45, -319.00, 9568.40, -39643.41, -26212.61, 29812.91, 1848.09, 17245.85, 0.00, 0.00, 0.00, 0.00, 0.00, 0.00, 0.00
151, 13051.36, 39995.59, 1255.16, 18245.24, -260.64, -322.16, 9559.84, -39647.79, -26212.61, 29812.91, 1848.09, 17245.85, 0.00, 0.00, 0.00, 0.00, -0.04, 0.27, 0.97
152, 13051.36, 39995.59, 1255.16, 18245.24, -260.64, -322.16, 9559.84, -39647.79, -26213.83, 29789.69, 1828.62, 17237.04, 0.00, 0.00, 0.00, 0.00, 0.00, 0.00, 0.00
153, 13055.59, 40007.45, 1257.55, 18253.95, -257.16, -318.18, 9564.80, -39646.99, -26213.83, 29789.69, 1828.62, 17237.04, 0.00, 0.00, 0.00, 0.00, 0.00, 0.00, 0.00
154, 13055.59, 40007.45, 1257.55, 18253.95, -257.16, -318.18, 9564.80, -39646.99, -26216.14, 29814.68, 1842.48, 17248.86, 0.00, 0.00, 0.00, 0.00, 0.00, 0.00, 0.00
155, 13051.03, 39992.41, 1252.93, 18248.70, -256.08, -320.48, 9563.89, -39643.01, -26216.14, 29814.68, 1842.48, 17248.86, 0.00, 0.00, 0.00, 0.00, 0.00, 0.00, 0.00
156, 13051.03, 39992.41, 1252.93, 18248.70, -256.08, -320.48, 9563.89, -39643.01, -26207.53, 29796.84, 1833.56, 17243.63, 0.00, 0.00, 0.00, 0.00, 0.00, 0.00, 0.00
157, 13046.71, 39990.00, 1251.03, 18248.70, -260.08, -322.45, 9562.70, -39649.82, -26207.53, 29796.84, 1833.56, 17243.63, 0.00, 0.00, 0.00, 0.00, 0.00, 0.00, 0.00
158, 13046.71, 39990.00, 1251.03, 18248.70, -260.08, -322.45, 9562.70, -39649.82, -26216.05, 29812.51, 1841.83, 17249.31, 0.00, 0.00, 0.00, 0.00, 0.00, 0.00, 0.00
159, 13047.14, 39991.14, 1251.99, 18251.92, -256.87, -320.64, 9562.79, -39645.02, -26216.05, 29812.51, 1841.83, 17249.31, 0.00, 0.00, 0.00, 0.00, 0.00, 0.00, 0.00
160, 13047.14, 39991.14, 1251.99, 18251.92, -256.87, -320.64, 9562.79, -39645.02, -26208.76, 29795.52, 1827.88, 17242.27, 0.00, 0.00, 0.00, 0.00, -0.04, 0.27, 0.97
161, 13051.76, 39994.09, 1252.39, 18247.47, -260.87, -322.38, 9561.47, -39647.84, -26208.76, 29795.52, 1827.88, 17242.27, 0.00, 0.00, 0.00, 0.00, 0.00, 0.00, 0.00
162, 13051.76, 39994.09, 1252.39, 18247.47, -260.87, -322.38, 9561.47, -39647.84, -26210.57, 29810.63, 1838.10, 17249.71, 0.00, 0.00, 0.00, 0.00, 0.00, 0.00, 0.00
163, 13054.78, 39999.74, 1255.65, 18255.25, -255.12, -316.61, 9568.60, -39641.73, -26210.57, 29810.63, 1838.10, 17249.71, 0.00, 0.00, 0.00, 0.00, 0.00, 0.00, 0.00
164, 13054.78, 39999.74, 1255.65, 18255.25, -255.12, -316.61, 9568.60, -39641.73, -26204.38, 29799.48, 1833.16, 17245.44, 0.00, 0.00, 0.00, 0.00, 0.00, 0.00, 0.00
165, 13048.08, 39992.32, 1251.50, 18249.89, -260.60, -319.85, 9563.19, -39644.37, -26204.38, 29799.48, 1833.16, 17245.44, 0.00, 0.00, 0.00, 0.00, 0.00, 0.00, 0.00
166, 13048.08, 39992.32, 1251.50, 18249.89, -260.60, -319.85, 9563.19, -39644.37, -26209.77, 29815.64, 1840.17, 17250.27, 0.00, 0.00, 0.00, 0.00, 0.00, 0.00, 0.00
167, 13058.65, 39999.12, 1257.35, 18258.85, -250.34, -312.92, 9571.78, -39640.17, -26209.77, 29815.64, 1840.17, 17250.27, 0.00, 0.00, 0.00, 0.00, 0.00, 0.00, 0.00
168, 13058.65, 39999.12, 1257.35, 18258.85, -250.34, -312.92, 9571.78, -39640.17, -26207.17, 29800.62, 1837.07, 17242.07, 0.00, 0.00, 0.00, 0.00, 0.00, 0.00, 0.00
169, 13037.17, 39981.55, 1248.05, 18244.61, -263.35, -325.06, 9558.25, -39649.13, -26207.17, 29800.62, 1837.07, 17242.07, 0.00, 0.00, 0.00, 0.00, 0.00, 0.00, 0.00
170, 13037.17, 39981.55, 1248.05, 18244.61, -263.35, -325.06, 9558.25, -39649.13, -26217.63, 29807.10, 1835.88, 17248.01, 0.00, 0.00, 0.00, 0.00, -0.04, 0.26, 0.97
171, 13044.63, 39996.64, 1252.99, 18253.39, -259.70, -319.29, 9565.27, -39650.77, -26217.63, 29807.10, 1835.88, 17248.01, 0.00, 0.00, 0.00, 0.00, 0.00, 0.00, 0.00
172, 13044.63, 39996.64, 1252.99, 18253.39, -259.70, -319.29, 9565.27, -39650.77, -26217.41, 29796.33, 1829.94, 17239.59, 0.00, 0.00, 0.00, 0.00, 0.00, 0.00, 0.00
173, 13045.08, 39987.70, 1247.23, 18242.09, -266.59, -326.40, 9556.51, -39651.64, -26217.41, 29796.33, 1829.94, 17239.59, 0.00, 0.00, 0.00, 0.00, 0.00, 0.00, 0.00
174, 13045.08, 39987.70, 1247.23, 18242.09, -266.59, -326.40, 9556.51, -39651.64, -26214.62, 29805.51, 1833.74, 17243.34, 0.00, 0.00, 0.00, 0.00, 0.00, 0.00, 0.00
175, 13052.43, 39995.07, 1252.73, 18255.16, -254.39, -318.98, 9568.89, -39645.22, -26214.62, 29805.51, 1833.74, 17243.34, 0.00, 0.00, 0.00, 0.00, 0.00, 0.00, 0.00
176, 13052.43, 39995.07, 1252.73, 18255.16, -254.39, -318.98, 9568.89, -39645.22, -26207.78, 29804.53, 1838.94, 17245.38, 0.00, 0.00, 0.00, 0.00, 0.00, 0.00, 0.00
177, 13048.19, 39994.31, 1257.24, 18249.77, -258.90, -321.64, 9563.64, -39643.45, -26207.78, 29804.53, 1838.94, 17245.38, 0.00, 0.00, 0.00, 0.00, 0.00, 0.00, 0.00
178, 13048.19, 39994.31, 1257.24, 18249.77, -258.90, -321.64, 9563.64, -39643.45, -26207.87, 29811.88, 1846.14, 17248.28, 0.00, 0.00, 0.00, 0.00, 0.00, 0.00, 0.00
179, 13067.79, 40010.45, 1265.35, 18263.97, -246.00, -312.43, 9576.78, -39640.80, -26207.87, 29811.88, 1846.14, 17248.28, 0.00, 0.00, 0.00, 0.00, 0.00, 0.00, 0.00
180, 13067.79, 40010.45, 1265.35, 18263.97, -246.00, -312.43, 9576.78, -39640.80, -26211.91, 29803.39, 1852.38, 17243.25, 0.00, 0.00, 0.00, 0.00, -0.04, 0.25, 0.97
181, 13057.55, 40001.17, 1262.81, 18250.04, -254.88, -322.02, 9563.44, -39644.08, -26211.91, 29803.39, 1852.38, 17243.25, 0.00, 0.00, 0.00, 0.00, 0.00, 0.00, 0.00
182, 13057.55, 40001.17, 1262.81, 18250.04, -254.88, -322.02, 9563.44, -39644.08, -26210.17, 29807.79, 1849.34, 17247.90, 0.00, 0.00, 0.00, 0.00, 0.00, 0.00, 0.00
183, 13063.05, 40011.30, 1265.82, 18258.87, -248.44, -317.46, 9574.79, -39643.54, -26210.17, 29807.79, 1849.34, 17247.90, 0.00, 0.00, 0.00, 0.00, 0.00, 0.00, 0.00
184, 13063.05, 40011.30, 1265.82, 18258.87, -248.44, -317.46, 9574.79, -39643.54, -26218.48, 29801.85, 1849.45, 17238.47, 0.00, 0.00, 0.00, 0.00, 0.00, 0.00, 0.00
185, 13052.79, 39998.33, 1256.28, 18244.25, -263.08, -326.25, 9558.16, -39652.48, -26218.48, 29801.85, 1849.45, 17238.47, 0.00, 0.00, 0.00, 0.00, 0.00, 0.00, 0.00
186, 13052.79, 39998.33, 1256.28, 18244.25, -263.08, -326.25, 9558.16, -39652.48, -26210.53, 29796.60, 1840.35, 17240.32, 0.00, 0.00, 0.00, 0.00, 0.00, 0.00, 0.00
187, 13059.48, 40014.81, 1262.58, 18260.06, -250.88, -316.66, 9572.80, -39646.88, -26210.53, 29796.60, 1840.35, 17240.32, 0.00, 0.00, 0.00, 0.00, 0.00, 0.00, 0.00
188, 13059.48, 40014.81, 1262.58, 18260.06, -250.88, -316.66, 9572.80, -39646.88, -26215.42, 29808.46, 1845.00, 17245.40, 0.00, 0.00, 0.00, 0.00, 0.00, 0.00, 0.00
189, 13050.71, 39998.38, 1252.84, 18243.78, -263.88, -327.07, 9556.93, -39649.96, -26215.42, 29808.46, 1845.00, 17245.40, 0.00, 0.00, 0.00, 0.00, 0.00, 0.00, 0.00
190, 13050.71, 39998.38, 1252.84, 18243.78, -263.88, -327.07, 9556.93, -39649.96, -26209.74, 29801.96, 1836.84, 17244.04, 0.00, 0.00, 0.00, 0.00, -0.04, 0.26, 0.97
191, 13048.66, 40000.50, 1252.21, 18251.14, -257.72, -322.07, 9569.68, -39646.76, -26209.74, 29801.96, 1836.84, 17244.04, 0.00, 0.00, 0.00, 0.00, 0.00, 0.00, 0.00
192, 13048.66, 40000.50, 1252.21, 18251.14, -257.72, -322.07, 9569.68, -39646.76, -26217.75, 29808.15, 1845.20, 17244.08, 0.00, 0.00, 0.00, 0.00, 0.00, 0.00, 0.00
193, 13049.84, 39991.02, 1250.67, 18244.16, -262.28, -327.16, 9558.54, -39651.57, -26217.75, 29808.15, 1845.20, 17244.08, 0.00, 0.00, 0.00, 0.00, 0.00, 0.00, 0.00
194, 13049.84, 39991.02, 1250.67, 18244.16, -262.28, -327.16, 9558.54, -39651.57, -26210.64, 29792.77, 1834.07, 17236.77, 0.00, 0.00, 0.00, 0.00, 0.00, 0.00, 0.00
195, 13057.11, 40001.55, 1254.69, 18253.73, -257.85, -320.99, 9568.58, -39649.42, -26210.64, 29792.77, 1834.07, 17236.77, 0.00, 0.00, 0.00, 0.00, 0.00, 0.00, 0.00
196, 13057.11, 40001.55, 1254.69, 18253.73, -257.85, -320.99, 9568.58, -39649.42, -26219.02, 29807.21, 1841.25, 17242.69, 0.00, 0.00, 0.00, 0.00, 0.00, 0.00, 0.00
197, 13047.94, 39996.77, 1249.69, 18243.43, -265.16, -328.24, 9557.65, -39653.85, -26219.02, 29807.21, 1841.25, 17242.69, 0.00, 0.00, 0.00, 0.00, 0.00, 0.00, 0.00
198, 13047.94, 39996.77, 1249.69, 18243.43, -265.16, -328.24, 9557.65, -39653.85, -26213.90, 29791.05, 1828.93, 17231.32, 0.00, 0.00, 0.00, 0.00, 0.00, 0.00, 0.00
199, 13054.09, 39990.78, 1249.53, 18251.67, -261.56, -322.92, 9564.83, -39651.21, -26213.90, 29791.05, 1828.93, 17231.32, 0.00, 0.00, 0.00, 0.00, -0.05, 0.26, 0.97
200, 13054.09, 39990.78, 1249.53, 18251.67, -261.56, -322.92, 9564.83, -39651.21, -26214.57, 29814.25, 1843.35, 17246.00, 0.00, 0.00, 0.00, 0.00, 0.00, 0.00, 0.00
201, 13049.19, 39992.54, 1251.43, 18249.13, -261.43, -322.60, 9564.36, -39649.56, -26214.57, 29814.25, 1843.35, 17246.00, 0.00, 0.00, 0.00, 0.00, 0.00, 0.00, 0.00
202, 13049.19, 39992.54, 1251.43, 18249.13, -261.43, -322.60, 9564.36, -39649.56, -26210.04, 29795.08, 1832.62, 17236.10, 0.00, 0.00, 0.00, 0.00, 0.00, 0.00, 0.00
203, 13049.64, 39995.85, 1250.33, 18253.02, -261.16, -323.85, 9566.12, -39650.16, -26210.04, 29795.08, 1832.62, 17236.10, 0.00, 0.00, 0.00, 0.00, 0.00, 0.00, 0.00
204, 13049.64, 39995.85, 1250.33, 18253.02, -261.16, -323.85, 9566.12, -39650.16, -26214.28, 29814.86, 1842.79, 17244.13, 0.00, 0.00, 0.00, 0.00, 0.00, 0.00, 0.00
205, 13050.51, 39994.13, 1251.41, 18250.02, -262.52, -325.71, 9561.67, -39653.02, -26214.28, 29814.86, 1842.79, 17244.13, 0.00, 0.00, 0.00, 0.00, 0.00, 0.00, 0.00
206, 13050.51, 39994.13, 1251.41, 18250.02, -262.52, -325.71, 9561.67, -39653.02, -26209.74, 29795.72, 1834.77, 17234.92, 0.00, 0.00, 0.00, 0.00, 0.00, 0.00, 0.00
207, 13049.73, 39991.41, 1251.81, 18250.02, -262.03, -323.43, 9565.14, -39650.07, -26209.74, 29795.72, 1834.77, 17234.92, 0.00, 0.00, 0.00, 0.00, 0.00, 0.00, 0.00
208, 13049.73, 39991.41, 1251.81, 18250.02, -262.03, -323.43, 9565.14, -39650.07, -26208.69, 29817.03, 1842.39, 17248.53, 0.00, 0.00, 0.00, 0.00, 0.00, 0.00, 0.00
209, 13056.91, 39995.63, 1258.27, 18257.33, -257.98, -320.35, 9568.78, -39649.13, -26208.69, 29817.03, 1842.39, 17248.53, 0.00, 0.00, 0.00, 0.00, -0.04, 0.26, 0.97
210, 13056.91, 39995.63, 1258.27, 18257.33, -257.98, -320.35, 9568.78, -39649.13, -26205.72, 29795.25, 1839.41, 17237.13, 0.00, 0.00, 0.00, 0.00, 0.00, 0.00, 0.00
211, 13052.46, 39995.05, 1256.88, 18253.28, -258.72, -323.99, 9566.81, -39647.99, -26205.72, 29795.25, 1839.41, 17237.13, 0.00, 0.00, 0.00, 0.00, 0.00, 0.00, 0.00
212, 13052.46, 39995.05, 1256.88, 18253.28, -258.72, -323.99, 9566.81, -39647.99, -26205.94, 29819.77, 1850.12, 17252.21, 0.00, 0.00, 0.00, 0.00, 0.00, 0.00, 0.00
213, 13056.21, 40000.19, 1259.25, 18258.31, -257.18, -319.61, 9570.95, -39646.18, -26205.94, 29819.77, 1850.12, 17252.21, 0.00, 0.00, 0.00, 0.00, 0.00, 0.00, 0.00
214, 13056.21, 40000.19, 1259.25, 18258.31, -257.18, -319.61, 9570.95, -39646.18, -26208.22, 29798.92, 1835.61, 17237.64, 0.00, 0.00, 0.00, 0.00, 0.00, 0.00, 0.00
215, 13047.36, 39992.48, 1252.75, 18248.90, -267.35, -325.33, 9561.88, -39653.76, -26208.22, 29798.92, 1835.61, 17237.64, 0.00, 0.00, 0.00, 0.00, 0.00, 0.00, 0.00
216, 13047.36, 39992.48, 1252.75, 18248.90, -267.35, -325.33, 9561.88, -39653.76, -26214.77, 29809.67, 1843.35, 17242.00, 0.00, 0.00, 0.00, 0.00, 0.00, 0.00, 0.00
217, 13051.54, 40002.07, 1255.45, 18255.76, -255.82, -322.04, 9570.50, -39650.52, -26214.77, 29809.67, 1843.35, 17242.00, 0.00, 0.00, 0.00, 0.00, 0.00, 0.00, 0.00
218, 13051.54, 40002.07, 1255.45, 18255.76, -255.82, -322.04, 9570.50, -39650.52, -26207.69, 29800.11, 1838.79, 17237.04, 0.00, 0.00, 0.00, 0.00, 0.00, 0.00, 0.00
219, 13050.22, 39998.69, 1252.57, 18244.28, -264.02, -327.41, 9561.99, -39652.24, -26207.69, 29800.11, 1838.79, 17237.04, 0.00, 0.00, 0.00, 0.00, -0.04, 0.26, 0.97
220, 13050.22, 39998.69, 1252.57, 18244.28, -264.02, -327.41, 9561.99, -39652.24, -26208.07, 29808.53, 1848.15, 17247.23, 0.00, 0.00, 0.00, 0.00, 0.00, 0.00, 0.00
221, 13052.32, 40007.88, 1261.06, 18256.64, -255.10, -319.29, 9574.50, -39645.45, -26208.07, 29808.53, 1848.15, 17247.23, 0.00, 0.00, 0.00, 0.00, 0.00, 0.00, 0.00
222, 13052.32, 40007.88, 1261.06, 18256.64, -255.10, -319.29, 9574.50, -39645.45, -26206.35, 29807.26, 1844.02, 17242.65, 0.00, 0.00, 0.00, 0.00, 0.00, 0.00, 0.00
223, 13044.30, 39988.81, 1251.12, 18240.79, -265.34, -328.66, 9562.41, -39649.94, -26206.35, 29807.26, 1844.02, 17242.65, 0.00, 0.00, 0.00, 0.00, 0.00, 0.00, 0.00
224, 13044.30, 39988.81, 1251.12, 18240.79, -265.34, -328.66, 9562.41, -39649.94, -26212.31, 29809.22, 1842.54, 17246.25, 0.00, 0.00, 0.00, 0.00, 0.00, 0.00, 0.00
225, 13056.91, 40003.39, 1258.67, 18258.63, -256.53, -318.09, 9574.95, -39646.38, -26212.31, 29809.22, 1842.54, 17246.25, 0.00, 0.00, 0.00, 0.00, 0.00, 0.00, 0.00
226, 13056.91, 40003.39, 1258.67, 18258.63, -256.53, -318.09, 9574.95, -39646.38, -26210.37, 29806.43, 1843.77, 17240.62, 0.00, 0.00, 0.00, 0.00, 0.00, 0.00, 0.00
227, 13042.91, 39997.30, 1252.73, 18244.28, -267.28, -328.26, 9558.75, -39654.47, -26210.37, 29806.43, 1843.77, 17240.62, 0.00, 0.00, 0.00, 0.00, 0.00, 0.00, 0.00
228, 13042.91, 39997.30, 1252.73, 18244.28, -267.28, -328.26, 9558.75, -39654.47, -26217.21, 29799.66, 1840.20, 17235.70, 0.00, 0.00, 0.00, 0.00, 0.00, 0.00, 0.00
229, 13054.31, 40015.05, 1260.21, 18260.28, -255.19, -319.16, 9575.40, -39646.96, -26217.21, 29799.66, 1840.20, 17235.70, 0.00, 0.00, 0.00, 0.00, -0.05, 0.27, 0.97
230, 13054.31, 40015.05, 1260.21, 18260.28, -255.19, -319.16, 9575.40, -39646.96, -26211.91, 29803.95, 1850.86, 17236.10, 0.00, 0.00, 0.00, 0.00, 0.00, 0.00, 0.00
231, 13049.37, 39991.76, 1252.77, 18244.39, -263.59, -327.21, 9560.53, -39652.53, -26211.91, 29803.95, 1850.86, 17236.10, 0.00, 0.00, 0.00, 0.00, 0.00, 0.00, 0.00
232, 13049.37, 39991.76, 1252.77, 18244.39, -263.59, -327.21, 9560.53, -39652.53, -26208.00, 29806.01, 1843.86, 17243.10, 0.00, 0.00, 0.00, 0.00, 0.00, 0.00, 0.00
233, 13061.44, 40008.39, 1263.86, 18263.07, -253.67, -313.53, 9579.33, -39644.04, -26208.00, 29806.01, 1843.86, 17243.10, 0.00, 0.00, 0.00, 0.00, 0.00, 0.00, 0.00
234, 13061.44, 40008.39, 1263.86, 18263.07, -253.67, -313.53, 9579.33, -39644.04, -26209.92, 29813.87, 1851.17, 17244.68, 0.00, 0.00, 0.00, 0.00, 0.00, 0.00, 0.00
235, 13051.47, 39997.89, 1255.23, 18245.08, -264.58, -326.69, 9561.20, -39653.47, -26209.92, 29813.87, 1851.17, 17244.68, 0.00, 0.00, 0.00, 0.00, 0.00, 0.00, 0.00
236, 13051.47, 39997.89, 1255.23, 18245.08, -264.58, -326.69, 9561.20, -39653.47, -26206.06, 29801.09, 1842.32, 17237.91, 0.00, 0.00, 0.00, 0.00, 0.00, 0.00, 0.00
237, 13057.22, 40007.12, 1260.53, 18259.23, -254.63, -317.71, 9577.23, -39646.67, -26206.06, 29801.09, 1842.32, 17237.91, 0.00, 0.00, 0.00, 0.00, 0.00, 0.00, 0.00
238, 13057.22, 40007.12, 1260.53, 18259.23, -254.63, -317.71, 9577.23, -39646.67, -26209.39, 29812.44, 1852.15, 17244.88, 0.00, 0.00, 0.00, 0.00, -0.05, 0.27, 0.97
239, 13055.38, 39999.88, 1257.55, 18251.27, -263.30, -325.02, 9562.08, -39651.73, -26209.39, 29812.44, 1852.15, 17244.88, 0.00, 0.00, 0.00, 0.00, 0.00, 0.00, 0.00
240, 13055.38, 39999.88, 1257.55, 18251.27, -263.30, -325.02, 9562.08, -39651.73, -26210.97, 29796.80, 1838.39, 17234.89, 0.00, 0.00, 0.00, 0.00, 0.00, 0.00, 0.00
241, 13058.04, 40009.96, 1257.49, 18258.85, -260.22, -319.50, 9572.54, -39651.95, -26210.97, 29796.80, 1838.39, 17234.89, 0.00, 0.00, 0.00, 0.00, 0.00, 0.00, 0.00
242, 13058.04, 40009.96, 1257.49, 18258.85, -260.22, -319.50, 9572.54, -39651.95, -26220.34, 29809.89, 1847.44, 17238.69, 0.00, 0.00, 0.00, 0.00, 0.00, 0.00, 0.00
243, 13048.21, 39997.08, 1251.21, 18247.00, -265.63, -325.55, 9562.39, -39656.00, -26220.34, 29809.89, 1847.44, 17238.69, 0.00, 0.00, 0.00, 0.00, 0.00, 0.00, 0.00
244, 13048.21, 39997.08, 1251.21, 18247.00, -265.63, -325.55, 9562.39, -39656.00, -26209.34, 29797.33, 1836.22, 17235.23, 0.00, 0.00, 0.00, 0.00, 0.00, 0.00, 0.00
245, 13054.11, 39998.47, 1252.84, 18257.82, -257.00, -319.90, 9572.58, -39649.24, -26209.34, 29797.33, 1836.22, 17235.23, 0.00, 0.00, 0.00, 0.00, 0.00, 0.00, 0.00
246, 13054.11, 39998.47, 1252.84, 18257.82, -257.00, -319.90, 9572.58, -39649.24, -26216.70, 29817.16, 1845.43, 17243.23, 0.00, 0.00, 0.00, 0.00, 0.00, 0.00, 0.00
247, 13048.01, 39995.85, 1253.08, 18253.98, -262.25, -323.23, 9566.08, -39652.53, -26216.70, 29817.16, 1845.43, 17243.23, 0.00, 0.00, 0.00, 0.00, 0.00, 0.00, 0.00
248, 13048.01, 39995.85, 1253.08, 18253.98, -262.25, -323.23, 9566.08, -39652.53, -26212.18, 29801.02, 1836.67, 17237.24, 0.00, 0.00, 0.00, 0.00, -0.04, 0.26, 0.98
249, 13053.84, 39997.73, 1255.30, 18258.49, -259.28, -318.69, 9572.33, -39651.84, -26212.18, 29801.02, 1836.67, 17237.24, 0.00, 0.00, 0.00, 0.00, 0.00, 0.00, 0.00
250, 13053.84, 39997.73, 1255.30, 18258.49, -259.28, -318.69, 9572.33, -39651.84, -26209.97, 29822.39, 1853.85, 17250.81, 0.00, 0.00, 0.00, 0.00, 0.00, 0.00, 0.00
251, 13061.40, 40005.02, 1260.84, 18258.74, -253.89, -318.42, 9573.52, -39646.45, -26209.97, 29822.39, 1853.85, 17250.81, 0.00, 0.00, 0.00, 0.00, 0.00, 0.00, 0.00
252, 13061.40, 40005.02, 1260.84, 18258.74, -253.89, -318.42, 9573.52, -39646.45, -26208.20, 29797.73, 1847.22, 17237.42, 0.00, 0.00, 0.00, 0.00, 0.00, 0.00, 0.00
253, 13055.94, 40009.62, 1262.07, 18257.20, -258.21, -321.49, 9571.29, -39651.08, -26208.20, 29797.73, 1847.22, 17237.42, 0.00, 0.00, 0.00, 0.00, 0.00, 0.00, 0.00
254, 13055.94, 40009.62, 1262.07, 18257.20, -258.21, -321.49, 9571.29, -39651.08, -26207.93, 29820.49, 1857.14, 17241.17, 0.00, 0.00, 0.00, 0.00, 0.00, 0.00, 0.00
255, 13058.04, 40010.43, 1262.78, 18260.86, -256.46, -318.29, 9572.89, -39651.03, -26207.93, 29820.49, 1857.14, 17241.17, 0.00, 0.00, 0.00, 0.00, 0.00, 0.00, 0.00
0, 13058.04, 40010.43, 1262.78, 18260.86, -256.46, -318.29, 9572.89, -39651.03, -26203.20, 29798.16, 1843.06, 17236.79, 0.00, 0.00, 0.00, 0.00, 0.00, 0.00, 0.00
1, 13059.65, 39997.33, 1257.38, 18253.69, -262.23, -324.88, 9568.96, -39655.82, -26203.20, 29798.16, 1843.06, 17236.79, 0.00, 0.00, 0.00, 0.00, 0.00, 0.00, 0.00
2, 13059.65, 39997.33, 1257.38, 18253.69, -262.23, -324.88, 9568.96, -39655.82, -26208.85, 29814.50, 1854.50, 17241.13, 0.00, 0.00, 0.00, 0.00, -0.05, 0.26, 0.98
3, 13056.30, 40001.29, 1256.03, 18255.16, -258.72, -322.22, 9570.86, -39652.55, -26208.85, 29814.50, 1854.50, 17241.13, 0.00, 0.00, 0.00, 0.00, 0.00, 0.00, 0.00
4, 13056.30, 40001.29, 1256.03, 18255.16, -258.72, -322.22, 9570.86, -39652.55, -26207.15, 29796.97, 1838.43, 17230.80, 0.00, 0.00, 0.00, 0.00, 0.00, 0.00, 0.00
5, 13053.87, 40002.78, 1255.70, 18247.70, -263.28, -327.97, 9565.14, -39655.21, -26207.15, 29796.97, 1838.43, 17230.80, 0.00, 0.00, 0.00, 0.00, 0.00, 0.00, 0.00
6, 13053.87, 40002.78, 1255.70, 18247.70, -263.28, -327.97, 9565.14, -39655.21, -26206.55, 29815.24, 1851.84, 17243.39, 0.00, 0.00, 0.00, 0.00, 0.00, 0.00, 0.00
7, 13059.32, 40008.37, 1257.82, 18255.47, -259.08, -322.47, 9573.79, -39652.46, -26206.55, 29815.24, 1851.84, 17243.39, 0.00, 0.00, 0.00, 0.00, 0.00, 0.00, 0.00
8, 13059.32, 40008.37, 1257.82, 18255.47, -259.08, -322.47, 9573.79, -39652.46, -26206.48, 29798.38, 1845.14, 17233.37, 0.00, 0.00, 0.00, 0.00, 0.00, 0.00, 0.00
9, 13056.77, 39998.00, 1253.33, 18246.98, -264.15, -329.04, 9564.24, -39657.92, -26206.48, 29798.38, 1845.14, 17233.37, 0.00, 0.00, 0.00, 0.00, 0.00, 0.00, 0.00
10, 13056.77, 39998.00, 1253.33, 18246.98, -264.15, -329.04, 9564.24, -39657.92, -26214.79, 29809.22, 1846.57, 17240.23, 0.00, 0.00, 0.00, 0.00, 0.00, 0.00, 0.00
11, 13057.93, 40009.78, 1258.00, 18256.08, -258.90, -323.50, 9572.38, -39657.52, -26214.79, 29809.22, 1846.57, 17240.23, 0.00, 0.00, 0.00, 0.00, 0.00, 0.00, 0.00
12, 13057.93, 40009.78, 1258.00, 18256.08, -258.90, -323.50, 9572.38, -39657.52, -26209.21, 29801.51, 1848.40, 17233.57, 0.00, 0.00, 0.00, 0.00, -0.04, 0.26, 0.98
13, 13047.12, 40001.06, 1253.96, 18243.87, -266.32, -331.92, 9562.72, -39661.92, -26209.21, 29801.51, 1848.40, 17233.57, 0.00, 0.00, 0.00, 0.00, 0.00, 0.00, 0.00
14, 13047.12, 40001.06, 1253.96, 18243.87, -266.32, -331.92, 9562.72, -39661.92, -26206.06, 29811.84, 1855.26, 17241.15, 0.00, 0.00, 0.00, 0.00, 0.00, 0.00, 0.00
15, 13074.21, 40014.96, 1261.96, 18261.31, -251.05, -317.51, 9580.32, -39650.59, -26206.06, 29811.84, 1855.26, 17241.15, 0.00, 0.00, 0.00, 0.00, 0.00, 0.00, 0.00
16, 13074.21, 40014.96, 1261.96, 18261.31, -251.05, -317.51, 9580.32, -39650.59, -26209.41, 29804.51, 1850.39, 17236.41, 0.00, 0.00, 0.00, 0.00, 0.00, 0.00, 0.00
17, 13045.77, 39995.05, 1252.37, 18242.89, -262.01, -330.34, 9563.55, -39656.22, -26209.41, 29804.51, 1850.39, 17236.41, 0.00, 0.00, 0.00, 0.00, 0.00, 0.00, 0.00
18, 13045.77, 39995.05, 1252.37, 18242.89, -262.01, -330.34, 9563.55, -39656.22, -26204.87, 29810.36, 1853.29, 17243.30, 0.00, 0.00, 0.00, 0.00, 0.00, 0.00, 0.00
19, 13047.23, 40002.89, 1254.63, 18260.66, -252.40, -319.63, 9578.17, -39650.99, -26204.87, 29810.36, 1853.29, 17243.30, 0.00, 0.00, 0.00, 0.00, 0.00, 0.00, 0.00
20, 13047.23, 40002.89, 1254.63, 18260.66, -252.40, -319.63, 9578.17, -39650.99, -26207.38, 29805.94, 1847.39, 17239.36, 0.00, 0.00, 0.00, 0.00, 0.00, 0.00, 0.00
21, 13044.12, 39992.68, 1249.04, 18243.40, -264.20, -329.53, 9564.22, -39657.92, -26207.38, 29805.94, 1847.39, 17239.36, 0.00, 0.00, 0.00, 0.00, -0.04, 0.26, 0.97
22, 13044.12, 39992.68, 1249.04, 18243.40, -264.20, -329.53, 9564.22, -39657.92, -26200.71, 29813.47, 1844.76, 17244.66, 0.00, 0.00, 0.00, 0.00, 0.00, 0.00, 0.00
23, 13051.99, 40001.04, 1247.70, 18256.86, -257.49, -319.85, 9579.91, -39649.87, -26200.71, 29813.47, 1844.76, 17244.66, 0.00, 0.00, 0.00, 0.00, 0.00, 0.00, 0.00
24, 13051.99, 40001.04, 1247.70, 18256.86, -257.49, -319.85, 9579.91, -39649.87, -26199.24, 29822.39, 1847.89, 17248.97, 0.00, 0.00, 0.00, 0.00, 0.00, 0.00, 0.00
25, 13041.84, 39993.26, 1250.36, 18245.19, -260.31, -327.10, 9569.14, -39648.75, -26199.24, 29822.39, 1847.89, 17248.97, 0.00, 0.00, 0.00, 0.00, 0.00, 0.00, 0.00
26, 13041.84, 39993.26, 1250.36, 18245.19, -260.31, -327.10, 9569.14, -39648.75, -26193.45, 29821.63, 1847.53, 17254.03, 0.00, 0.00, 0.00, 0.00, 0.00, 0.00, 0.00
27, 13059.48, 40004.30, 1254.60, 18260.12, -250.47, -317.48, 9583.69, -39647.43, -26193.45, 29821.63, 1847.53, 17254.03, 0.00, 0.00, 0.00, 0.00, 0.00, 0.00, 0.00
28, 13059.48, 40004.30, 1254.60, 18260.12, -250.47, -317.48, 9583.69, -39647.43, -26204.78, 29818.95, 1855.33, 17245.76, 0.00, 0.00, 0.00, 0.00, 0.00, 0.00, 0.00
29, 13043.40, 39989.73, 1246.20, 18242.55, -265.67, -329.64, 9563.93, -39655.35, -26204.78, 29818.95, 1855.33, 17245.76, 0.00, 0.00, 0.00, 0.00, 0.00, 0.00, 0.00
30, 13043.40, 39989.73, 1246.20, 18242.55, -265.67, -329.64, 9563.93, -39655.35, -26203.75, 29800.15, 1839.48, 17233.15, 0.00, 0.00, 0.00, 0.00, 0.00, 0.00, 0.00
31, 13039.58, 39992.59, 1244.66, 18254.67, -259.64, -324.01, 9573.79, -39655.23, -26203.75, 29800.15, 1839.48, 17233.15, 0.00, 0.00, 0.00, 0.00, -0.04, 0.26, 0.97
32, 13039.58, 39992.59, 1244.66, 18254.67, -259.64, -324.01, 9573.79, -39655.23, -26203.04, 29819.33, 1847.35, 17242.07, 0.00, 0.00, 0.00, 0.00, 0.00, 0.00, 0.00
33, 13035.42, 39982.55, 1240.59, 18243.29, -266.41, -329.98, 9565.92, -39657.00, -26203.04, 29819.33, 1847.35, 17242.07, 0.00, 0.00, 0.00, 0.00, 0.00, 0.00, 0.00
34, 13035.42, 39982.55, 1240.59, 18243.29, -266.41, -329.98, 9565.92, -39657.00, -26202.28, 29803.97, 1834.77, 17237.98, 0.00, 0.00, 0.00, 0.00, 0.00, 0.00, 0.00
35, 13049.48, 39993.15, 1246.20, 18254.47, -261.52, -323.18, 9575.78, -39655.41, -26202.28, 29803.97, 1834.77, 17237.98, 0.00, 0.00, 0.00, 0.00, 0.00, 0.00, 0.00
36, 13049.48, 39993.15, 1246.20, 18254.47, -261.52, -323.18, 9575.78, -39655.41, -26206.53, 29817.43, 1847.46, 17240.53, 0.00, 0.00, 0.00, 0.00, 0.00, 0.00, 0.00
37, 13044.72, 39985.82, 1243.41, 18244.83, -267.57, -331.70, 9563.48, -39658.50, -26206.53, 29817.43, 1847.46, 17240.53, 0.00, 0.00, 0.00, 0.00, 0.00, 0.00, 0.00
38, 13044.72, 39985.82, 1243.41, 18244.83, -267.57, -331.70, 9563.48, -39658.50, -26203.62, 29797.09, 1833.85, 17231.21, 0.00, 0.00, 0.00, 0.00, 0.00, 0.00, 0.00
39, 13033.77, 39984.59, 1239.20, 18247.67, -266.63, -327.99, 9570.66, -39658.05, -26203.62, 29797.09, 1833.85, 17231.21, 0.00, 0.00, 0.00, 0.00, 0.00, 0.00, 0.00
40, 13033.77, 39984.59, 1239.20, 18247.67, -266.63, -327.99, 9570.66, -39658.05, -26209.54, 29818.68, 1843.82, 17246.58, 0.00, 0.00, 0.00, 0.00, 0.00, 0.00, 0.00
41, 13038.26, 39980.63, 1240.19, 18248.19, -267.62, -328.44, 9566.70, -39659.66, -26209.54, 29818.68, 1843.82, 17246.58, 0.00, 0.00, 0.00, 0.00, -0.03, 0.26, 0.97
42, 13038.26, 39980.63, 1240.19, 18248.19, -267.62, -328.44, 9566.70, -39659.66, -26204.87, 29790.96, 1828.89, 17228.37, 0.00, 0.00, 0.00, 0.00, 0.00, 0.00, 0.00
43, 13040.77, 39977.23, 1236.95, 18247.52, -270.21, -328.91, 9567.73, -39662.43, -26204.87, 29790.96, 1828.89, 17228.37, 0.00, 0.00, 0.00, 0.00, 0.00, 0.00, 0.00
44, 13040.77, 39977.23, 1236.95, 18247.52, -270.21, -328.91, 9567.73, -39662.43, -26204.71, 29817.96, 1843.44, 17239.63, 0.00, 0.00, 0.00, 0.00, 0.00, 0.00, 0.00
45, 13040.23, 39985.23, 1240.30, 18248.77, -266.95, -326.96, 9569.65, -39660.11, -26204.71, 29817.96, 1843.44, 17239.63, 0.00, 0.00, 0.00, 0.00, 0.00, 0.00, 0.00
46, 13040.23, 39985.23, 1240.30, 18248.77, -266.95, -326.96, 9569.65, -39660.11, -26197.47, 29800.87, 1832.55, 17236.84, 0.00, 0.00, 0.00, 0.00, 0.00, 0.00, 0.00
47, 13037.57, 39989.71, 1240.48, 18249.33, -264.31, -327.05, 9570.95, -39657.11, -26197.47, 29800.87, 1832.55, 17236.84, 0.00, 0.00, 0.00, 0.00, 0.00, 0.00, 0.00
48, 13037.57, 39989.71, 1240.48, 18249.33, -264.31, -327.05, 9570.95, -39657.11, -26206.86, 29817.74, 1843.21, 17243.21, 0.00, 0.00, 0.00, 0.00, 0.00, 0.00, 0.00
49, 13046.15, 39987.02, 1243.76, 18252.72, -262.21, -323.97, 9573.01, -39656.89, -26206.86, 29817.74, 1843.21, 17243.21, 0.00, 0.00, 0.00, 0.00, 0.00, 0.00, 0.00
50, 13046.15, 39987.02, 1243.76, 18252.72, -262.21, -323.97, 9573.01, -39656.89, -26199.98, 29801.74, 1836.71, 17236.57, 0.00, 0.00, 0.00, 0.00, 0.00, 0.00, 0.00
51, 13042.42, 39984.14, 1240.79, 18247.16, -266.52, -329.53, 9566.39, -39659.70, -26199.98, 29801.74, 1836.71, 17236.57, 0.00, 0.00, 0.00, 0.00, -0.04, 0.26, 0.98
52, 13042.42, 39984.14, 1240.79, 18247.16, -266.52, -329.53, 9566.39, -39659.70, -26203.37, 29814.92, 1847.33, 17245.13, 0.00, 0.00, 0.00, 0.00, 0.00, 0.00, 0.00
53, 13048.84, 39992.66, 1250.04, 18260.53, -258.21, -321.40, 9576.09, -39654.72, -26203.37, 29814.92, 1847.33, 17245.13, 0.00, 0.00, 0.00, 0.00, 0.00, 0.00, 0.00
54, 13048.84, 39992.66, 1250.04, 18260.53, -258.21, -321.40, 9576.09, -39654.72, -26197.27, 29803.08, 1844.53, 17238.63, 0.00, 0.00, 0.00, 0.00, 0.00, 0.00, 0.00
55, 13044.92, 39989.30, 1247.56, 18251.52, -262.25, -325.78, 9570.91, -39656.80, -26197.27, 29803.08, 1844.53, 17238.63, 0.00, 0.00, 0.00, 0.00, 0.00, 0.00, 0.00
56, 13044.92, 39989.30, 1247.56, 18251.52, -262.25, -325.78, 9570.91, -39656.80, -26199.75, 29822.14, 1851.13, 17249.73, 0.00, 0.00, 0.00, 0.00, 0.00, 0.00, 0.00
57, 13060.64, 39998.16, 1251.97, 18261.73, -256.20, -319.67, 9580.38, -39652.78, -26199.75, 29822.14, 1851.13, 17249.73, 0.00, 0.00, 0.00, 0.00, 0.00, 0.00, 0.00
58, 13060.64, 39998.16, 1251.97, 18261.73, -256.20, -319.67, 9580.38, -39652.78, -26198.54, 29809.74, 1845.14, 17241.13, 0.00, 0.00, 0.00, 0.00, 0.00, 0.00, 0.00
59, 13047.61, 39992.39, 1249.75, 18251.70, -264.80, -327.48, 9568.54, -39658.09, -26198.54, 29809.74, 1845.14, 17241.13, 0.00, 0.00, 0.00, 0.00, 0.00, 0.00, 0.00
60, 13047.61, 39992.39, 1249.75, 18251.70, -264.80, -327.48, 9568.54, -39658.09, -26203.26, 29823.93, 1852.67, 17248.01, 0.00, 0.00, 0.00, 0.00, -0.04, 0.27, 0.98
61, 13057.17, 40000.12, 1258.18, 18269.91, -253.54, -315.87, 9584.20, -39649.16, -26203.26, 29823.93, 1852.67, 17248.01, 0.00, 0.00, 0.00, 0.00, 0.00, 0.00, 0.00
62, 13057.17, 40000.12, 1258.18, 18269.91, -253.54, -315.87, 9584.20, -39649.16, -26199.93, 29813.72, 1849.79, 17241.69, 0.00, 0.00, 0.00, 0.00, 0.00, 0.00, 0.00
63, 13047.79, 39988.30, 1252.12, 18256.50, -262.14, -323.34, 9570.68, -39659.05, -26199.93, 29813.72, 1849.79, 17241.69, 0.00, 0.00, 0.00, 0.00, 0.00, 0.00, 0.00
64, 13047.79, 39988.30, 1252.12, 18256.50, -262.14, -323.34, 9570.68, -39659.05, -26202.61, 29810.83, 1845.54, 17240.01, 0.00, 0.00, 0.00, 0.00, 0.00, 0.00, 0.00
65, 13053.24, 39994.11, 1254.94, 18269.98, -253.36, -315.43, 9583.18, -39653.45, -26202.61, 29810.83, 1845.54, 17240.01, 0.00, 0.00, 0.00, 0.00, 0.00, 0.00, 0.00
66, 13053.24, 39994.11, 1254.94, 18269.98, -253.36, -315.43, 9583.18, -39653.45, -26199.53, 29815.82, 1844.11, 17243.90, 0.00, 0.00, 0.00, 0.00, 0.00, 0.00, 0.00
67, 13042.67, 39980.25, 1246.27, 18251.23, -266.01, -326.54, 9568.56, -39657.85, -26199.53, 29815.82, 1844.11, 17243.90, 0.00, 0.00, 0.00, 0.00, 0.00, 0.00, 0.00
68, 13042.67, 39980.25, 1246.27, 18251.23, -266.01, -326.54, 9568.56, -39657.85, -26198.10, 29817.54, 1842.16, 17246.65, 0.00, 0.00, 0.00, 0.00, 0.00, 0.00, 0.00
69, 13053.82, 40000.70, 1256.95, 18272.04, -250.41, -313.44, 9588.43, -39648.53, -26198.10, 29817.54, 1842.16, 17246.65, 0.00, 0.00, 0.00, 0.00, 0.00, 0.00, 0.00
70, 13053.82, 40000.70, 1256.95, 18272.04, -250.41, -313.44, 9588.43, -39648.53, -26197.70, 29825.52, 1847.60, 17248.51, 0.00, 0.00, 0.00, 0.00, -0.04, 0.26, 0.97
71, 13037.93, 39984.86, 1247.25, 18255.45, -263.59, -324.68, 9571.46, -39654.32, -26197.70, 29825.52, 1847.60, 17248.51, 0.00, 0.00, 0.00, 0.00, 0.00, 0.00, 0.00
72, 13037.93, 39984.86, 1247.25, 18255.45, -263.59, -324.68, 9571.46, -39654.32, -26192.87, 29818.16, 1844.38, 17249.36, 0.00, 0.00, 0.00, 0.00, 0.00, 0.00, 0.00
73, 13056.82, 39993.93, 1251.97, 18269.78, -252.35, -316.81, 9584.96, -39651.79, -26192.87, 29818.16, 1844.38, 17249.36, 0.00, 0.00, 0.00, 0.00, 0.00, 0.00, 0.00
74, 13056.82, 39993.93, 1251.97, 18269.78, -252.35, -316.81, 9584.96, -39651.79, -26200.54, 29820.56, 1848.18, 17240.68, 0.00, 0.00, 0.00, 0.00, 0.00, 0.00, 0.00
75, 13041.01, 39979.71, 1244.19, 18255.38, -263.37, -328.28, 9567.82, -39658.16, -26200.54, 29820.56, 1848.18, 17240.68, 0.00, 0.00, 0.00, 0.00, 0.00, 0.00, 0.00
76, 13041.01, 39979.71, 1244.19, 18255.38, -263.37, -328.28, 9567.82, -39658.16, -26199.08, 29812.49, 1833.42, 17238.13, 0.00, 0.00, 0.00, 0.00, 0.00, 0.00, 0.00
77, 13046.42, 39990.13, 1247.94, 18267.66, -255.35, -316.99, 9585.46, -39649.51, -26199.08, 29812.49, 1833.42, 17238.13, 0.00, 0.00, 0.00, 0.00, 0.00, 0.00, 0.00
78, 13046.42, 39990.13, 1247.94, 18267.66, -255.35, -316.99, 9585.46, -39649.51, -26202.88, 29828.58, 1842.86, 17249.78, 0.00, 0.00, 0.00, 0.00, 0.00, 0.00, 0.00
79, 13041.97, 39983.27, 1243.49, 18256.19, -267.91, -326.04, 9569.03, -39660.20, -26202.88, 29828.58, 1842.86, 17249.78, 0.00, 0.00, 0.00, 0.00, 0.00, 0.00, 0.00
80, 13041.97, 39983.27, 1243.49, 18256.19, -267.91, -326.04, 9569.03, -39660.20, -26199.19, 29806.72, 1834.21, 17238.27, 0.00, 0.00, 0.00, 0.00, -0.05, 0.26, 0.97
81, 13049.10, 39986.51, 1247.74, 18265.80, -255.46, -320.19, 9582.39, -39652.48, -26199.19, 29806.72, 1834.21, 17238.27, 0.00, 0.00, 0.00, 0.00, 0.00, 0.00, 0.00
82, 13049.10, 39986.51, 1247.74, 18265.80, -255.46, -320.19, 9582.39, -39652.48, -26197.83, 29830.41, 1849.05, 17251.01, 0.00, 0.00, 0.00, 0.00, 0.00, 0.00, 0.00
83, 13044.48, 39986.02, 1249.51, 18260.35, -259.77, -322.89, 9574.44, -39655.93, -26197.83, 29830.41, 1849.05, 17251.01, 0.00, 0.00, 0.00, 0.00, 0.00, 0.00, 0.00
84, 13044.48, 39986.02, 1249.51, 18260.35, -259.77, -322.89, 9574.44, -39655.93, -26192.69, 29810.99, 1832.78, 17240.23, 0.00, 0.00, 0.00, 0.00, 0.00, 0.00, 0.00
85, 13048.90, 39994.98, 1252.32, 18269.98, -254.99, -315.25, 9586.06, -39650.29, -26192.69, 29810.99, 1832.78, 17240.23, 0.00, 0.00, 0.00, 0.00, 0.00, 0.00, 0.00
86, 13048.90, 39994.98, 1252.32, 18269.98, -254.99, -315.25, 9586.06, -39650.29, -26194.79, 29833.05, 1849.79, 17252.66, 0.00, 0.00, 0.00, 0.00, 0.00, 0.00, 0.00
87, 13055.45, 39992.30, 1253.11, 18262.74, -253.27, -319.21, 9579.58, -39653.82, -26194.79, 29833.05, 1849.79, 17252.66, 0.00, 0.00, 0.00, 0.00, 0.00, 0.00, 0.00
88, 13055.45, 39992.30, 1253.11, 18262.74, -253.27, -319.21, 9579.58, -39653.82, -26189.45, 29809.98, 1840.93, 17238.02, 0.00, 0.00, 0.00, 0.00, 0.00, 0.00, 0.00
89, 13050.58, 39994.42, 1251.12, 18265.38, -254.30, -320.35, 9582.10, -39654.03, -26189.45, 29809.98, 1840.93, 17238.02, 0.00, 0.00, 0.00, 0.00, 0.00, 0.00, 0.00
90, 13050.58, 39994.42, 1251.12, 18265.38, -254.30, -320.35, 9582.10, -39654.03, -26199.51, 29828.69, 1845.00, 17245.18, 0.00, 0.00, 0.00, 0.00, -0.05, 0.26, 0.97
91, 13040.81, 39987.47, 1243.90, 18257.96, -258.27, -324.37, 9574.84, -39658.32, -26199.51, 29828.69, 1845.00, 17245.18, 0.00, 0.00, 0.00, 0.00, 0.00, 0.00, 0.00
92, 13040.81, 39987.47, 1243.90, 18257.96, -258.27, -324.37, 9574.84, -39658.32, -26193.83, 29806.56, 1834.61, 17237.55, 0.00, 0.00, 0.00, 0.00, 0.00, 0.00, 0.00
93, 13039.18, 39981.93, 1244.39, 18262.29, -256.82, -320.88, 9579.76, -39655.59, -26193.83, 29806.56, 1834.61, 17237.55, 0.00, 0.00, 0.00, 0.00, 0.00, 0.00, 0.00
94, 13039.18, 39981.93, 1244.39, 18262.29, -256.82, -320.88, 9579.76, -39655.59, -26199.15, 29831.62, 1843.95, 17251.43, 0.00, 0.00, 0.00, 0.00, 0.00, 0.00, 0.00
95, 13041.66, 39985.30, 1245.35, 18265.17, -254.05, -318.07, 9581.23, -39653.78, -26199.15, 29831.62, 1843.95, 17251.43, 0.00, 0.00, 0.00, 0.00, 0.00, 0.00, 0.00
96, 13041.66, 39985.30, 1245.35, 18265.17, -254.05, -318.07, 9581.23, -39653.78, -26194.52, 29809.16, 1831.66, 17240.37, 0.00, 0.00, 0.00, 0.00, 0.00, 0.00, 0.00
97, 13043.96, 39988.34, 1244.10, 18260.35, -258.16, -321.64, 9577.16, -39658.14, -26194.52, 29809.16, 1831.66, 17240.37, 0.00, 0.00, 0.00, 0.00, 0.00, 0.00, 0.00
98, 13043.96, 39988.34, 1244.10, 18260.35, -258.16, -321.64, 9577.16, -39658.14, -26203.57, 29827.20, 1838.27, 17245.51, 0.00, 0.00, 0.00, 0.00, 0.00, 0.00, 0.00
99, 13038.96, 39983.29, 1242.80, 18264.32, -256.71, -320.95, 9579.49, -39659.95, -26203.57, 29827.20, 1838.27, 17245.51, 0.00, 0.00, 0.00, 0.00, 0.00, 0.00, 0.00
100, 13038.96, 39983.29, 1242.80, 18264.32, -256.71, -320.95, 9579.49, -39659.95, -26202.14, 29804.64, 1833.89, 17231.03, 0.00, 0.00, 0.00, 0.00, -0.04, 0.27, 0.97
101, 13039.31, 39977.57, 1241.77, 18263.32, -260.00, -323.32, 9573.90, -39661.16, -26202.14, 29804.64, 1833.89, 17231.03, 0.00, 0.00, 0.00, 0.00, 0.00, 0.00, 0.00
102, 13039.31, 39977.57, 1241.77, 18263.32, -260.00, -323.32, 9573.90, -39661.16, -26201.63, 29823.53, 1834.94, 17240.50, 0.00, 0.00, 0.00, 0.00, 0.00, 0.00, 0.00
103, 13047.85, 39984.90, 1244.59, 18270.88, -252.02, -317.33, 9581.52, -39655.68, -26201.63, 29823.53, 1834.94, 17240.50, 0.00, 0.00, 0.00, 0.00, 0.00, 0.00, 0.00
104, 13047.85, 39984.90, 1244.59, 18270.88, -252.02, -317.33, 9581.52, -39655.68, -26199.57, 29811.93, 1827.03, 17236.99, 0.00, 0.00, 0.00, 0.00, 0.00, 0.00, 0.00
105, 13033.30, 39971.58, 1238.09, 18260.64, -264.40, -324.32, 9571.60, -39664.82, -26199.57, 29811.93, 1827.03, 17236.99, 0.00, 0.00, 0.00, 0.00, 0.00, 0.00, 0.00
106, 13033.30, 39971.58, 1238.09, 18260.64, -264.40, -324.32, 9571.60, -39664.82, -26207.20, 29821.12, 1833.89, 17240.86, 0.00, 0.00, 0.00, 0.00, 0.00, 0.00, 0.00
107, 13043.40, 39985.86, 1249.15, 18277.40, -249.07, -312.92, 9585.92, -39658.77, -26207.20, 29821.12, 1833.89, 17240.86, 0.00, 0.00, 0.00, 0.00, 0.00, 0.00, 0.00
108, 13043.40, 39985.86, 1249.15, 18277.40, -249.07, -312.92, 9585.92, -39658.77, -26200.04, 29810.10, 1836.82, 17237.62, 0.00, 0.00, 0.00, 0.00, 0.00, 0.00, 0.00
109, 13036.12, 39980.86, 1244.05, 18262.96, -260.91, -320.79, 9573.97, -39663.28, -26200.04, 29810.10, 1836.82, 17237.62, 0.00, 0.00, 0.00, 0.00, -0.04, 0.26, 0.98
110, 13036.12, 39980.86, 1244.05, 18262.96, -260.91, -320.79, 9573.97, -39663.28, -26199.55, 29825.07, 1841.25, 17245.15, 0.00, 0.00, 0.00, 0.00, 0.00, 0.00, 0.00
111, 13047.63, 39998.29, 1253.60, 18279.08, -243.23, -310.87, 9591.13, -39654.45, -26199.55, 29825.07, 1841.25, 17245.15, 0.00, 0.00, 0.00, 0.00, 0.00, 0.00, 0.00
112, 13047.63, 39998.29, 1253.60, 18279.08, -243.23, -310.87, 9591.13, -39654.45, -26200.24, 29818.08, 1846.75, 17237.80, 0.00, 0.00, 0.00, 0.00, 0.00, 0.00, 0.00
113, 13039.54, 39988.01, 1248.30, 18263.34, -256.91, -322.04, 9575.38, -39661.58, -26200.24, 29818.08, 1846.75, 17237.80, 0.00, 0.00, 0.00, 0.00, 0.00, 0.00, 0.00
114, 13039.54, 39988.01, 1248.30, 18263.34, -256.91, -322.04, 9575.38, -39661.58, -26199.15, 29820.27, 1846.32, 17243.57, 0.00, 0.00, 0.00, 0.00, 0.00, 0.00, 0.00
115, 13056.99, 39999.25, 1255.41, 18279.12, -243.28, -311.02, 9592.72, -39653.85, -26199.15, 29820.27, 1846.32, 17243.57, 0.00, 0.00, 0.00, 0.00, 0.00, 0.00, 0.00
116, 13056.99, 39999.25, 1255.41, 18279.12, -243.28, -311.02, 9592.72, -39653.85, -26193.90, 29829.94, 1850.84, 17252.24, 0.00, 0.00, 0.00, 0.00, 0.00, 0.00, 0.00
117, 13045.01, 39991.16, 1248.55, 18262.40, -257.00, -320.88, 9577.30, -39658.43, -26193.90, 29829.94, 1850.84, 17252.24, 0.00, 0.00, 0.00, 0.00, 0.00, 0.00, 0.00
118, 13045.01, 39991.16, 1248.55, 18262.40, -257.00, -320.88, 9577.30, -39658.43, -26194.03, 29820.24, 1844.18, 17241.53, 0.00, 0.00, 0.00, 0.00, 0.00, 0.00, 0.00
119, 13048.66, 40002.74, 1254.27, 18277.67, -244.89, -310.89, 9590.73, -39656.82, -26194.03, 29820.24, 1844.18, 17241.53, 0.00, 0.00, 0.00, 0.00, -0.04, 0.26, 0.98
120, 13048.66, 40002.74, 1254.27, 18277.67, -244.89, -310.89, 9590.73, -39656.82, -26198.23, 29821.79, 1847.84, 17239.03, 0.00, 0.00, 0.00, 0.00, 0.00, 0.00, 0.00
121, 13038.82, 39981.68, 1241.95, 18259.34, -262.41, -324.19, 9571.04, -39667.35, -26198.23, 29821.79, 1847.84, 17239.03, 0.00, 0.00, 0.00, 0.00, 0.00, 0.00, 0.00
122, 13038.82, 39981.68, 1241.95, 18259.34, -262.41, -324.19, 9571.04, -39667.35, -26203.22, 29811.17, 1831.10, 17237.66, 0.00, 0.00, 0.00, 0.00, 0.00, 0.00, 0.00
123, 13047.07, 39988.19, 1244.41, 18270.70, -256.80, -317.62, 9583.13, -39664.49, -26203.22, 29811.17, 1831.10, 17237.66, 0.00, 0.00, 0.00, 0.00, 0.00, 0.00, 0.00
124, 13047.07, 39988.19, 1244.41, 18270.70, -256.80, -317.62, 9583.13, -39664.49, -26208.20, 29820.06, 1835.95, 17235.07, 0.00, 0.00, 0.00, 0.00, 0.00, 0.00, 0.00
125, 13034.24, 39977.46, 1239.56, 18256.90, -266.72, -326.87, 9568.13, -39671.73, -26208.20, 29820.06, 1835.95, 17235.07, 0.00, 0.00, 0.00, 0.00, 0.00, 0.00, 0.00
126, 13034.24, 39977.46, 1239.56, 18256.90, -266.72, -326.87, 9568.13, -39671.73, -26207.44, 29802.09, 1818.72, 17229.13, 0.00, 0.00, 0.00, 0.00, 0.00, 0.00, 0.00
127, 13055.16, 39989.68, 1241.89, 18272.82, -260.22, -319.16, 9580.78, -39666.68, -26207.44, 29802.09, 1818.72, 17229.13, 0.00, 0.00, 0.00, 0.00, 0.00, 0.00, 0.00
128, 13055.16, 39989.68, 1241.89, 18272.82, -260.22, -319.16, 9580.78, -39666.68, -26206.17, 29823.42, 1837.16, 17238.71, 0.00, 0.00, 0.00, 0.00, 0.00, 0.00, 0.00
129, 13046.89, 39988.41, 1243.38, 18262.96, -262.54, -322.00, 9573.16, -39666.86, -26206.17, 29823.42, 1837.16, 17238.71, 0.00, 0.00, 0.00, 0.00, -0.04, 0.26, 0.98
130, 13046.89, 39988.41, 1243.38, 18262.96, -262.54, -322.00, 9573.16, -39666.86, -26203.64, 29807.59, 1824.60, 17233.26, 0.00, 0.00, 0.00, 0.00, 0.00, 0.00, 0.00
131, 13048.48, 39987.65, 1246.18, 18271.97, -256.20, -317.51, 9583.20, -39662.70, -26203.64, 29807.59, 1824.60, 17233.26, 0.00, 0.00, 0.00, 0.00, 0.00, 0.00, 0.00
132, 13048.48, 39987.65, 1246.18, 18271.97, -256.20, -317.51, 9583.20, -39662.70, -26207.02, 29827.71, 1838.45, 17242.56, 0.00, 0.00, 0.00, 0.00, 0.00, 0.00, 0.00
133, 13042.51, 39984.43, 1247.81, 18268.37, -260.93, -319.38, 9575.40, -39666.10, -26207.02, 29827.71, 1838.45, 17242.56, 0.00, 0.00, 0.00, 0.00, 0.00, 0.00, 0.00
134, 13042.51, 39984.43, 1247.81, 18268.37, -260.93, -319.38, 9575.40, -39666.10, -26201.70, 29803.19, 1831.88, 17234.04, 0.00, 0.00, 0.00, 0.00, 0.00, 0.00, 0.00
135, 13057.44, 39996.99, 1252.82, 18275.77, -251.99, -315.54, 9583.82, -39662.21, -26201.70, 29803.19, 1831.88, 17234.04, 0.00, 0.00, 0.00, 0.00, 0.00, 0.00, 0.00
136, 13057.44, 39996.99, 1252.82, 18275.77, -251.99, -315.54, 9583.82, -39662.21, -26202.55, 29827.29, 1847.46, 17240.39, 0.00, 0.00, 0.00, 0.00, 0.00, 0.00, 0.00
137, 13061.80, 40000.14, 1253.37, 18270.29, -250.76, -316.48, 9580.61, -39661.89, -26202.55, 29827.29, 1847.46, 17240.39, 0.00, 0.00, 0.00, 0.00, 0.00, 0.00, 0.00
138, 13061.80, 40000.14, 1253.37, 18270.29, -250.76, -316.48, 9580.61, -39661.89, -26194.10, 29807.01, 1839.26, 17235.59, 0.00, 0.00, 0.00, 0.00, 0.00, 0.00, 0.00
139, 13059.90, 40005.84, 1260.46, 18280.22, -244.93, -311.67, 9589.48, -39656.20, -26194.10, 29807.01, 1839.26, 17235.59, 0.00, 0.00, 0.00, 0.00, -0.04, 0.26, 0.97
140, 13059.90, 40005.84, 1260.46, 18280.22, -244.93, -311.67, 9589.48, -39656.20, -26190.77, 29837.90, 1857.52, 17248.21, 0.00, 0.00, 0.00, 0.00, 0.00, 0.00, 0.00
141, 13058.58, 40011.05, 1262.16, 18276.66, -241.69, -311.65, 9590.33, -39653.04, -26190.77, 29837.90, 1857.52, 17248.21, 0.00, 0.00, 0.00, 0.00, 0.00, 0.00, 0.00
142, 13058.58, 40011.05, 1262.16, 18276.66, -241.69, -311.65, 9590.33, -39653.04, -26187.39, 29820.36, 1851.64, 17246.34, 0.00, 0.00, 0.00, 0.00, 0.00, 0.00, 0.00
143, 13058.13, 40003.74, 1259.48, 18275.52, -245.06, -312.30, 9590.40, -39652.86, -26187.39, 29820.36, 1851.64, 17246.34, 0.00, 0.00, 0.00, 0.00, 0.00, 0.00, 0.00
144, 13058.13, 40003.74, 1259.48, 18275.52, -245.06, -312.30, 9590.40, -39652.86, -26191.10, 29837.46, 1864.05, 17247.66, 0.00, 0.00, 0.00, 0.00, 0.00, 0.00, 0.00
145, 13056.28, 40007.88, 1259.10, 18273.89, -243.88, -313.44, 9587.33, -39656.93, -26191.10, 29837.46, 1864.05, 17247.66, 0.00, 0.00, 0.00, 0.00, 0.00, 0.00, 0.00
146, 13056.28, 40007.88, 1259.10, 18273.89, -243.88, -313.44, 9587.33, -39656.93, -26192.49, 29813.02, 1848.56, 17237.24, 0.00, 0.00, 0.00, 0.00, 0.00, 0.00, 0.00
147, 13050.49, 40010.89, 1254.58, 18264.35, -254.36, -321.64, 9579.87, -39662.61, -26192.49, 29813.02, 1848.56, 17237.24, 0.00, 0.00, 0.00, 0.00, 0.00, 0.00, 0.00
148, 13050.49, 40010.89, 1254.58, 18264.35, -254.36, -321.64, 9579.87, -39662.61, -26194.12, 29829.34, 1858.70, 17244.64, 0.00, 0.00, 0.00, 0.00, -0.04, 0.26, 0.97
149, 13069.18, 40010.61, 1258.09, 18274.43, -247.41, -313.37, 9588.56, -39658.41, -26194.12, 29829.34, 1858.70, 17244.64, 0.00, 0.00, 0.00, 0.00, 0.00, 0.00, 0.00
150, 13069.18, 40010.61, 1258.09, 18274.43, -247.41, -313.37, 9588.56, -39658.41, -26192.24, 29810.32, 1850.70, 17231.96, 0.00, 0.00, 0.00, 0.00, 0.00, 0.00, 0.00
151, 13063.90, 40002.78, 1254.25, 18265.55, -256.53, -321.73, 9577.72, -39663.30, -26192.24, 29810.32, 1850.70, 17231.96, 0.00, 0.00, 0.00, 0.00, 0.00, 0.00, 0.00
152, 13063.90, 40002.78, 1254.25, 18265.55, -256.53, -321.73, 9577.72, -39663.30, -26197.25, 29827.31, 1851.69, 17242.27, 0.00, 0.00, 0.00, 0.00, 0.00, 0.00, 0.00
153, 13057.51, 40007.36, 1257.93, 18277.58, -248.62, -314.02, 9586.26, -39661.96, -26197.25, 29827.31, 1851.69, 17242.27, 0.00, 0.00, 0.00, 0.00, 0.00, 0.00, 0.00
154, 13057.51, 40007.36, 1257.93, 18277.58, -248.62, -314.02, 9586.26, -39661.96, -26202.03, 29811.10, 1838.23, 17235.23, 0.00, 0.00, 0.00, 0.00, 0.00, 0.00, 0.00
155, 13053.55, 39992.10, 1247.94, 18263.88, -262.92, -322.49, 9572.02, -39670.90, -26202.03, 29811.10, 1838.23, 17235.23, 0.00, 0.00, 0.00, 0.00, 0.00, 0.00, 0.00
156, 13053.55, 39992.10, 1247.94, 18263.88, -262.92, -322.49, 9572.02, -39670.90, -26204.63, 29818.92, 1841.40, 17235.63, 0.00, 0.00, 0.00, 0.00, 0.00, 0.00, 0.00
157, 13060.82, 40002.40, 1252.95, 18276.06, -252.11, -314.56, 9585.30, -39664.46, -26204.63, 29818.92, 1841.40, 17235.63, 0.00, 0.00, 0.00, 0.00, 0.00, 0.00, 0.00
158, 13060.82, 40002.40, 1252.95, 18276.06, -252.11, -314.56, 9585.30, -39664.46, -26201.21, 29811.30, 1841.34, 17230.22, 0.00, 0.00, 0.00, 0.00, -0.04, 0.26, 0.97
159, 13047.12, 39987.54, 1246.47, 18261.53, -264.58, -325.02, 9570.23, -39672.42, -26201.21, 29811.30, 1841.34, 17230.22, 0.00, 0.00, 0.00, 0.00, 0.00, 0.00, 0.00
160, 13047.12, 39987.54, 1246.47, 18261.53, -264.58, -325.02, 9570.23, -39672.42, -26198.41, 29817.29, 1843.55, 17236.88, 0.00, 0.00, 0.00, 0.00, 0.00, 0.00, 0.00
161, 13057.20, 40002.94, 1252.88, 18276.13, -247.52, -311.72, 9589.93, -39660.15, -26198.41, 29817.29, 1843.55, 17236.88, 0.00, 0.00, 0.00, 0.00, 0.00, 0.00, 0.00
162, 13057.20, 40002.94, 1252.88, 18276.13, -247.52, -311.72, 9589.93, -39660.15, -26194.32, 29824.33, 1846.01, 17239.32, 0.00, 0.00, 0.00, 0.00, 0.00, 0.00, 0.00
163, 13044.83, 39980.59, 1243.05, 18260.59, -259.62, -323.09, 9573.50, -39667.53, -26194.32, 29824.33, 1846.01, 17239.32, 0.00, 0.00, 0.00, 0.00, 0.00, 0.00, 0.00
164, 13044.83, 39980.59, 1243.05, 18260.59, -259.62, -323.09, 9573.50, -39667.53, -26196.13, 29820.53, 1843.73, 17240.68, 0.00, 0.00, 0.00, 0.00, 0.00, 0.00, 0.00
165, 13047.03, 39996.37, 1247.47, 18274.74, -247.68, -311.99, 9591.27, -39658.74, -26196.13, 29820.53, 1843.73, 17240.68, 0.00, 0.00, 0.00, 0.00, 0.00, 0.00, 0.00
166, 13047.03, 39996.37, 1247.47, 18274.74, -247.68, -311.99, 9591.27, -39658.74, -26192.67, 29824.63, 1850.10, 17243.77, 0.00, 0.00, 0.00, 0.00, 0.00, 0.00, 0.00
167, 13035.78, 39983.74, 1240.12, 18258.94, -257.38, -322.87, 9575.31, -39663.55, -26192.67, 29824.63, 1850.10, 17243.77, 0.00, 0.00, 0.00, 0.00, 0.00, 0.00, 0.00
168, 13035.78, 39983.74, 1240.12, 18258.94, -257.38, -322.87, 9575.31, -39663.55, -26192.31, 29817.14, 1841.25, 17242.63, 0.00, 0.00, 0.00, 0.00, -0.04, 0.26, 0.97
169, 13046.85, 39992.54, 1243.54, 18273.69, -247.75, -312.81, 9589.23, -39661.79, -26192.31, 29817.14, 1841.25, 17242.63, 0.00, 0.00, 0.00, 0.00, 0.00, 0.00, 0.00
170, 13046.85, 39992.54, 1243.54, 18273.69, -247.75, -312.81, 9589.23, -39661.79, -26191.24, 29834.04, 1853.09, 17244.97, 0.00, 0.00, 0.00, 0.00, 0.00, 0.00, 0.00
171, 13042.98, 39988.70, 1243.67, 18260.90, -256.53, -321.91, 9576.63, -39663.59, -26191.24, 29834.04, 1853.09, 17244.97, 0.00, 0.00, 0.00, 0.00, 0.00, 0.00, 0.00
172, 13042.98, 39988.70, 1243.67, 18260.90, -256.53, -321.91, 9576.63, -39663.59, -26192.11, 29814.72, 1840.02, 17236.08, 0.00, 0.00, 0.00, 0.00, 0.00, 0.00, 0.00
173, 13047.96, 39994.89, 1243.49, 18274.00, -252.91, -316.57, 9585.17, -39666.21, -26192.11, 29814.72, 1840.02, 17236.08, 0.00, 0.00, 0.00, 0.00, 0.00, 0.00, 0.00
174, 13047.96, 39994.89, 1243.49, 18274.00, -252.91, -316.57, 9585.17, -39666.21, -26192.29, 29835.51, 1853.12, 17247.72, 0.00, 0.00, 0.00, 0.00, 0.00, 0.00, 0.00
175, 13042.56, 39985.75, 1239.99, 18258.40, -262.21, -324.23, 9573.72, -39669.05, -26192.29, 29835.51, 1853.12, 17247.72, 0.00, 0.00, 0.00, 0.00, 0.00, 0.00, 0.00
176, 13042.56, 39985.75, 1239.99, 18258.40, -262.21, -324.23, 9573.72, -39669.05, -26194.48, 29813.81, 1836.17, 17236.19, 0.00, 0.00, 0.00, 0.00, 0.00, 0.00, 0.00
177, 13051.54, 39991.07, 1240.45, 18271.10, -257.81, -317.86, 9584.23, -39667.46, -26194.48, 29813.81, 1836.17, 17236.19, 0.00, 0.00, 0.00, 0.00, 0.00, 0.00, 0.00
178, 13051.54, 39991.07, 1240.45, 18271.10, -257.81, -317.86, 9584.23, -39667.46, -26195.80, 29833.95, 1842.63, 17239.59, 0.00, 0.00, 0.00, 0.00, -0.04, 0.26, 0.97
179, 13035.49, 39980.96, 1234.49, 18258.33, -263.64, -326.02, 9571.67, -39672.51, -26195.80, 29833.95, 1842.63, 17239.59, 0.00, 0.00, 0.00, 0.00, 0.00, 0.00, 0.00
180, 13035.49, 39980.96, 1234.49, 18258.33, -263.64, -326.02, 9571.67, -39672.51, -26199.11, 29806.88, 1826.83, 17228.30, 0.00, 0.00, 0.00, 0.00, 0.00, 0.00, 0.00
181, 13046.49, 39979.20, 1233.03, 18264.01, -260.84, -322.65, 9578.39, -39673.94, -26199.11, 29806.88, 1826.83, 17228.30, 0.00, 0.00, 0.00, 0.00, 0.00, 0.00, 0.00
182, 13046.49, 39979.20, 1233.03, 18264.01, -260.84, -322.65, 9578.39, -39673.94, -26200.56, 29831.67, 1836.75, 17243.32, 0.00, 0.00, 0.00, 0.00, 0.00, 0.00, 0.00
183, 13041.82, 39977.21, 1232.74, 18260.03, -262.54, -324.57, 9574.77, -39672.16, -26200.56, 29831.67, 1836.75, 17243.32, 0.00, 0.00, 0.00, 0.00, 0.00, 0.00, 0.00
184, 13041.82, 39977.21, 1232.74, 18260.03, -262.54, -324.57, 9574.77, -39672.16, -26199.13, 29805.67, 1825.51, 17228.30, 0.00, 0.00, 0.00, 0.00, 0.00, 0.00, 0.00
185, 13042.96, 39984.83, 1235.65, 18266.25, -262.34, -322.33, 9575.91, -39673.34, -26199.13, 29805.67, 1825.51, 17228.30, 0.00, 0.00, 0.00, 0.00, 0.00, 0.00, 0.00
186, 13042.96, 39984.83, 1235.65, 18266.25, -262.34, -322.33, 9575.91, -39673.34, -26200.65, 29832.22, 1843.04, 17237.02, 0.00, 0.00, 0.00, 0.00, 0.00, 0.00, 0.00
187, 13036.05, 39984.81, 1238.04, 18264.97, -257.92, -322.20, 9576.18, -39672.91, -26200.65, 29832.22, 1843.04, 17237.02, 0.00, 0.00, 0.00, 0.00, -0.04, 0.26, 0.97
188, 13036.05, 39984.81, 1238.04, 18264.97, -257.92, -322.20, 9576.18, -39672.91, -26196.02, 29804.62, 1833.58, 17227.38, 0.00, 0.00, 0.00, 0.00, 0.00, 0.00, 0.00
189, 13047.79, 39986.15, 1239.87, 18267.61, -252.37, -319.94, 9581.50, -39668.09, -26196.02, 29804.62, 1833.58, 17227.38, 0.00, 0.00, 0.00, 0.00, 0.00, 0.00, 0.00
190, 13047.79, 39986.15, 1239.87, 18267.61, -252.37, -319.94, 9581.50, -39668.09, -26191.91, 29835.17, 1854.05, 17244.48, 0.00, 0.00, 0.00, 0.00, 0.00, 0.00, 0.00
191, 13047.85, 39997.15, 1244.70, 18269.27, -248.33, -317.04, 9585.41, -39662.95, -26191.91, 29835.17, 1854.05, 17244.48, 0.00, 0.00, 0.00, 0.00, 0.00, 0.00, 0.00
192, 13047.85, 39997.15, 1244.70, 18269.27, -248.33, -317.04, 9585.41, -39662.95, -26184.67, 29822.14, 1846.61, 17238.13, 0.00, 0.00, 0.00, 0.00, 0.00, 0.00, 0.00
193, 13035.78, 39990.09, 1241.08, 18264.59, -251.05, -322.25, 9579.93, -39663.48, -26184.67, 29822.14, 1846.61, 17238.13, 0.00, 0.00, 0.00, 0.00, 0.00, 0.00, 0.00
194, 13035.78, 39990.09, 1241.08, 18264.59, -251.05, -322.25, 9579.93, -39663.48, -26190.21, 29838.55, 1855.57, 17246.94, 0.00, 0.00, 0.00, 0.00, 0.00, 0.00, 0.00
195, 13038.17, 39997.75, 1241.93, 18265.71, -249.69, -319.65, 9584.43, -39664.55, -26190.21, 29838.55, 1855.57, 17246.94, 0.00, 0.00, 0.00, 0.00, 0.00, 0.00, 0.00
196, 13038.17, 39997.75, 1241.93, 18265.71, -249.69, -319.65, 9584.43, -39664.55, -26185.60, 29816.87, 1846.34, 17234.16, 0.00, 0.00, 0.00, 0.00, 0.00, 0.00, 0.00
197, 13043.23, 39994.20, 1241.55, 18260.62, -253.71, -323.68, 9580.47, -39666.45, -26185.60, 29816.87, 1846.34, 17234.16, 0.00, 0.00, 0.00, 0.00, -0.04, 0.26, 0.97
198, 13043.23, 39994.20, 1241.55, 18260.62, -253.71, -323.68, 9580.47, -39666.45, -26184.42, 29837.79, 1856.71, 17246.92, 0.00, 0.00, 0.00, 0.00, 0.00, 0.00, 0.00
199, 13047.03, 40007.36, 1248.01, 18270.65, -242.45, -314.24, 9593.35, -39657.92, -26184.42, 29837.79, 1856.71, 17246.92, 0.00, 0.00, 0.00, 0.00, 0.00, 0.00, 0.00
200, 13047.03, 40007.36, 1248.01, 18270.65, -242.45, -314.24, 9593.35, -39657.92, -26180.87, 29828.78, 1856.87, 17242.67, 0.00, 0.00, 0.00, 0.00, 0.00, 0.00, 0.00
201, 13039.99, 39995.23, 1246.04, 18265.69, -249.83, -316.86, 9583.87, -39660.93, -26180.87, 29828.78, 1856.87, 17242.67, 0.00, 0.00, 0.00, 0.00, 0.00, 0.00, 0.00
202, 13039.99, 39995.23, 1246.04, 18265.69, -249.83, -316.86, 9583.87, -39660.93, -26183.21, 29841.81, 1857.36, 17251.66, 0.00, 0.00, 0.00, 0.00, 0.00, 0.00, 0.00
203, 13052.03, 40002.76, 1245.80, 18274.43, -246.34, -313.95, 9592.05, -39660.51, -26183.21, 29841.81, 1857.36, 17251.66, 0.00, 0.00, 0.00, 0.00, 0.00, 0.00, 0.00
204, 13052.03, 40002.76, 1245.80, 18274.43, -246.34, -313.95, 9592.05, -39660.51, -26192.35, 29824.38, 1849.54, 17236.44, 0.00, 0.00, 0.00, 0.00, 0.00, 0.00, 0.00
205, 13044.61, 39992.30, 1242.35, 18259.41, -257.09, -326.87, 9574.75, -39672.73, -26192.35, 29824.38, 1849.54, 17236.44, 0.00, 0.00, 0.00, 0.00, 0.00, 0.00, 0.00
206, 13044.61, 39992.30, 1242.35, 18259.41, -257.09, -326.87, 9574.75, -39672.73, -26188.93, 29829.56, 1853.38, 17239.95, 0.00, 0.00, 0.00, 0.00, 0.00, 0.00, 0.00
207, 13058.18, 40012.59, 1257.71, 18282.77, -240.46, -309.64, 9595.51, -39657.98, -26188.93, 29829.56, 1853.38, 17239.95, 0.00, 0.00, 0.00, 0.00, -0.04, 0.26, 0.97
208, 13058.18, 40012.59, 1257.71, 18282.77, -240.46, -309.64, 9595.51, -39657.98, -26190.07, 29824.04, 1854.88, 17237.96, 0.00, 0.00, 0.00, 0.00, 0.00, 0.00, 0.00
209, 13047.20, 39997.53, 1249.64, 18264.04, -252.80, -322.25, 9576.34, -39669.07, -26190.07, 29824.04, 1854.88, 17237.96, 0.00, 0.00, 0.00, 0.00, 0.00, 0.00, 0.00
210, 13047.20, 39997.53, 1249.64, 18264.04, -252.80, -322.25, 9576.34, -39669.07, -26192.78, 29824.69, 1846.92, 17238.76, 0.00, 0.00, 0.00, 0.00, 0.00, 0.00, 0.00
211, 13065.96, 40007.61, 1251.45, 18284.02, -242.07, -308.97, 9594.51, -39663.39, -26192.78, 29824.69, 1846.92, 17238.76, 0.00, 0.00, 0.00, 0.00, 0.00, 0.00, 0.00
212, 13065.96, 40007.61, 1251.45, 18284.02, -242.07, -308.97, 9594.51, -39663.39, -26192.42, 29826.46, 1853.54, 17240.84, 0.00, 0.00, 0.00, 0.00, 0.00, 0.00, 0.00
213, 13052.03, 39998.24, 1248.37, 18268.08, -251.14, -318.58, 9579.02, -39665.72, -26192.42, 29826.46, 1853.54, 17240.84, 0.00, 0.00, 0.00, 0.00, 0.00, 0.00, 0.00
214, 13052.03, 39998.24, 1248.37, 18268.08, -251.14, -318.58, 9579.02, -39665.72, -26187.24, 29826.12, 1850.43, 17239.43, 0.00, 0.00, 0.00, 0.00, 0.00, 0.00, 0.00
215, 13052.39, 40003.07, 1253.37, 18279.81, -240.82, -310.35, 9593.68, -39660.15, -26187.24, 29826.12, 1850.43, 17239.43, 0.00, 0.00, 0.00, 0.00, 0.00, 0.00, 0.00
216, 13052.39, 40003.07, 1253.37, 18279.81, -240.82, -310.35, 9593.68, -39660.15, -26188.98, 29830.53, 1856.60, 17238.94, 0.00, 0.00, 0.00, 0.00, 0.00, 0.00, 0.00
217, 13050.36, 40000.28, 1250.85, 18267.14, -250.83, -318.83, 9581.10, -39666.68, -26188.98, 29830.53, 1856.60, 17238.94, 0.00, 0.00, 0.00, 0.00, -0.04, 0.26, 0.97
218, 13050.36, 40000.28, 1250.85, 18267.14, -250.83, -318.83, 9581.10, -39666.68, -26191.97, 29819.21, 1842.25, 17238.58, 0.00, 0.00, 0.00, 0.00, 0.00, 0.00, 0.00
219, 13046.44, 40002.63, 1245.19, 18271.99, -246.56, -315.05, 9589.17, -39664.64, -26191.97, 29819.21, 1842.25, 17238.58, 0.00, 0.00, 0.00, 0.00, 0.00, 0.00, 0.00
220, 13046.44, 40002.63, 1245.19, 18271.99, -246.56, -315.05, 9589.17, -39664.64, -26191.46, 29831.42, 1858.95, 17240.41, 0.00, 0.00, 0.00, 0.00, 0.00, 0.00, 0.00
221, 13033.66, 39989.08, 1243.49, 18260.77, -254.39, -321.75, 9576.98, -39669.09, -26191.46, 29831.42, 1858.95, 17240.41, 0.00, 0.00, 0.00, 0.00, 0.00, 0.00, 0.00
222, 13033.66, 39989.08, 1243.49, 18260.77, -254.39, -321.75, 9576.98, -39669.09, -26186.61, 29814.48, 1843.68, 17233.98, 0.00, 0.00, 0.00, 0.00, 0.00, 0.00, 0.00
223, 13035.65, 39998.00, 1246.29, 18272.04, -247.95, -314.35, 9589.03, -39667.30, -26186.61, 29814.48, 1843.68, 17233.98, 0.00, 0.00, 0.00, 0.00, 0.00, 0.00, 0.00
